Created as New Dataset,Sample 690 By YargerLab Date Friday, June 13 2025
cm-1,A
4000.00,0.0155
3999.00,0.0155
3998.00,0.0154
3997.00,0.0154
3996.00,0.0154
3995.00,0.0154
3994.00,0.0154
3993.00,0.0154
3992.00,0.0154
3991.00,0.0154
3990.00,0.0154
3989.00,0.0154
3988.00,0.0154
3987.00,0.0154
3986.00,0.0154
3985.00,0.0153
3984.00,0.0153
3983.00,0.0153
3982.00,0.0153
3981.00,0.0153
3980.00,0.0153
3979.00,0.0153
3978.00,0.0153
3977.00,0.0153
3976.00,0.0153
3975.00,0.0153
3974.00,0.0153
3973.00,0.0153
3972.00,0.0153
3971.00,0.0153
3970.00,0.0153
3969.00,0.0153
3968.00,0.0153
3967.00,0.0153
3966.00,0.0153
3965.00,0.0153
3964.00,0.0153
3963.00,0.0153
3962.00,0.0153
3961.00,0.0152
3960.00,0.0152
3959.00,0.0152
3958.00,0.0152
3957.00,0.0152
3956.00,0.0153
3955.00,0.0153
3954.00,0.0153
3953.00,0.0153
3952.00,0.0154
3951.00,0.0154
3950.00,0.0153
3949.00,0.0153
3948.00,0.0153
3947.00,0.0152
3946.00,0.0152
3945.00,0.0152
3944.00,0.0152
3943.00,0.0152
3942.00,0.0152
3941.00,0.0152
3940.00,0.0152
3939.00,0.0152
3938.00,0.0152
3937.00,0.0152
3936.00,0.0152
3935.00,0.0152
3934.00,0.0152
3933.00,0.0152
3932.00,0.0152
3931.00,0.0152
3930.00,0.0152
3929.00,0.0152
3928.00,0.0152
3927.00,0.0152
3926.00,0.0152
3925.00,0.0152
3924.00,0.0152
3923.00,0.0152
3922.00,0.0152
3921.00,0.0153
3920.00,0.0153
3919.00,0.0152
3918.00,0.0152
3917.00,0.0151
3916.00,0.0151
3915.00,0.0151
3914.00,0.0150
3913.00,0.0150
3912.00,0.0150
3911.00,0.0150
3910.00,0.0151
3909.00,0.0151
3908.00,0.0151
3907.00,0.0152
3906.00,0.0152
3905.00,0.0152
3904.00,0.0153
3903.00,0.0153
3902.00,0.0153
3901.00,0.0152
3900.00,0.0152
3899.00,0.0151
3898.00,0.0151
3897.00,0.0151
3896.00,0.0151
3895.00,0.0151
3894.00,0.0151
3893.00,0.0151
3892.00,0.0150
3891.00,0.0150
3890.00,0.0151
3889.00,0.0151
3888.00,0.0151
3887.00,0.0150
3886.00,0.0150
3885.00,0.0150
3884.00,0.0151
3883.00,0.0151
3882.00,0.0150
3881.00,0.0149
3880.00,0.0149
3879.00,0.0149
3878.00,0.0150
3877.00,0.0150
3876.00,0.0149
3875.00,0.0149
3874.00,0.0150
3873.00,0.0151
3872.00,0.0151
3871.00,0.0150
3870.00,0.0150
3869.00,0.0150
3868.00,0.0150
3867.00,0.0150
3866.00,0.0150
3865.00,0.0149
3864.00,0.0149
3863.00,0.0149
3862.00,0.0149
3861.00,0.0149
3860.00,0.0149
3859.00,0.0149
3858.00,0.0150
3857.00,0.0151
3856.00,0.0152
3855.00,0.0152
3854.00,0.0151
3853.00,0.0150
3852.00,0.0151
3851.00,0.0150
3850.00,0.0149
3849.00,0.0148
3848.00,0.0147
3847.00,0.0147
3846.00,0.0147
3845.00,0.0147
3844.00,0.0148
3843.00,0.0148
3842.00,0.0149
3841.00,0.0150
3840.00,0.0150
3839.00,0.0150
3838.00,0.0150
3837.00,0.0150
3836.00,0.0149
3835.00,0.0149
3834.00,0.0148
3833.00,0.0147
3832.00,0.0147
3831.00,0.0146
3830.00,0.0147
3829.00,0.0147
3828.00,0.0146
3827.00,0.0146
3826.00,0.0147
3825.00,0.0148
3824.00,0.0149
3823.00,0.0149
3822.00,0.0148
3821.00,0.0148
3820.00,0.0148
3819.00,0.0149
3818.00,0.0148
3817.00,0.0147
3816.00,0.0146
3815.00,0.0146
3814.00,0.0146
3813.00,0.0145
3812.00,0.0145
3811.00,0.0144
3810.00,0.0145
3809.00,0.0145
3808.00,0.0145
3807.00,0.0145
3806.00,0.0145
3805.00,0.0146
3804.00,0.0146
3803.00,0.0146
3802.00,0.0145
3801.00,0.0145
3800.00,0.0145
3799.00,0.0145
3798.00,0.0145
3797.00,0.0144
3796.00,0.0143
3795.00,0.0143
3794.00,0.0143
3793.00,0.0143
3792.00,0.0143
3791.00,0.0143
3790.00,0.0143
3789.00,0.0143
3788.00,0.0143
3787.00,0.0143
3786.00,0.0142
3785.00,0.0142
3784.00,0.0142
3783.00,0.0143
3782.00,0.0143
3781.00,0.0143
3780.00,0.0142
3779.00,0.0142
3778.00,0.0142
3777.00,0.0142
3776.00,0.0142
3775.00,0.0142
3774.00,0.0142
3773.00,0.0142
3772.00,0.0143
3771.00,0.0143
3770.00,0.0143
3769.00,0.0143
3768.00,0.0143
3767.00,0.0143
3766.00,0.0142
3765.00,0.0142
3764.00,0.0142
3763.00,0.0143
3762.00,0.0143
3761.00,0.0143
3760.00,0.0143
3759.00,0.0143
3758.00,0.0143
3757.00,0.0143
3756.00,0.0143
3755.00,0.0144
3754.00,0.0145
3753.00,0.0145
3752.00,0.0145
3751.00,0.0145
3750.00,0.0145
3749.00,0.0145
3748.00,0.0145
3747.00,0.0145
3746.00,0.0144
3745.00,0.0143
3744.00,0.0142
3743.00,0.0143
3742.00,0.0142
3741.00,0.0141
3740.00,0.0141
3739.00,0.0141
3738.00,0.0141
3737.00,0.0141
3736.00,0.0141
3735.00,0.0141
3734.00,0.0140
3733.00,0.0140
3732.00,0.0140
3731.00,0.0139
3730.00,0.0139
3729.00,0.0139
3728.00,0.0139
3727.00,0.0138
3726.00,0.0138
3725.00,0.0138
3724.00,0.0138
3723.00,0.0137
3722.00,0.0137
3721.00,0.0137
3720.00,0.0137
3719.00,0.0137
3718.00,0.0137
3717.00,0.0137
3716.00,0.0137
3715.00,0.0137
3714.00,0.0137
3713.00,0.0137
3712.00,0.0137
3711.00,0.0137
3710.00,0.0137
3709.00,0.0137
3708.00,0.0137
3707.00,0.0136
3706.00,0.0135
3705.00,0.0135
3704.00,0.0135
3703.00,0.0134
3702.00,0.0134
3701.00,0.0134
3700.00,0.0134
3699.00,0.0134
3698.00,0.0134
3697.00,0.0134
3696.00,0.0134
3695.00,0.0134
3694.00,0.0134
3693.00,0.0135
3692.00,0.0135
3691.00,0.0135
3690.00,0.0135
3689.00,0.0134
3688.00,0.0134
3687.00,0.0133
3686.00,0.0133
3685.00,0.0132
3684.00,0.0131
3683.00,0.0131
3682.00,0.0131
3681.00,0.0131
3680.00,0.0131
3679.00,0.0132
3678.00,0.0132
3677.00,0.0132
3676.00,0.0131
3675.00,0.0131
3674.00,0.0132
3673.00,0.0132
3672.00,0.0131
3671.00,0.0130
3670.00,0.0129
3669.00,0.0129
3668.00,0.0128
3667.00,0.0128
3666.00,0.0127
3665.00,0.0126
3664.00,0.0126
3663.00,0.0126
3662.00,0.0126
3661.00,0.0126
3660.00,0.0126
3659.00,0.0126
3658.00,0.0126
3657.00,0.0126
3656.00,0.0126
3655.00,0.0127
3654.00,0.0128
3653.00,0.0128
3652.00,0.0128
3651.00,0.0129
3650.00,0.0128
3649.00,0.0128
3648.00,0.0128
3647.00,0.0127
3646.00,0.0126
3645.00,0.0126
3644.00,0.0125
3643.00,0.0125
3642.00,0.0125
3641.00,0.0125
3640.00,0.0125
3639.00,0.0125
3638.00,0.0125
3637.00,0.0125
3636.00,0.0125
3635.00,0.0125
3634.00,0.0126
3633.00,0.0127
3632.00,0.0129
3631.00,0.0129
3630.00,0.0129
3629.00,0.0129
3628.00,0.0128
3627.00,0.0128
3626.00,0.0127
3625.00,0.0126
3624.00,0.0126
3623.00,0.0127
3622.00,0.0128
3621.00,0.0128
3620.00,0.0128
3619.00,0.0128
3618.00,0.0128
3617.00,0.0128
3616.00,0.0127
3615.00,0.0127
3614.00,0.0127
3613.00,0.0127
3612.00,0.0127
3611.00,0.0127
3610.00,0.0127
3609.00,0.0126
3608.00,0.0126
3607.00,0.0126
3606.00,0.0126
3605.00,0.0126
3604.00,0.0126
3603.00,0.0125
3602.00,0.0125
3601.00,0.0125
3600.00,0.0125
3599.00,0.0125
3598.00,0.0125
3597.00,0.0125
3596.00,0.0125
3595.00,0.0124
3594.00,0.0124
3593.00,0.0124
3592.00,0.0124
3591.00,0.0125
3590.00,0.0125
3589.00,0.0125
3588.00,0.0125
3587.00,0.0124
3586.00,0.0124
3585.00,0.0124
3584.00,0.0124
3583.00,0.0123
3582.00,0.0123
3581.00,0.0123
3580.00,0.0122
3579.00,0.0122
3578.00,0.0122
3577.00,0.0122
3576.00,0.0123
3575.00,0.0122
3574.00,0.0122
3573.00,0.0122
3572.00,0.0122
3571.00,0.0123
3570.00,0.0123
3569.00,0.0123
3568.00,0.0123
3567.00,0.0123
3566.00,0.0123
3565.00,0.0123
3564.00,0.0122
3563.00,0.0122
3562.00,0.0122
3561.00,0.0122
3560.00,0.0122
3559.00,0.0121
3558.00,0.0121
3557.00,0.0121
3556.00,0.0121
3555.00,0.0121
3554.00,0.0121
3553.00,0.0121
3552.00,0.0121
3551.00,0.0121
3550.00,0.0121
3549.00,0.0122
3548.00,0.0122
3547.00,0.0122
3546.00,0.0121
3545.00,0.0121
3544.00,0.0121
3543.00,0.0120
3542.00,0.0120
3541.00,0.0120
3540.00,0.0120
3539.00,0.0120
3538.00,0.0120
3537.00,0.0120
3536.00,0.0120
3535.00,0.0120
3534.00,0.0120
3533.00,0.0120
3532.00,0.0120
3531.00,0.0120
3530.00,0.0120
3529.00,0.0120
3528.00,0.0120
3527.00,0.0120
3526.00,0.0120
3525.00,0.0119
3524.00,0.0119
3523.00,0.0119
3522.00,0.0120
3521.00,0.0120
3520.00,0.0119
3519.00,0.0119
3518.00,0.0119
3517.00,0.0119
3516.00,0.0119
3515.00,0.0119
3514.00,0.0119
3513.00,0.0119
3512.00,0.0118
3511.00,0.0118
3510.00,0.0118
3509.00,0.0119
3508.00,0.0119
3507.00,0.0119
3506.00,0.0118
3505.00,0.0118
3504.00,0.0118
3503.00,0.0118
3502.00,0.0118
3501.00,0.0118
3500.00,0.0118
3499.00,0.0118
3498.00,0.0117
3497.00,0.0117
3496.00,0.0118
3495.00,0.0117
3494.00,0.0117
3493.00,0.0117
3492.00,0.0117
3491.00,0.0117
3490.00,0.0117
3489.00,0.0118
3488.00,0.0118
3487.00,0.0118
3486.00,0.0117
3485.00,0.0117
3484.00,0.0117
3483.00,0.0117
3482.00,0.0117
3481.00,0.0117
3480.00,0.0117
3479.00,0.0117
3478.00,0.0117
3477.00,0.0117
3476.00,0.0116
3475.00,0.0116
3474.00,0.0116
3473.00,0.0116
3472.00,0.0116
3471.00,0.0116
3470.00,0.0116
3469.00,0.0115
3468.00,0.0115
3467.00,0.0115
3466.00,0.0115
3465.00,0.0115
3464.00,0.0115
3463.00,0.0115
3462.00,0.0115
3461.00,0.0115
3460.00,0.0115
3459.00,0.0115
3458.00,0.0115
3457.00,0.0115
3456.00,0.0115
3455.00,0.0115
3454.00,0.0115
3453.00,0.0115
3452.00,0.0115
3451.00,0.0115
3450.00,0.0115
3449.00,0.0114
3448.00,0.0114
3447.00,0.0114
3446.00,0.0114
3445.00,0.0115
3444.00,0.0114
3443.00,0.0114
3442.00,0.0115
3441.00,0.0115
3440.00,0.0115
3439.00,0.0115
3438.00,0.0114
3437.00,0.0114
3436.00,0.0114
3435.00,0.0114
3434.00,0.0114
3433.00,0.0115
3432.00,0.0115
3431.00,0.0115
3430.00,0.0115
3429.00,0.0115
3428.00,0.0115
3427.00,0.0115
3426.00,0.0115
3425.00,0.0115
3424.00,0.0115
3423.00,0.0115
3422.00,0.0116
3421.00,0.0116
3420.00,0.0116
3419.00,0.0115
3418.00,0.0115
3417.00,0.0115
3416.00,0.0115
3415.00,0.0115
3414.00,0.0115
3413.00,0.0115
3412.00,0.0116
3411.00,0.0116
3410.00,0.0116
3409.00,0.0117
3408.00,0.0117
3407.00,0.0117
3406.00,0.0117
3405.00,0.0117
3404.00,0.0117
3403.00,0.0117
3402.00,0.0117
3401.00,0.0117
3400.00,0.0117
3399.00,0.0117
3398.00,0.0118
3397.00,0.0119
3396.00,0.0119
3395.00,0.0119
3394.00,0.0118
3393.00,0.0118
3392.00,0.0118
3391.00,0.0118
3390.00,0.0119
3389.00,0.0120
3388.00,0.0120
3387.00,0.0121
3386.00,0.0122
3385.00,0.0122
3384.00,0.0122
3383.00,0.0122
3382.00,0.0122
3381.00,0.0122
3380.00,0.0122
3379.00,0.0122
3378.00,0.0122
3377.00,0.0122
3376.00,0.0123
3375.00,0.0123
3374.00,0.0123
3373.00,0.0123
3372.00,0.0122
3371.00,0.0121
3370.00,0.0121
3369.00,0.0121
3368.00,0.0121
3367.00,0.0122
3366.00,0.0123
3365.00,0.0124
3364.00,0.0125
3363.00,0.0125
3362.00,0.0125
3361.00,0.0126
3360.00,0.0126
3359.00,0.0127
3358.00,0.0127
3357.00,0.0128
3356.00,0.0129
3355.00,0.0129
3354.00,0.0129
3353.00,0.0129
3352.00,0.0128
3351.00,0.0128
3350.00,0.0129
3349.00,0.0130
3348.00,0.0131
3347.00,0.0132
3346.00,0.0132
3345.00,0.0133
3344.00,0.0133
3343.00,0.0133
3342.00,0.0134
3341.00,0.0134
3340.00,0.0134
3339.00,0.0135
3338.00,0.0135
3337.00,0.0136
3336.00,0.0137
3335.00,0.0137
3334.00,0.0138
3333.00,0.0138
3332.00,0.0139
3331.00,0.0139
3330.00,0.0139
3329.00,0.0139
3328.00,0.0139
3327.00,0.0139
3326.00,0.0138
3325.00,0.0139
3324.00,0.0139
3323.00,0.0140
3322.00,0.0140
3321.00,0.0141
3320.00,0.0141
3319.00,0.0142
3318.00,0.0142
3317.00,0.0143
3316.00,0.0143
3315.00,0.0144
3314.00,0.0144
3313.00,0.0145
3312.00,0.0145
3311.00,0.0145
3310.00,0.0146
3309.00,0.0146
3308.00,0.0146
3307.00,0.0146
3306.00,0.0147
3305.00,0.0148
3304.00,0.0149
3303.00,0.0151
3302.00,0.0152
3301.00,0.0152
3300.00,0.0153
3299.00,0.0153
3298.00,0.0154
3297.00,0.0154
3296.00,0.0155
3295.00,0.0156
3294.00,0.0156
3293.00,0.0157
3292.00,0.0158
3291.00,0.0160
3290.00,0.0161
3289.00,0.0162
3288.00,0.0163
3287.00,0.0164
3286.00,0.0165
3285.00,0.0166
3284.00,0.0167
3283.00,0.0168
3282.00,0.0169
3281.00,0.0170
3280.00,0.0171
3279.00,0.0172
3278.00,0.0173
3277.00,0.0174
3276.00,0.0175
3275.00,0.0175
3274.00,0.0175
3273.00,0.0176
3272.00,0.0176
3271.00,0.0177
3270.00,0.0178
3269.00,0.0180
3268.00,0.0182
3267.00,0.0183
3266.00,0.0184
3265.00,0.0185
3264.00,0.0186
3263.00,0.0186
3262.00,0.0187
3261.00,0.0187
3260.00,0.0188
3259.00,0.0188
3258.00,0.0189
3257.00,0.0190
3256.00,0.0190
3255.00,0.0191
3254.00,0.0192
3253.00,0.0193
3252.00,0.0194
3251.00,0.0195
3250.00,0.0196
3249.00,0.0196
3248.00,0.0197
3247.00,0.0197
3246.00,0.0198
3245.00,0.0199
3244.00,0.0201
3243.00,0.0202
3242.00,0.0203
3241.00,0.0204
3240.00,0.0205
3239.00,0.0206
3238.00,0.0207
3237.00,0.0207
3236.00,0.0207
3235.00,0.0208
3234.00,0.0208
3233.00,0.0209
3232.00,0.0211
3231.00,0.0212
3230.00,0.0214
3229.00,0.0215
3228.00,0.0216
3227.00,0.0217
3226.00,0.0218
3225.00,0.0219
3224.00,0.0221
3223.00,0.0222
3222.00,0.0223
3221.00,0.0224
3220.00,0.0225
3219.00,0.0226
3218.00,0.0228
3217.00,0.0229
3216.00,0.0230
3215.00,0.0231
3214.00,0.0233
3213.00,0.0234
3212.00,0.0236
3211.00,0.0237
3210.00,0.0238
3209.00,0.0239
3208.00,0.0240
3207.00,0.0240
3206.00,0.0241
3205.00,0.0242
3204.00,0.0244
3203.00,0.0245
3202.00,0.0246
3201.00,0.0247
3200.00,0.0248
3199.00,0.0249
3198.00,0.0250
3197.00,0.0251
3196.00,0.0252
3195.00,0.0253
3194.00,0.0254
3193.00,0.0254
3192.00,0.0255
3191.00,0.0256
3190.00,0.0257
3189.00,0.0259
3188.00,0.0260
3187.00,0.0261
3186.00,0.0261
3185.00,0.0262
3184.00,0.0263
3183.00,0.0264
3182.00,0.0265
3181.00,0.0266
3180.00,0.0267
3179.00,0.0268
3178.00,0.0269
3177.00,0.0270
3176.00,0.0272
3175.00,0.0273
3174.00,0.0274
3173.00,0.0275
3172.00,0.0276
3171.00,0.0277
3170.00,0.0278
3169.00,0.0279
3168.00,0.0280
3167.00,0.0281
3166.00,0.0282
3165.00,0.0283
3164.00,0.0284
3163.00,0.0285
3162.00,0.0287
3161.00,0.0288
3160.00,0.0289
3159.00,0.0290
3158.00,0.0291
3157.00,0.0292
3156.00,0.0294
3155.00,0.0295
3154.00,0.0296
3153.00,0.0297
3152.00,0.0299
3151.00,0.0300
3150.00,0.0302
3149.00,0.0303
3148.00,0.0305
3147.00,0.0306
3146.00,0.0308
3145.00,0.0309
3144.00,0.0311
3143.00,0.0312
3142.00,0.0313
3141.00,0.0315
3140.00,0.0316
3139.00,0.0317
3138.00,0.0319
3137.00,0.0320
3136.00,0.0322
3135.00,0.0324
3134.00,0.0325
3133.00,0.0327
3132.00,0.0328
3131.00,0.0330
3130.00,0.0331
3129.00,0.0333
3128.00,0.0334
3127.00,0.0336
3126.00,0.0337
3125.00,0.0339
3124.00,0.0340
3123.00,0.0342
3122.00,0.0343
3121.00,0.0345
3120.00,0.0346
3119.00,0.0348
3118.00,0.0350
3117.00,0.0351
3116.00,0.0353
3115.00,0.0355
3114.00,0.0357
3113.00,0.0359
3112.00,0.0361
3111.00,0.0363
3110.00,0.0365
3109.00,0.0367
3108.00,0.0370
3107.00,0.0372
3106.00,0.0374
3105.00,0.0376
3104.00,0.0378
3103.00,0.0381
3102.00,0.0383
3101.00,0.0385
3100.00,0.0387
3099.00,0.0389
3098.00,0.0391
3097.00,0.0393
3096.00,0.0396
3095.00,0.0398
3094.00,0.0400
3093.00,0.0402
3092.00,0.0404
3091.00,0.0407
3090.00,0.0409
3089.00,0.0411
3088.00,0.0413
3087.00,0.0416
3086.00,0.0418
3085.00,0.0421
3084.00,0.0424
3083.00,0.0427
3082.00,0.0430
3081.00,0.0432
3080.00,0.0435
3079.00,0.0437
3078.00,0.0440
3077.00,0.0443
3076.00,0.0445
3075.00,0.0448
3074.00,0.0451
3073.00,0.0454
3072.00,0.0456
3071.00,0.0458
3070.00,0.0461
3069.00,0.0463
3068.00,0.0465
3067.00,0.0467
3066.00,0.0468
3065.00,0.0470
3064.00,0.0472
3063.00,0.0474
3062.00,0.0476
3061.00,0.0477
3060.00,0.0479
3059.00,0.0480
3058.00,0.0482
3057.00,0.0484
3056.00,0.0485
3055.00,0.0487
3054.00,0.0489
3053.00,0.0490
3052.00,0.0492
3051.00,0.0493
3050.00,0.0494
3049.00,0.0495
3048.00,0.0496
3047.00,0.0498
3046.00,0.0498
3045.00,0.0499
3044.00,0.0499
3043.00,0.0499
3042.00,0.0499
3041.00,0.0499
3040.00,0.0500
3039.00,0.0500
3038.00,0.0502
3037.00,0.0503
3036.00,0.0506
3035.00,0.0510
3034.00,0.0515
3033.00,0.0522
3032.00,0.0530
3031.00,0.0540
3030.00,0.0552
3029.00,0.0565
3028.00,0.0578
3027.00,0.0589
3026.00,0.0597
3025.00,0.0603
3024.00,0.0607
3023.00,0.0608
3022.00,0.0609
3021.00,0.0610
3020.00,0.0610
3019.00,0.0609
3018.00,0.0605
3017.00,0.0599
3016.00,0.0592
3015.00,0.0584
3014.00,0.0577
3013.00,0.0570
3012.00,0.0565
3011.00,0.0561
3010.00,0.0558
3009.00,0.0556
3008.00,0.0554
3007.00,0.0553
3006.00,0.0553
3005.00,0.0552
3004.00,0.0552
3003.00,0.0552
3002.00,0.0552
3001.00,0.0552
3000.00,0.0552
2999.00,0.0552
2998.00,0.0553
2997.00,0.0553
2996.00,0.0554
2995.00,0.0554
2994.00,0.0555
2993.00,0.0556
2992.00,0.0557
2991.00,0.0557
2990.00,0.0558
2989.00,0.0559
2988.00,0.0560
2987.00,0.0561
2986.00,0.0561
2985.00,0.0560
2984.00,0.0559
2983.00,0.0558
2982.00,0.0559
2981.00,0.0562
2980.00,0.0567
2979.00,0.0573
2978.00,0.0581
2977.00,0.0589
2976.00,0.0598
2975.00,0.0608
2974.00,0.0616
2973.00,0.0625
2972.00,0.0632
2971.00,0.0638
2970.00,0.0643
2969.00,0.0646
2968.00,0.0646
2967.00,0.0644
2966.00,0.0640
2965.00,0.0636
2964.00,0.0632
2963.00,0.0629
2962.00,0.0626
2961.00,0.0624
2960.00,0.0624
2959.00,0.0624
2958.00,0.0625
2957.00,0.0626
2956.00,0.0628
2955.00,0.0630
2954.00,0.0631
2953.00,0.0631
2952.00,0.0629
2951.00,0.0625
2950.00,0.0620
2949.00,0.0615
2948.00,0.0610
2947.00,0.0605
2946.00,0.0601
2945.00,0.0597
2944.00,0.0594
2943.00,0.0592
2942.00,0.0590
2941.00,0.0588
2940.00,0.0587
2939.00,0.0586
2938.00,0.0585
2937.00,0.0585
2936.00,0.0585
2935.00,0.0586
2934.00,0.0586
2933.00,0.0587
2932.00,0.0588
2931.00,0.0590
2930.00,0.0591
2929.00,0.0593
2928.00,0.0596
2927.00,0.0598
2926.00,0.0602
2925.00,0.0605
2924.00,0.0610
2923.00,0.0613
2922.00,0.0616
2921.00,0.0618
2920.00,0.0619
2919.00,0.0619
2918.00,0.0618
2917.00,0.0616
2916.00,0.0615
2915.00,0.0614
2914.00,0.0613
2913.00,0.0613
2912.00,0.0613
2911.00,0.0614
2910.00,0.0614
2909.00,0.0616
2908.00,0.0617
2907.00,0.0619
2906.00,0.0621
2905.00,0.0623
2904.00,0.0625
2903.00,0.0626
2902.00,0.0628
2901.00,0.0629
2900.00,0.0630
2899.00,0.0631
2898.00,0.0632
2897.00,0.0633
2896.00,0.0634
2895.00,0.0635
2894.00,0.0635
2893.00,0.0634
2892.00,0.0634
2891.00,0.0634
2890.00,0.0633
2889.00,0.0633
2888.00,0.0633
2887.00,0.0632
2886.00,0.0632
2885.00,0.0632
2884.00,0.0632
2883.00,0.0632
2882.00,0.0632
2881.00,0.0633
2880.00,0.0634
2879.00,0.0634
2878.00,0.0634
2877.00,0.0634
2876.00,0.0633
2875.00,0.0632
2874.00,0.0631
2873.00,0.0630
2872.00,0.0629
2871.00,0.0627
2870.00,0.0625
2869.00,0.0623
2868.00,0.0622
2867.00,0.0620
2866.00,0.0618
2865.00,0.0617
2864.00,0.0616
2863.00,0.0615
2862.00,0.0614
2861.00,0.0613
2860.00,0.0613
2859.00,0.0613
2858.00,0.0613
2857.00,0.0614
2856.00,0.0615
2855.00,0.0617
2854.00,0.0618
2853.00,0.0620
2852.00,0.0623
2851.00,0.0626
2850.00,0.0629
2849.00,0.0632
2848.00,0.0636
2847.00,0.0640
2846.00,0.0643
2845.00,0.0647
2844.00,0.0651
2843.00,0.0656
2842.00,0.0660
2841.00,0.0664
2840.00,0.0667
2839.00,0.0671
2838.00,0.0675
2837.00,0.0678
2836.00,0.0681
2835.00,0.0683
2834.00,0.0685
2833.00,0.0687
2832.00,0.0689
2831.00,0.0690
2830.00,0.0691
2829.00,0.0692
2828.00,0.0692
2827.00,0.0693
2826.00,0.0693
2825.00,0.0693
2824.00,0.0693
2823.00,0.0693
2822.00,0.0693
2821.00,0.0693
2820.00,0.0692
2819.00,0.0691
2818.00,0.0690
2817.00,0.0689
2816.00,0.0688
2815.00,0.0686
2814.00,0.0685
2813.00,0.0683
2812.00,0.0681
2811.00,0.0679
2810.00,0.0677
2809.00,0.0675
2808.00,0.0673
2807.00,0.0671
2806.00,0.0668
2805.00,0.0666
2804.00,0.0664
2803.00,0.0662
2802.00,0.0660
2801.00,0.0657
2800.00,0.0655
2799.00,0.0652
2798.00,0.0650
2797.00,0.0647
2796.00,0.0644
2795.00,0.0641
2794.00,0.0638
2793.00,0.0635
2792.00,0.0632
2791.00,0.0628
2790.00,0.0625
2789.00,0.0622
2788.00,0.0619
2787.00,0.0615
2786.00,0.0612
2785.00,0.0609
2784.00,0.0606
2783.00,0.0604
2782.00,0.0601
2781.00,0.0599
2780.00,0.0597
2779.00,0.0596
2778.00,0.0594
2777.00,0.0594
2776.00,0.0593
2775.00,0.0593
2774.00,0.0593
2773.00,0.0593
2772.00,0.0594
2771.00,0.0594
2770.00,0.0595
2769.00,0.0596
2768.00,0.0597
2767.00,0.0598
2766.00,0.0599
2765.00,0.0600
2764.00,0.0602
2763.00,0.0602
2762.00,0.0603
2761.00,0.0604
2760.00,0.0604
2759.00,0.0605
2758.00,0.0605
2757.00,0.0605
2756.00,0.0604
2755.00,0.0604
2754.00,0.0604
2753.00,0.0603
2752.00,0.0602
2751.00,0.0601
2750.00,0.0600
2749.00,0.0599
2748.00,0.0599
2747.00,0.0598
2746.00,0.0598
2745.00,0.0599
2744.00,0.0599
2743.00,0.0601
2742.00,0.0602
2741.00,0.0604
2740.00,0.0606
2739.00,0.0609
2738.00,0.0611
2737.00,0.0614
2736.00,0.0616
2735.00,0.0617
2734.00,0.0619
2733.00,0.0620
2732.00,0.0620
2731.00,0.0620
2730.00,0.0620
2729.00,0.0619
2728.00,0.0617
2727.00,0.0616
2726.00,0.0614
2725.00,0.0611
2724.00,0.0609
2723.00,0.0607
2722.00,0.0604
2721.00,0.0602
2720.00,0.0600
2719.00,0.0598
2718.00,0.0596
2717.00,0.0594
2716.00,0.0593
2715.00,0.0592
2714.00,0.0592
2713.00,0.0592
2712.00,0.0592
2711.00,0.0593
2710.00,0.0594
2709.00,0.0595
2708.00,0.0597
2707.00,0.0599
2706.00,0.0601
2705.00,0.0603
2704.00,0.0606
2703.00,0.0608
2702.00,0.0610
2701.00,0.0613
2700.00,0.0615
2699.00,0.0617
2698.00,0.0619
2697.00,0.0621
2696.00,0.0623
2695.00,0.0625
2694.00,0.0627
2693.00,0.0629
2692.00,0.0630
2691.00,0.0632
2690.00,0.0633
2689.00,0.0634
2688.00,0.0634
2687.00,0.0634
2686.00,0.0634
2685.00,0.0634
2684.00,0.0634
2683.00,0.0633
2682.00,0.0633
2681.00,0.0632
2680.00,0.0632
2679.00,0.0631
2678.00,0.0631
2677.00,0.0631
2676.00,0.0631
2675.00,0.0632
2674.00,0.0632
2673.00,0.0633
2672.00,0.0635
2671.00,0.0636
2670.00,0.0638
2669.00,0.0639
2668.00,0.0641
2667.00,0.0643
2666.00,0.0645
2665.00,0.0647
2664.00,0.0649
2663.00,0.0650
2662.00,0.0652
2661.00,0.0653
2660.00,0.0655
2659.00,0.0657
2658.00,0.0659
2657.00,0.0661
2656.00,0.0663
2655.00,0.0665
2654.00,0.0668
2653.00,0.0672
2652.00,0.0675
2651.00,0.0679
2650.00,0.0682
2649.00,0.0685
2648.00,0.0687
2647.00,0.0689
2646.00,0.0690
2645.00,0.0691
2644.00,0.0692
2643.00,0.0692
2642.00,0.0692
2641.00,0.0691
2640.00,0.0690
2639.00,0.0689
2638.00,0.0688
2637.00,0.0686
2636.00,0.0685
2635.00,0.0683
2634.00,0.0681
2633.00,0.0679
2632.00,0.0677
2631.00,0.0675
2630.00,0.0673
2629.00,0.0672
2628.00,0.0671
2627.00,0.0670
2626.00,0.0670
2625.00,0.0671
2624.00,0.0672
2623.00,0.0673
2622.00,0.0674
2621.00,0.0675
2620.00,0.0676
2619.00,0.0676
2618.00,0.0676
2617.00,0.0676
2616.00,0.0676
2615.00,0.0676
2614.00,0.0675
2613.00,0.0675
2612.00,0.0675
2611.00,0.0675
2610.00,0.0674
2609.00,0.0674
2608.00,0.0673
2607.00,0.0672
2606.00,0.0672
2605.00,0.0670
2604.00,0.0669
2603.00,0.0667
2602.00,0.0666
2601.00,0.0664
2600.00,0.0663
2599.00,0.0662
2598.00,0.0661
2597.00,0.0660
2596.00,0.0659
2595.00,0.0658
2594.00,0.0657
2593.00,0.0657
2592.00,0.0658
2591.00,0.0659
2590.00,0.0660
2589.00,0.0662
2588.00,0.0664
2587.00,0.0667
2586.00,0.0670
2585.00,0.0675
2584.00,0.0680
2583.00,0.0685
2582.00,0.0691
2581.00,0.0696
2580.00,0.0701
2579.00,0.0704
2578.00,0.0707
2577.00,0.0709
2576.00,0.0711
2575.00,0.0711
2574.00,0.0711
2573.00,0.0711
2572.00,0.0710
2571.00,0.0709
2570.00,0.0709
2569.00,0.0708
2568.00,0.0708
2567.00,0.0708
2566.00,0.0709
2565.00,0.0709
2564.00,0.0709
2563.00,0.0710
2562.00,0.0711
2561.00,0.0711
2560.00,0.0712
2559.00,0.0712
2558.00,0.0713
2557.00,0.0713
2556.00,0.0714
2555.00,0.0714
2554.00,0.0715
2553.00,0.0715
2552.00,0.0715
2551.00,0.0715
2550.00,0.0714
2549.00,0.0713
2548.00,0.0712
2547.00,0.0710
2546.00,0.0708
2545.00,0.0705
2544.00,0.0703
2543.00,0.0701
2542.00,0.0698
2541.00,0.0696
2540.00,0.0694
2539.00,0.0692
2538.00,0.0689
2537.00,0.0687
2536.00,0.0686
2535.00,0.0684
2534.00,0.0682
2533.00,0.0681
2532.00,0.0680
2531.00,0.0679
2530.00,0.0679
2529.00,0.0680
2528.00,0.0680
2527.00,0.0681
2526.00,0.0682
2525.00,0.0683
2524.00,0.0685
2523.00,0.0687
2522.00,0.0689
2521.00,0.0690
2520.00,0.0692
2519.00,0.0694
2518.00,0.0695
2517.00,0.0695
2516.00,0.0695
2515.00,0.0694
2514.00,0.0693
2513.00,0.0690
2512.00,0.0688
2511.00,0.0685
2510.00,0.0682
2509.00,0.0679
2508.00,0.0676
2507.00,0.0673
2506.00,0.0671
2505.00,0.0668
2504.00,0.0666
2503.00,0.0664
2502.00,0.0661
2501.00,0.0659
2500.00,0.0658
2499.00,0.0657
2498.00,0.0656
2497.00,0.0655
2496.00,0.0654
2495.00,0.0653
2494.00,0.0652
2493.00,0.0651
2492.00,0.0649
2491.00,0.0647
2490.00,0.0646
2489.00,0.0645
2488.00,0.0644
2487.00,0.0643
2486.00,0.0643
2485.00,0.0642
2484.00,0.0641
2483.00,0.0641
2482.00,0.0641
2481.00,0.0641
2480.00,0.0640
2479.00,0.0640
2478.00,0.0640
2477.00,0.0639
2476.00,0.0637
2475.00,0.0635
2474.00,0.0634
2473.00,0.0632
2472.00,0.0630
2471.00,0.0628
2470.00,0.0625
2469.00,0.0623
2468.00,0.0621
2467.00,0.0620
2466.00,0.0619
2465.00,0.0619
2464.00,0.0618
2463.00,0.0617
2462.00,0.0617
2461.00,0.0616
2460.00,0.0615
2459.00,0.0614
2458.00,0.0613
2457.00,0.0613
2456.00,0.0612
2455.00,0.0611
2454.00,0.0610
2453.00,0.0610
2452.00,0.0609
2451.00,0.0608
2450.00,0.0608
2449.00,0.0607
2448.00,0.0606
2447.00,0.0605
2446.00,0.0604
2445.00,0.0602
2444.00,0.0600
2443.00,0.0598
2442.00,0.0596
2441.00,0.0594
2440.00,0.0592
2439.00,0.0590
2438.00,0.0588
2437.00,0.0587
2436.00,0.0585
2435.00,0.0583
2434.00,0.0582
2433.00,0.0580
2432.00,0.0578
2431.00,0.0576
2430.00,0.0575
2429.00,0.0574
2428.00,0.0573
2427.00,0.0572
2426.00,0.0571
2425.00,0.0570
2424.00,0.0569
2423.00,0.0569
2422.00,0.0568
2421.00,0.0567
2420.00,0.0567
2419.00,0.0567
2418.00,0.0568
2417.00,0.0568
2416.00,0.0569
2415.00,0.0569
2414.00,0.0570
2413.00,0.0570
2412.00,0.0569
2411.00,0.0569
2410.00,0.0567
2409.00,0.0565
2408.00,0.0563
2407.00,0.0561
2406.00,0.0559
2405.00,0.0558
2404.00,0.0556
2403.00,0.0555
2402.00,0.0554
2401.00,0.0552
2400.00,0.0550
2399.00,0.0548
2398.00,0.0546
2397.00,0.0544
2396.00,0.0542
2395.00,0.0541
2394.00,0.0539
2393.00,0.0538
2392.00,0.0536
2391.00,0.0535
2390.00,0.0534
2389.00,0.0532
2388.00,0.0531
2387.00,0.0529
2386.00,0.0527
2385.00,0.0525
2384.00,0.0524
2383.00,0.0522
2382.00,0.0520
2381.00,0.0518
2380.00,0.0517
2379.00,0.0516
2378.00,0.0516
2377.00,0.0515
2376.00,0.0515
2375.00,0.0515
2374.00,0.0514
2373.00,0.0513
2372.00,0.0511
2371.00,0.0510
2370.00,0.0508
2369.00,0.0507
2368.00,0.0506
2367.00,0.0505
2366.00,0.0504
2365.00,0.0503
2364.00,0.0502
2363.00,0.0501
2362.00,0.0500
2361.00,0.0499
2360.00,0.0499
2359.00,0.0498
2358.00,0.0497
2357.00,0.0496
2356.00,0.0495
2355.00,0.0494
2354.00,0.0493
2353.00,0.0491
2352.00,0.0491
2351.00,0.0490
2350.00,0.0491
2349.00,0.0490
2348.00,0.0488
2347.00,0.0488
2346.00,0.0488
2345.00,0.0490
2344.00,0.0492
2343.00,0.0491
2342.00,0.0488
2341.00,0.0485
2340.00,0.0483
2339.00,0.0482
2338.00,0.0481
2337.00,0.0481
2336.00,0.0480
2335.00,0.0478
2334.00,0.0476
2333.00,0.0475
2332.00,0.0473
2331.00,0.0472
2330.00,0.0472
2329.00,0.0473
2328.00,0.0475
2327.00,0.0477
2326.00,0.0479
2325.00,0.0479
2324.00,0.0478
2323.00,0.0475
2322.00,0.0473
2321.00,0.0471
2320.00,0.0469
2319.00,0.0468
2318.00,0.0467
2317.00,0.0465
2316.00,0.0465
2315.00,0.0464
2314.00,0.0464
2313.00,0.0464
2312.00,0.0465
2311.00,0.0465
2310.00,0.0465
2309.00,0.0466
2308.00,0.0467
2307.00,0.0468
2306.00,0.0469
2305.00,0.0471
2304.00,0.0472
2303.00,0.0473
2302.00,0.0474
2301.00,0.0475
2300.00,0.0475
2299.00,0.0474
2298.00,0.0473
2297.00,0.0472
2296.00,0.0470
2295.00,0.0468
2294.00,0.0466
2293.00,0.0464
2292.00,0.0462
2291.00,0.0461
2290.00,0.0460
2289.00,0.0459
2288.00,0.0458
2287.00,0.0456
2286.00,0.0454
2285.00,0.0452
2284.00,0.0450
2283.00,0.0449
2282.00,0.0448
2281.00,0.0447
2280.00,0.0446
2279.00,0.0445
2278.00,0.0444
2277.00,0.0443
2276.00,0.0442
2275.00,0.0441
2274.00,0.0440
2273.00,0.0441
2272.00,0.0441
2271.00,0.0441
2270.00,0.0440
2269.00,0.0439
2268.00,0.0437
2267.00,0.0435
2266.00,0.0433
2265.00,0.0432
2264.00,0.0430
2263.00,0.0429
2262.00,0.0428
2261.00,0.0428
2260.00,0.0427
2259.00,0.0427
2258.00,0.0425
2257.00,0.0423
2256.00,0.0422
2255.00,0.0420
2254.00,0.0419
2253.00,0.0418
2252.00,0.0418
2251.00,0.0418
2250.00,0.0417
2249.00,0.0417
2248.00,0.0417
2247.00,0.0417
2246.00,0.0416
2245.00,0.0415
2244.00,0.0415
2243.00,0.0416
2242.00,0.0416
2241.00,0.0417
2240.00,0.0418
2239.00,0.0419
2238.00,0.0420
2237.00,0.0421
2236.00,0.0423
2235.00,0.0423
2234.00,0.0424
2233.00,0.0424
2232.00,0.0423
2231.00,0.0422
2230.00,0.0421
2229.00,0.0421
2228.00,0.0420
2227.00,0.0419
2226.00,0.0417
2225.00,0.0415
2224.00,0.0412
2223.00,0.0410
2222.00,0.0409
2221.00,0.0408
2220.00,0.0407
2219.00,0.0405
2218.00,0.0403
2217.00,0.0401
2216.00,0.0401
2215.00,0.0400
2214.00,0.0400
2213.00,0.0399
2212.00,0.0398
2211.00,0.0398
2210.00,0.0397
2209.00,0.0397
2208.00,0.0398
2207.00,0.0397
2206.00,0.0396
2205.00,0.0395
2204.00,0.0395
2203.00,0.0395
2202.00,0.0394
2201.00,0.0394
2200.00,0.0394
2199.00,0.0393
2198.00,0.0393
2197.00,0.0392
2196.00,0.0392
2195.00,0.0391
2194.00,0.0389
2193.00,0.0389
2192.00,0.0389
2191.00,0.0389
2190.00,0.0389
2189.00,0.0389
2188.00,0.0388
2187.00,0.0388
2186.00,0.0386
2185.00,0.0385
2184.00,0.0383
2183.00,0.0381
2182.00,0.0379
2181.00,0.0377
2180.00,0.0377
2179.00,0.0376
2178.00,0.0374
2177.00,0.0372
2176.00,0.0372
2175.00,0.0372
2174.00,0.0373
2173.00,0.0375
2172.00,0.0378
2171.00,0.0380
2170.00,0.0381
2169.00,0.0382
2168.00,0.0382
2167.00,0.0381
2166.00,0.0378
2165.00,0.0376
2164.00,0.0377
2163.00,0.0377
2162.00,0.0371
2161.00,0.0360
2160.00,0.0346
2159.00,0.0335
2158.00,0.0328
2157.00,0.0329
2156.00,0.0332
2155.00,0.0336
2154.00,0.0338
2153.00,0.0339
2152.00,0.0341
2151.00,0.0342
2150.00,0.0343
2149.00,0.0344
2148.00,0.0345
2147.00,0.0345
2146.00,0.0345
2145.00,0.0345
2144.00,0.0345
2143.00,0.0344
2142.00,0.0344
2141.00,0.0344
2140.00,0.0344
2139.00,0.0345
2138.00,0.0344
2137.00,0.0343
2136.00,0.0342
2135.00,0.0340
2134.00,0.0340
2133.00,0.0340
2132.00,0.0342
2131.00,0.0343
2130.00,0.0344
2129.00,0.0346
2128.00,0.0347
2127.00,0.0348
2126.00,0.0348
2125.00,0.0348
2124.00,0.0348
2123.00,0.0347
2122.00,0.0345
2121.00,0.0345
2120.00,0.0345
2119.00,0.0345
2118.00,0.0345
2117.00,0.0345
2116.00,0.0345
2115.00,0.0344
2114.00,0.0342
2113.00,0.0341
2112.00,0.0341
2111.00,0.0340
2110.00,0.0339
2109.00,0.0337
2108.00,0.0336
2107.00,0.0335
2106.00,0.0334
2105.00,0.0334
2104.00,0.0335
2103.00,0.0335
2102.00,0.0335
2101.00,0.0336
2100.00,0.0336
2099.00,0.0336
2098.00,0.0335
2097.00,0.0334
2096.00,0.0332
2095.00,0.0332
2094.00,0.0331
2093.00,0.0331
2092.00,0.0332
2091.00,0.0332
2090.00,0.0332
2089.00,0.0332
2088.00,0.0333
2087.00,0.0332
2086.00,0.0331
2085.00,0.0329
2084.00,0.0328
2083.00,0.0327
2082.00,0.0325
2081.00,0.0324
2080.00,0.0324
2079.00,0.0323
2078.00,0.0322
2077.00,0.0321
2076.00,0.0321
2075.00,0.0320
2074.00,0.0319
2073.00,0.0319
2072.00,0.0318
2071.00,0.0317
2070.00,0.0316
2069.00,0.0314
2068.00,0.0314
2067.00,0.0314
2066.00,0.0313
2065.00,0.0312
2064.00,0.0312
2063.00,0.0311
2062.00,0.0311
2061.00,0.0310
2060.00,0.0310
2059.00,0.0310
2058.00,0.0309
2057.00,0.0309
2056.00,0.0309
2055.00,0.0309
2054.00,0.0312
2053.00,0.0316
2052.00,0.0320
2051.00,0.0320
2050.00,0.0317
2049.00,0.0312
2048.00,0.0310
2047.00,0.0308
2046.00,0.0306
2045.00,0.0305
2044.00,0.0305
2043.00,0.0306
2042.00,0.0306
2041.00,0.0307
2040.00,0.0309
2039.00,0.0311
2038.00,0.0311
2037.00,0.0311
2036.00,0.0311
2035.00,0.0309
2034.00,0.0306
2033.00,0.0304
2032.00,0.0304
2031.00,0.0304
2030.00,0.0303
2029.00,0.0303
2028.00,0.0303
2027.00,0.0303
2026.00,0.0300
2025.00,0.0297
2024.00,0.0294
2023.00,0.0292
2022.00,0.0291
2021.00,0.0291
2020.00,0.0293
2019.00,0.0295
2018.00,0.0293
2017.00,0.0290
2016.00,0.0289
2015.00,0.0289
2014.00,0.0288
2013.00,0.0289
2012.00,0.0292
2011.00,0.0293
2010.00,0.0291
2009.00,0.0287
2008.00,0.0283
2007.00,0.0279
2006.00,0.0276
2005.00,0.0275
2004.00,0.0277
2003.00,0.0278
2002.00,0.0277
2001.00,0.0276
2000.00,0.0276
1999.00,0.0276
1998.00,0.0275
1997.00,0.0274
1996.00,0.0274
1995.00,0.0274
1994.00,0.0274
1993.00,0.0275
1992.00,0.0278
1991.00,0.0282
1990.00,0.0284
1989.00,0.0285
1988.00,0.0288
1987.00,0.0290
1986.00,0.0292
1985.00,0.0295
1984.00,0.0299
1983.00,0.0303
1982.00,0.0305
1981.00,0.0306
1980.00,0.0304
1979.00,0.0299
1978.00,0.0292
1977.00,0.0287
1976.00,0.0286
1975.00,0.0286
1974.00,0.0284
1973.00,0.0283
1972.00,0.0284
1971.00,0.0285
1970.00,0.0284
1969.00,0.0284
1968.00,0.0285
1967.00,0.0287
1966.00,0.0288
1965.00,0.0289
1964.00,0.0290
1963.00,0.0290
1962.00,0.0289
1961.00,0.0287
1960.00,0.0288
1959.00,0.0289
1958.00,0.0290
1957.00,0.0291
1956.00,0.0293
1955.00,0.0294
1954.00,0.0295
1953.00,0.0297
1952.00,0.0300
1951.00,0.0303
1950.00,0.0305
1949.00,0.0307
1948.00,0.0310
1947.00,0.0314
1946.00,0.0316
1945.00,0.0318
1944.00,0.0320
1943.00,0.0319
1942.00,0.0318
1941.00,0.0316
1940.00,0.0315
1939.00,0.0313
1938.00,0.0309
1937.00,0.0306
1936.00,0.0305
1935.00,0.0304
1934.00,0.0303
1933.00,0.0302
1932.00,0.0302
1931.00,0.0302
1930.00,0.0300
1929.00,0.0299
1928.00,0.0300
1927.00,0.0300
1926.00,0.0300
1925.00,0.0301
1924.00,0.0302
1923.00,0.0303
1922.00,0.0304
1921.00,0.0304
1920.00,0.0304
1919.00,0.0304
1918.00,0.0305
1917.00,0.0306
1916.00,0.0308
1915.00,0.0309
1914.00,0.0309
1913.00,0.0309
1912.00,0.0311
1911.00,0.0312
1910.00,0.0312
1909.00,0.0313
1908.00,0.0314
1907.00,0.0314
1906.00,0.0314
1905.00,0.0314
1904.00,0.0315
1903.00,0.0316
1902.00,0.0316
1901.00,0.0316
1900.00,0.0316
1899.00,0.0316
1898.00,0.0316
1897.00,0.0315
1896.00,0.0316
1895.00,0.0317
1894.00,0.0316
1893.00,0.0316
1892.00,0.0315
1891.00,0.0315
1890.00,0.0314
1889.00,0.0314
1888.00,0.0314
1887.00,0.0315
1886.00,0.0313
1885.00,0.0312
1884.00,0.0312
1883.00,0.0312
1882.00,0.0311
1881.00,0.0311
1880.00,0.0311
1879.00,0.0311
1878.00,0.0311
1877.00,0.0311
1876.00,0.0311
1875.00,0.0312
1874.00,0.0312
1873.00,0.0312
1872.00,0.0313
1871.00,0.0312
1870.00,0.0311
1869.00,0.0309
1868.00,0.0308
1867.00,0.0306
1866.00,0.0304
1865.00,0.0301
1864.00,0.0299
1863.00,0.0297
1862.00,0.0295
1861.00,0.0293
1860.00,0.0292
1859.00,0.0292
1858.00,0.0291
1857.00,0.0290
1856.00,0.0290
1855.00,0.0290
1854.00,0.0290
1853.00,0.0290
1852.00,0.0290
1851.00,0.0289
1850.00,0.0289
1849.00,0.0289
1848.00,0.0291
1847.00,0.0292
1846.00,0.0293
1845.00,0.0296
1844.00,0.0301
1843.00,0.0307
1842.00,0.0312
1841.00,0.0316
1840.00,0.0318
1839.00,0.0319
1838.00,0.0319
1837.00,0.0317
1836.00,0.0315
1835.00,0.0313
1834.00,0.0310
1833.00,0.0307
1832.00,0.0305
1831.00,0.0303
1830.00,0.0300
1829.00,0.0299
1828.00,0.0299
1827.00,0.0299
1826.00,0.0298
1825.00,0.0298
1824.00,0.0298
1823.00,0.0299
1822.00,0.0298
1821.00,0.0298
1820.00,0.0297
1819.00,0.0297
1818.00,0.0296
1817.00,0.0296
1816.00,0.0297
1815.00,0.0299
1814.00,0.0300
1813.00,0.0301
1812.00,0.0302
1811.00,0.0303
1810.00,0.0304
1809.00,0.0305
1808.00,0.0307
1807.00,0.0308
1806.00,0.0309
1805.00,0.0309
1804.00,0.0311
1803.00,0.0312
1802.00,0.0312
1801.00,0.0313
1800.00,0.0314
1799.00,0.0314
1798.00,0.0313
1797.00,0.0313
1796.00,0.0313
1795.00,0.0314
1794.00,0.0313
1793.00,0.0312
1792.00,0.0314
1791.00,0.0316
1790.00,0.0317
1789.00,0.0317
1788.00,0.0318
1787.00,0.0318
1786.00,0.0318
1785.00,0.0319
1784.00,0.0320
1783.00,0.0320
1782.00,0.0319
1781.00,0.0317
1780.00,0.0316
1779.00,0.0315
1778.00,0.0312
1777.00,0.0310
1776.00,0.0308
1775.00,0.0305
1774.00,0.0300
1773.00,0.0296
1772.00,0.0292
1771.00,0.0290
1770.00,0.0288
1769.00,0.0285
1768.00,0.0283
1767.00,0.0280
1766.00,0.0276
1765.00,0.0271
1764.00,0.0266
1763.00,0.0262
1762.00,0.0258
1761.00,0.0255
1760.00,0.0253
1759.00,0.0250
1758.00,0.0247
1757.00,0.0245
1756.00,0.0244
1755.00,0.0243
1754.00,0.0241
1753.00,0.0238
1752.00,0.0236
1751.00,0.0235
1750.00,0.0232
1749.00,0.0229
1748.00,0.0227
1747.00,0.0225
1746.00,0.0221
1745.00,0.0217
1744.00,0.0214
1743.00,0.0210
1742.00,0.0205
1741.00,0.0200
1740.00,0.0197
1739.00,0.0196
1738.00,0.0195
1737.00,0.0193
1736.00,0.0192
1735.00,0.0190
1734.00,0.0190
1733.00,0.0192
1732.00,0.0194
1731.00,0.0195
1730.00,0.0194
1729.00,0.0193
1728.00,0.0194
1727.00,0.0194
1726.00,0.0193
1725.00,0.0193
1724.00,0.0195
1723.00,0.0197
1722.00,0.0199
1721.00,0.0200
1720.00,0.0203
1719.00,0.0207
1718.00,0.0213
1717.00,0.0222
1716.00,0.0235
1715.00,0.0250
1714.00,0.0264
1713.00,0.0280
1712.00,0.0301
1711.00,0.0326
1710.00,0.0354
1709.00,0.0389
1708.00,0.0432
1707.00,0.0486
1706.00,0.0551
1705.00,0.0624
1704.00,0.0697
1703.00,0.0762
1702.00,0.0825
1701.00,0.0898
1700.00,0.0981
1699.00,0.1052
1698.00,0.1103
1697.00,0.1144
1696.00,0.1188
1695.00,0.1234
1694.00,0.1275
1693.00,0.1310
1692.00,0.1345
1691.00,0.1380
1690.00,0.1415
1689.00,0.1451
1688.00,0.1487
1687.00,0.1524
1686.00,0.1558
1685.00,0.1591
1684.00,0.1625
1683.00,0.1665
1682.00,0.1706
1681.00,0.1748
1680.00,0.1791
1679.00,0.1835
1678.00,0.1873
1677.00,0.1903
1676.00,0.1920
1675.00,0.1923
1674.00,0.1916
1673.00,0.1905
1672.00,0.1885
1671.00,0.1847
1670.00,0.1787
1669.00,0.1717
1668.00,0.1656
1667.00,0.1609
1666.00,0.1570
1665.00,0.1530
1664.00,0.1480
1663.00,0.1420
1662.00,0.1358
1661.00,0.1302
1660.00,0.1254
1659.00,0.1210
1658.00,0.1170
1657.00,0.1133
1656.00,0.1100
1655.00,0.1059
1654.00,0.0991
1653.00,0.0899
1652.00,0.0829
1651.00,0.0796
1650.00,0.0781
1649.00,0.0774
1648.00,0.0781
1647.00,0.0813
1646.00,0.0877
1645.00,0.0959
1644.00,0.1046
1643.00,0.1134
1642.00,0.1224
1641.00,0.1316
1640.00,0.1407
1639.00,0.1493
1638.00,0.1568
1637.00,0.1622
1636.00,0.1642
1635.00,0.1633
1634.00,0.1613
1633.00,0.1591
1632.00,0.1564
1631.00,0.1531
1630.00,0.1490
1629.00,0.1443
1628.00,0.1393
1627.00,0.1347
1626.00,0.1310
1625.00,0.1279
1624.00,0.1249
1623.00,0.1225
1622.00,0.1212
1621.00,0.1212
1620.00,0.1221
1619.00,0.1231
1618.00,0.1241
1617.00,0.1251
1616.00,0.1263
1615.00,0.1280
1614.00,0.1301
1613.00,0.1323
1612.00,0.1343
1611.00,0.1357
1610.00,0.1366
1609.00,0.1366
1608.00,0.1360
1607.00,0.1349
1606.00,0.1336
1605.00,0.1322
1604.00,0.1308
1603.00,0.1293
1602.00,0.1276
1601.00,0.1257
1600.00,0.1235
1599.00,0.1211
1598.00,0.1187
1597.00,0.1162
1596.00,0.1139
1595.00,0.1118
1594.00,0.1100
1593.00,0.1085
1592.00,0.1073
1591.00,0.1063
1590.00,0.1053
1589.00,0.1044
1588.00,0.1034
1587.00,0.1024
1586.00,0.1014
1585.00,0.1002
1584.00,0.0989
1583.00,0.0975
1582.00,0.0961
1581.00,0.0946
1580.00,0.0932
1579.00,0.0918
1578.00,0.0903
1577.00,0.0882
1576.00,0.0859
1575.00,0.0841
1574.00,0.0831
1573.00,0.0825
1572.00,0.0818
1571.00,0.0807
1570.00,0.0792
1569.00,0.0778
1568.00,0.0768
1567.00,0.0761
1566.00,0.0754
1565.00,0.0747
1564.00,0.0740
1563.00,0.0736
1562.00,0.0733
1561.00,0.0730
1560.00,0.0720
1559.00,0.0705
1558.00,0.0696
1557.00,0.0694
1556.00,0.0692
1555.00,0.0689
1554.00,0.0684
1553.00,0.0680
1552.00,0.0675
1551.00,0.0670
1550.00,0.0665
1549.00,0.0661
1548.00,0.0656
1547.00,0.0652
1546.00,0.0648
1545.00,0.0644
1544.00,0.0638
1543.00,0.0631
1542.00,0.0622
1541.00,0.0610
1540.00,0.0596
1539.00,0.0586
1538.00,0.0581
1537.00,0.0579
1536.00,0.0576
1535.00,0.0570
1534.00,0.0563
1533.00,0.0556
1532.00,0.0551
1531.00,0.0547
1530.00,0.0544
1529.00,0.0541
1528.00,0.0538
1527.00,0.0535
1526.00,0.0533
1525.00,0.0532
1524.00,0.0530
1523.00,0.0528
1522.00,0.0526
1521.00,0.0524
1520.00,0.0524
1519.00,0.0522
1518.00,0.0520
1517.00,0.0515
1516.00,0.0510
1515.00,0.0504
1514.00,0.0499
1513.00,0.0492
1512.00,0.0486
1511.00,0.0481
1510.00,0.0476
1509.00,0.0470
1508.00,0.0462
1507.00,0.0453
1506.00,0.0446
1505.00,0.0441
1504.00,0.0439
1503.00,0.0437
1502.00,0.0435
1501.00,0.0433
1500.00,0.0430
1499.00,0.0427
1498.00,0.0424
1497.00,0.0421
1496.00,0.0418
1495.00,0.0415
1494.00,0.0413
1493.00,0.0410
1492.00,0.0407
1491.00,0.0403
1490.00,0.0400
1489.00,0.0396
1488.00,0.0392
1487.00,0.0386
1486.00,0.0381
1485.00,0.0376
1484.00,0.0370
1483.00,0.0364
1482.00,0.0359
1481.00,0.0353
1480.00,0.0348
1479.00,0.0342
1478.00,0.0337
1477.00,0.0331
1476.00,0.0326
1475.00,0.0321
1474.00,0.0316
1473.00,0.0311
1472.00,0.0308
1471.00,0.0306
1470.00,0.0304
1469.00,0.0302
1468.00,0.0300
1467.00,0.0299
1466.00,0.0297
1465.00,0.0296
1464.00,0.0296
1463.00,0.0297
1462.00,0.0299
1461.00,0.0301
1460.00,0.0304
1459.00,0.0309
1458.00,0.0317
1457.00,0.0331
1456.00,0.0349
1455.00,0.0366
1454.00,0.0383
1453.00,0.0405
1452.00,0.0431
1451.00,0.0462
1450.00,0.0495
1449.00,0.0529
1448.00,0.0559
1447.00,0.0581
1446.00,0.0595
1445.00,0.0603
1444.00,0.0611
1443.00,0.0624
1442.00,0.0644
1441.00,0.0671
1440.00,0.0697
1439.00,0.0720
1438.00,0.0733
1437.00,0.0737
1436.00,0.0732
1435.00,0.0724
1434.00,0.0717
1433.00,0.0713
1432.00,0.0713
1431.00,0.0720
1430.00,0.0735
1429.00,0.0759
1428.00,0.0789
1427.00,0.0822
1426.00,0.0856
1425.00,0.0889
1424.00,0.0919
1423.00,0.0943
1422.00,0.0962
1421.00,0.0982
1420.00,0.1004
1419.00,0.1030
1418.00,0.1059
1417.00,0.1087
1416.00,0.1109
1415.00,0.1123
1414.00,0.1128
1413.00,0.1123
1412.00,0.1108
1411.00,0.1083
1410.00,0.1053
1409.00,0.1019
1408.00,0.0984
1407.00,0.0947
1406.00,0.0907
1405.00,0.0865
1404.00,0.0824
1403.00,0.0786
1402.00,0.0753
1401.00,0.0722
1400.00,0.0691
1399.00,0.0659
1398.00,0.0632
1397.00,0.0609
1396.00,0.0587
1395.00,0.0565
1394.00,0.0546
1393.00,0.0529
1392.00,0.0516
1391.00,0.0504
1390.00,0.0495
1389.00,0.0489
1388.00,0.0486
1387.00,0.0485
1386.00,0.0485
1385.00,0.0486
1384.00,0.0489
1383.00,0.0497
1382.00,0.0516
1381.00,0.0554
1380.00,0.0614
1379.00,0.0696
1378.00,0.0790
1377.00,0.0873
1376.00,0.0924
1375.00,0.0931
1374.00,0.0896
1373.00,0.0836
1372.00,0.0770
1371.00,0.0706
1370.00,0.0646
1369.00,0.0591
1368.00,0.0543
1367.00,0.0503
1366.00,0.0470
1365.00,0.0443
1364.00,0.0419
1363.00,0.0396
1362.00,0.0375
1361.00,0.0356
1360.00,0.0341
1359.00,0.0327
1358.00,0.0317
1357.00,0.0309
1356.00,0.0303
1355.00,0.0300
1354.00,0.0298
1353.00,0.0299
1352.00,0.0301
1351.00,0.0305
1350.00,0.0312
1349.00,0.0321
1348.00,0.0334
1347.00,0.0350
1346.00,0.0369
1345.00,0.0392
1344.00,0.0418
1343.00,0.0446
1342.00,0.0477
1341.00,0.0513
1340.00,0.0553
1339.00,0.0597
1338.00,0.0644
1337.00,0.0695
1336.00,0.0749
1335.00,0.0806
1334.00,0.0867
1333.00,0.0930
1332.00,0.0994
1331.00,0.1056
1330.00,0.1113
1329.00,0.1163
1328.00,0.1203
1327.00,0.1230
1326.00,0.1245
1325.00,0.1249
1324.00,0.1247
1323.00,0.1240
1322.00,0.1233
1321.00,0.1224
1320.00,0.1212
1319.00,0.1195
1318.00,0.1179
1317.00,0.1172
1316.00,0.1175
1315.00,0.1185
1314.00,0.1192
1313.00,0.1188
1312.00,0.1168
1311.00,0.1134
1310.00,0.1092
1309.00,0.1046
1308.00,0.1002
1307.00,0.0963
1306.00,0.0931
1305.00,0.0906
1304.00,0.0887
1303.00,0.0873
1302.00,0.0866
1301.00,0.0871
1300.00,0.0894
1299.00,0.0936
1298.00,0.0994
1297.00,0.1054
1296.00,0.1097
1295.00,0.1105
1294.00,0.1074
1293.00,0.1014
1292.00,0.0939
1291.00,0.0866
1290.00,0.0806
1289.00,0.0765
1288.00,0.0746
1287.00,0.0747
1286.00,0.0764
1285.00,0.0790
1284.00,0.0820
1283.00,0.0846
1282.00,0.0867
1281.00,0.0880
1280.00,0.0888
1279.00,0.0895
1278.00,0.0903
1277.00,0.0918
1276.00,0.0941
1275.00,0.0972
1274.00,0.1011
1273.00,0.1056
1272.00,0.1104
1271.00,0.1153
1270.00,0.1203
1269.00,0.1257
1268.00,0.1314
1267.00,0.1372
1266.00,0.1427
1265.00,0.1470
1264.00,0.1498
1263.00,0.1508
1262.00,0.1502
1261.00,0.1486
1260.00,0.1463
1259.00,0.1436
1258.00,0.1408
1257.00,0.1380
1256.00,0.1353
1255.00,0.1327
1254.00,0.1304
1253.00,0.1282
1252.00,0.1262
1251.00,0.1244
1250.00,0.1226
1249.00,0.1209
1248.00,0.1192
1247.00,0.1176
1246.00,0.1160
1245.00,0.1145
1244.00,0.1130
1243.00,0.1116
1242.00,0.1103
1241.00,0.1090
1240.00,0.1077
1239.00,0.1065
1238.00,0.1053
1237.00,0.1041
1236.00,0.1030
1235.00,0.1019
1234.00,0.1008
1233.00,0.0997
1232.00,0.0987
1231.00,0.0977
1230.00,0.0968
1229.00,0.0958
1228.00,0.0949
1227.00,0.0941
1226.00,0.0933
1225.00,0.0927
1224.00,0.0923
1223.00,0.0921
1222.00,0.0922
1221.00,0.0925
1220.00,0.0927
1219.00,0.0926
1218.00,0.0919
1217.00,0.0906
1216.00,0.0891
1215.00,0.0876
1214.00,0.0865
1213.00,0.0859
1212.00,0.0860
1211.00,0.0871
1210.00,0.0894
1209.00,0.0930
1208.00,0.0979
1207.00,0.1035
1206.00,0.1093
1205.00,0.1143
1204.00,0.1178
1203.00,0.1194
1202.00,0.1192
1201.00,0.1175
1200.00,0.1150
1199.00,0.1120
1198.00,0.1089
1197.00,0.1060
1196.00,0.1032
1195.00,0.1006
1194.00,0.0982
1193.00,0.0960
1192.00,0.0940
1191.00,0.0921
1190.00,0.0903
1189.00,0.0886
1188.00,0.0870
1187.00,0.0854
1186.00,0.0839
1185.00,0.0824
1184.00,0.0809
1183.00,0.0794
1182.00,0.0779
1181.00,0.0764
1180.00,0.0748
1179.00,0.0732
1178.00,0.0716
1177.00,0.0700
1176.00,0.0683
1175.00,0.0665
1174.00,0.0647
1173.00,0.0628
1172.00,0.0608
1171.00,0.0589
1170.00,0.0571
1169.00,0.0556
1168.00,0.0544
1167.00,0.0539
1166.00,0.0543
1165.00,0.0558
1164.00,0.0583
1163.00,0.0618
1162.00,0.0663
1161.00,0.0721
1160.00,0.0793
1159.00,0.0881
1158.00,0.0980
1157.00,0.1082
1156.00,0.1173
1155.00,0.1242
1154.00,0.1283
1153.00,0.1297
1152.00,0.1290
1151.00,0.1271
1150.00,0.1244
1149.00,0.1216
1148.00,0.1189
1147.00,0.1165
1146.00,0.1143
1145.00,0.1124
1144.00,0.1106
1143.00,0.1088
1142.00,0.1073
1141.00,0.1058
1140.00,0.1045
1139.00,0.1032
1138.00,0.1021
1137.00,0.1010
1136.00,0.0999
1135.00,0.0989
1134.00,0.0978
1133.00,0.0968
1132.00,0.0958
1131.00,0.0948
1130.00,0.0939
1129.00,0.0930
1128.00,0.0921
1127.00,0.0913
1126.00,0.0905
1125.00,0.0897
1124.00,0.0890
1123.00,0.0883
1122.00,0.0876
1121.00,0.0871
1120.00,0.0865
1119.00,0.0859
1118.00,0.0854
1117.00,0.0849
1116.00,0.0845
1115.00,0.0840
1114.00,0.0835
1113.00,0.0832
1112.00,0.0827
1111.00,0.0823
1110.00,0.0819
1109.00,0.0816
1108.00,0.0812
1107.00,0.0809
1106.00,0.0805
1105.00,0.0802
1104.00,0.0799
1103.00,0.0796
1102.00,0.0793
1101.00,0.0790
1100.00,0.0787
1099.00,0.0784
1098.00,0.0782
1097.00,0.0779
1096.00,0.0777
1095.00,0.0775
1094.00,0.0773
1093.00,0.0773
1092.00,0.0773
1091.00,0.0776
1090.00,0.0782
1089.00,0.0789
1088.00,0.0797
1087.00,0.0802
1086.00,0.0803
1085.00,0.0798
1084.00,0.0790
1083.00,0.0782
1082.00,0.0774
1081.00,0.0768
1080.00,0.0763
1079.00,0.0759
1078.00,0.0755
1077.00,0.0751
1076.00,0.0748
1075.00,0.0744
1074.00,0.0741
1073.00,0.0738
1072.00,0.0735
1071.00,0.0732
1070.00,0.0730
1069.00,0.0727
1068.00,0.0725
1067.00,0.0723
1066.00,0.0722
1065.00,0.0720
1064.00,0.0718
1063.00,0.0716
1062.00,0.0715
1061.00,0.0714
1060.00,0.0714
1059.00,0.0715
1058.00,0.0715
1057.00,0.0716
1056.00,0.0716
1055.00,0.0716
1054.00,0.0717
1053.00,0.0717
1052.00,0.0717
1051.00,0.0716
1050.00,0.0716
1049.00,0.0715
1048.00,0.0714
1047.00,0.0713
1046.00,0.0712
1045.00,0.0711
1044.00,0.0711
1043.00,0.0712
1042.00,0.0714
1041.00,0.0718
1040.00,0.0726
1039.00,0.0737
1038.00,0.0751
1037.00,0.0763
1036.00,0.0770
1035.00,0.0769
1034.00,0.0761
1033.00,0.0746
1032.00,0.0730
1031.00,0.0714
1030.00,0.0700
1029.00,0.0688
1028.00,0.0678
1027.00,0.0669
1026.00,0.0661
1025.00,0.0655
1024.00,0.0649
1023.00,0.0643
1022.00,0.0638
1021.00,0.0633
1020.00,0.0628
1019.00,0.0623
1018.00,0.0620
1017.00,0.0617
1016.00,0.0615
1015.00,0.0614
1014.00,0.0614
1013.00,0.0614
1012.00,0.0615
1011.00,0.0618
1010.00,0.0623
1009.00,0.0631
1008.00,0.0647
1007.00,0.0673
1006.00,0.0717
1005.00,0.0787
1004.00,0.0889
1003.00,0.1028
1002.00,0.1205
1001.00,0.1418
1000.00,0.1662
999.00,0.1929
998.00,0.2200
997.00,0.2445
996.00,0.2629
995.00,0.2733
994.00,0.2753
993.00,0.2702
992.00,0.2595
991.00,0.2445
990.00,0.2269
989.00,0.2083
988.00,0.1901
987.00,0.1735
986.00,0.1589
985.00,0.1466
984.00,0.1364
983.00,0.1279
982.00,0.1210
981.00,0.1156
980.00,0.1115
979.00,0.1087
978.00,0.1076
977.00,0.1083
976.00,0.1108
975.00,0.1145
974.00,0.1182
973.00,0.1205
972.00,0.1205
971.00,0.1182
970.00,0.1145
969.00,0.1104
968.00,0.1066
967.00,0.1034
966.00,0.1008
965.00,0.0987
964.00,0.0972
963.00,0.0960
962.00,0.0951
961.00,0.0945
960.00,0.0942
959.00,0.0942
958.00,0.0946
957.00,0.0956
956.00,0.0973
955.00,0.0998
954.00,0.1034
953.00,0.1083
952.00,0.1149
951.00,0.1239
950.00,0.1351
949.00,0.1468
948.00,0.1557
947.00,0.1587
946.00,0.1548
945.00,0.1466
944.00,0.1376
943.00,0.1302
942.00,0.1253
941.00,0.1226
940.00,0.1214
939.00,0.1214
938.00,0.1222
937.00,0.1236
936.00,0.1256
935.00,0.1280
934.00,0.1308
933.00,0.1340
932.00,0.1374
931.00,0.1412
930.00,0.1452
929.00,0.1496
928.00,0.1542
927.00,0.1590
926.00,0.1642
925.00,0.1696
924.00,0.1754
923.00,0.1812
922.00,0.1869
921.00,0.1921
920.00,0.1964
919.00,0.1995
918.00,0.2014
917.00,0.2023
916.00,0.2023
915.00,0.2015
914.00,0.2001
913.00,0.1981
912.00,0.1956
911.00,0.1927
910.00,0.1893
909.00,0.1856
908.00,0.1814
907.00,0.1771
906.00,0.1727
905.00,0.1682
904.00,0.1638
903.00,0.1594
902.00,0.1551
901.00,0.1508
900.00,0.1466
899.00,0.1426
898.00,0.1387
897.00,0.1350
896.00,0.1316
895.00,0.1283
894.00,0.1252
893.00,0.1222
892.00,0.1193
891.00,0.1165
890.00,0.1139
889.00,0.1115
888.00,0.1091
887.00,0.1069
886.00,0.1048
885.00,0.1028
884.00,0.1009
883.00,0.0992
882.00,0.0979
881.00,0.0975
880.00,0.0985
879.00,0.1016
878.00,0.1073
877.00,0.1166
876.00,0.1306
875.00,0.1503
874.00,0.1741
873.00,0.1962
872.00,0.2089
871.00,0.2079
870.00,0.1958
869.00,0.1791
868.00,0.1631
867.00,0.1501
866.00,0.1401
865.00,0.1325
864.00,0.1263
863.00,0.1211
862.00,0.1168
861.00,0.1133
860.00,0.1103
859.00,0.1078
858.00,0.1056
857.00,0.1036
856.00,0.1019
855.00,0.1004
854.00,0.0990
853.00,0.0978
852.00,0.0967
851.00,0.0956
850.00,0.0947
849.00,0.0938
848.00,0.0930
847.00,0.0923
846.00,0.0917
845.00,0.0912
844.00,0.0908
843.00,0.0904
842.00,0.0901
841.00,0.0898
840.00,0.0896
839.00,0.0894
838.00,0.0891
837.00,0.0890
836.00,0.0889
835.00,0.0888
834.00,0.0888
833.00,0.0888
832.00,0.0888
831.00,0.0888
830.00,0.0887
829.00,0.0886
828.00,0.0885
827.00,0.0883
826.00,0.0881
825.00,0.0879
824.00,0.0877
823.00,0.0875
822.00,0.0872
821.00,0.0870
820.00,0.0868
819.00,0.0866
818.00,0.0864
817.00,0.0863
816.00,0.0863
815.00,0.0863
814.00,0.0864
813.00,0.0868
812.00,0.0875
811.00,0.0887
810.00,0.0908
809.00,0.0939
808.00,0.0985
807.00,0.1041
806.00,0.1099
805.00,0.1143
804.00,0.1156
803.00,0.1131
802.00,0.1075
801.00,0.1006
800.00,0.0938
799.00,0.0881
798.00,0.0836
797.00,0.0803
796.00,0.0777
795.00,0.0759
794.00,0.0744
793.00,0.0733
792.00,0.0723
791.00,0.0715
790.00,0.0708
789.00,0.0701
788.00,0.0695
787.00,0.0688
786.00,0.0682
785.00,0.0677
784.00,0.0672
783.00,0.0668
782.00,0.0663
781.00,0.0658
780.00,0.0652
779.00,0.0646
778.00,0.0641
777.00,0.0635
776.00,0.0631
775.00,0.0626
774.00,0.0622
773.00,0.0618
772.00,0.0614
771.00,0.0610
770.00,0.0606
769.00,0.0602
768.00,0.0598
767.00,0.0594
766.00,0.0590
765.00,0.0586
764.00,0.0582
763.00,0.0578
762.00,0.0574
761.00,0.0570
760.00,0.0567
759.00,0.0563
758.00,0.0561
757.00,0.0558
756.00,0.0556
755.00,0.0553
754.00,0.0549
753.00,0.0547
752.00,0.0544
751.00,0.0541
750.00,0.0539
749.00,0.0536
748.00,0.0533
747.00,0.0529
746.00,0.0526
745.00,0.0522
744.00,0.0518
743.00,0.0514
742.00,0.0511
741.00,0.0507
740.00,0.0503
739.00,0.0499
738.00,0.0495
737.00,0.0491
736.00,0.0486
735.00,0.0481
734.00,0.0476
733.00,0.0470
732.00,0.0464
731.00,0.0458
730.00,0.0452
729.00,0.0445
728.00,0.0438
727.00,0.0431
726.00,0.0424
725.00,0.0416
724.00,0.0409
723.00,0.0402
722.00,0.0394
721.00,0.0386
720.00,0.0379
719.00,0.0374
718.00,0.0373
717.00,0.0377
716.00,0.0386
715.00,0.0400
714.00,0.0414
713.00,0.0426
712.00,0.0431
711.00,0.0428
710.00,0.0420
709.00,0.0411
708.00,0.0410
707.00,0.0423
706.00,0.0463
705.00,0.0541
704.00,0.0667
703.00,0.0841
702.00,0.1046
701.00,0.1249
700.00,0.1410
699.00,0.1508
698.00,0.1551
697.00,0.1566
696.00,0.1572
695.00,0.1571
694.00,0.1549
693.00,0.1496
692.00,0.1416
691.00,0.1324
690.00,0.1236
689.00,0.1159
688.00,0.1095
687.00,0.1044
686.00,0.1003
685.00,0.0969
684.00,0.0940
683.00,0.0915
682.00,0.0893
681.00,0.0875
680.00,0.0859
679.00,0.0844
678.00,0.0830
677.00,0.0818
676.00,0.0806
675.00,0.0795
674.00,0.0785
673.00,0.0776
672.00,0.0767
671.00,0.0760
670.00,0.0754
669.00,0.0748
668.00,0.0740
667.00,0.0732
666.00,0.0724
665.00,0.0718
664.00,0.0713
663.00,0.0708
662.00,0.0703
661.00,0.0698
660.00,0.0693
659.00,0.0689
658.00,0.0684
657.00,0.0680
656.00,0.0676
655.00,0.0672
654.00,0.0668
653.00,0.0663
652.00,0.0659
651.00,0.0656
650.00,0.0652
649.00,0.0649
648.00,0.0645
647.00,0.0641
646.00,0.0637
645.00,0.0633
644.00,0.0628
643.00,0.0624
642.00,0.0620
641.00,0.0617
640.00,0.0613
639.00,0.0609
638.00,0.0605
637.00,0.0602
636.00,0.0598
635.00,0.0594
634.00,0.0591
633.00,0.0588
632.00,0.0585
631.00,0.0583
630.00,0.0580
629.00,0.0577
628.00,0.0575
627.00,0.0573
626.00,0.0570
625.00,0.0568
624.00,0.0566
623.00,0.0563
622.00,0.0561
621.00,0.0559
620.00,0.0558
619.00,0.0557
618.00,0.0556
617.00,0.0557
616.00,0.0557
615.00,0.0558
614.00,0.0559
613.00,0.0561
612.00,0.0565
611.00,0.0570
610.00,0.0578
609.00,0.0588
608.00,0.0600
607.00,0.0615
606.00,0.0633
605.00,0.0654
604.00,0.0678
603.00,0.0704
602.00,0.0734
601.00,0.0767
600.00,0.0803
599.00,0.0841
598.00,0.0879
597.00,0.0916
596.00,0.0947
595.00,0.0970
594.00,0.0981
593.00,0.0984
592.00,0.0979
591.00,0.0972
590.00,0.0968
589.00,0.0975
588.00,0.0997
587.00,0.1034
586.00,0.1081
585.00,0.1129
584.00,0.1162
583.00,0.1170
582.00,0.1149
581.00,0.1107
580.00,0.1053
579.00,0.0999
578.00,0.0950
577.00,0.0908
576.00,0.0872
575.00,0.0842
574.00,0.0816
573.00,0.0795
572.00,0.0776
571.00,0.0760
570.00,0.0746
569.00,0.0733
568.00,0.0720
567.00,0.0708
566.00,0.0697
565.00,0.0688
564.00,0.0679
563.00,0.0671
562.00,0.0663
561.00,0.0657
560.00,0.0651
559.00,0.0646
558.00,0.0641
557.00,0.0635
556.00,0.0629
555.00,0.0623
554.00,0.0617
553.00,0.0613
552.00,0.0610
551.00,0.0606
550.00,0.0603
549.00,0.0600
548.00,0.0596
547.00,0.0594
546.00,0.0591
545.00,0.0588
544.00,0.0585
543.00,0.0581
542.00,0.0578
541.00,0.0576
540.00,0.0573
539.00,0.0570
538.00,0.0568
537.00,0.0565
536.00,0.0564
535.00,0.0562
534.00,0.0560
533.00,0.0559
532.00,0.0557
531.00,0.0556
530.00,0.0554
529.00,0.0552
528.00,0.0550
527.00,0.0545
526.00,0.0541
525.00,0.0536
524.00,0.0533
523.00,0.0529
522.00,0.0526
521.00,0.0522
520.00,0.0517
519.00,0.0513
518.00,0.0511
517.00,0.0510
516.00,0.0509
515.00,0.0508
514.00,0.0506
513.00,0.0504
512.00,0.0502
511.00,0.0501
510.00,0.0501
509.00,0.0500
508.00,0.0499
507.00,0.0498
506.00,0.0497
505.00,0.0498
504.00,0.0500
503.00,0.0502
502.00,0.0503
501.00,0.0504
500.00,0.0505
499.00,0.0506
498.00,0.0509
497.00,0.0512
496.00,0.0517
495.00,0.0523
494.00,0.0529
493.00,0.0536
492.00,0.0542
491.00,0.0546
490.00,0.0549
489.00,0.0552
488.00,0.0556
487.00,0.0560
486.00,0.0565
485.00,0.0574
484.00,0.0587
483.00,0.0605
482.00,0.0630
481.00,0.0663
480.00,0.0705
479.00,0.0758
478.00,0.0826
477.00,0.0914
476.00,0.1019
475.00,0.1136
474.00,0.1255
473.00,0.1366
472.00,0.1451
471.00,0.1496
470.00,0.1502
469.00,0.1479
468.00,0.1439
467.00,0.1391
466.00,0.1341
465.00,0.1293
464.00,0.1247
463.00,0.1203
462.00,0.1163
461.00,0.1128
460.00,0.1097
459.00,0.1068
458.00,0.1039
457.00,0.1014
456.00,0.0993
455.00,0.0974
454.00,0.0954
453.00,0.0933
452.00,0.0909
451.00,0.0887
450.00,0.0869
449.00,0.0855
448.00,0.0843
447.00,0.0832
446.00,0.0821
445.00,0.0810
444.00,0.0797
443.00,0.0783
442.00,0.0769
441.00,0.0758
440.00,0.0751
439.00,0.0745
438.00,0.0740
437.00,0.0735
436.00,0.0727
435.00,0.0718
434.00,0.0708
433.00,0.0698
432.00,0.0688
431.00,0.0680
430.00,0.0672
429.00,0.0664
428.00,0.0657
427.00,0.0652
426.00,0.0650
425.00,0.0651
424.00,0.0650
423.00,0.0646
422.00,0.0638
421.00,0.0634
420.00,0.0636
419.00,0.0641
418.00,0.0639
417.00,0.0631
416.00,0.0621
415.00,0.0616
414.00,0.0614
413.00,0.0610
412.00,0.0604
411.00,0.0601
410.00,0.0602
409.00,0.0604
408.00,0.0604
407.00,0.0603
406.00,0.0605
405.00,0.0610
404.00,0.0614
403.00,0.0613
402.00,0.0605
401.00,0.0594
400.00,0.0582
