Created as New Dataset,Sample 581 By YargerLab Date Thursday, June 05 2025
cm-1,A
4000.00,0.0496
3999.00,0.0497
3998.00,0.0498
3997.00,0.0499
3996.00,0.0500
3995.00,0.0502
3994.00,0.0504
3993.00,0.0507
3992.00,0.0510
3991.00,0.0513
3990.00,0.0516
3989.00,0.0518
3988.00,0.0519
3987.00,0.0519
3986.00,0.0518
3985.00,0.0517
3984.00,0.0515
3983.00,0.0513
3982.00,0.0511
3981.00,0.0509
3980.00,0.0508
3979.00,0.0507
3978.00,0.0506
3977.00,0.0505
3976.00,0.0504
3975.00,0.0503
3974.00,0.0502
3973.00,0.0501
3972.00,0.0501
3971.00,0.0500
3970.00,0.0500
3969.00,0.0499
3968.00,0.0499
3967.00,0.0499
3966.00,0.0499
3965.00,0.0499
3964.00,0.0499
3963.00,0.0499
3962.00,0.0499
3961.00,0.0500
3960.00,0.0500
3959.00,0.0501
3958.00,0.0502
3957.00,0.0503
3956.00,0.0503
3955.00,0.0503
3954.00,0.0502
3953.00,0.0502
3952.00,0.0501
3951.00,0.0501
3950.00,0.0500
3949.00,0.0500
3948.00,0.0499
3947.00,0.0499
3946.00,0.0499
3945.00,0.0499
3944.00,0.0499
3943.00,0.0499
3942.00,0.0500
3941.00,0.0500
3940.00,0.0501
3939.00,0.0501
3938.00,0.0501
3937.00,0.0501
3936.00,0.0500
3935.00,0.0500
3934.00,0.0499
3933.00,0.0498
3932.00,0.0497
3931.00,0.0496
3930.00,0.0496
3929.00,0.0496
3928.00,0.0496
3927.00,0.0495
3926.00,0.0494
3925.00,0.0494
3924.00,0.0494
3923.00,0.0493
3922.00,0.0493
3921.00,0.0493
3920.00,0.0492
3919.00,0.0492
3918.00,0.0492
3917.00,0.0491
3916.00,0.0491
3915.00,0.0491
3914.00,0.0491
3913.00,0.0491
3912.00,0.0491
3911.00,0.0492
3910.00,0.0492
3909.00,0.0492
3908.00,0.0493
3907.00,0.0494
3906.00,0.0494
3905.00,0.0494
3904.00,0.0494
3903.00,0.0494
3902.00,0.0495
3901.00,0.0495
3900.00,0.0495
3899.00,0.0496
3898.00,0.0496
3897.00,0.0496
3896.00,0.0496
3895.00,0.0496
3894.00,0.0496
3893.00,0.0496
3892.00,0.0496
3891.00,0.0496
3890.00,0.0497
3889.00,0.0497
3888.00,0.0497
3887.00,0.0496
3886.00,0.0496
3885.00,0.0496
3884.00,0.0496
3883.00,0.0496
3882.00,0.0495
3881.00,0.0495
3880.00,0.0495
3879.00,0.0495
3878.00,0.0495
3877.00,0.0495
3876.00,0.0495
3875.00,0.0494
3874.00,0.0495
3873.00,0.0495
3872.00,0.0495
3871.00,0.0494
3870.00,0.0494
3869.00,0.0494
3868.00,0.0495
3867.00,0.0495
3866.00,0.0494
3865.00,0.0494
3864.00,0.0494
3863.00,0.0494
3862.00,0.0494
3861.00,0.0494
3860.00,0.0494
3859.00,0.0495
3858.00,0.0497
3857.00,0.0499
3856.00,0.0501
3855.00,0.0503
3854.00,0.0505
3853.00,0.0507
3852.00,0.0509
3851.00,0.0510
3850.00,0.0510
3849.00,0.0510
3848.00,0.0509
3847.00,0.0509
3846.00,0.0509
3845.00,0.0508
3844.00,0.0506
3843.00,0.0505
3842.00,0.0505
3841.00,0.0504
3840.00,0.0503
3839.00,0.0502
3838.00,0.0501
3837.00,0.0500
3836.00,0.0500
3835.00,0.0500
3834.00,0.0500
3833.00,0.0499
3832.00,0.0499
3831.00,0.0500
3830.00,0.0500
3829.00,0.0499
3828.00,0.0499
3827.00,0.0498
3826.00,0.0498
3825.00,0.0498
3824.00,0.0498
3823.00,0.0498
3822.00,0.0497
3821.00,0.0497
3820.00,0.0498
3819.00,0.0498
3818.00,0.0498
3817.00,0.0497
3816.00,0.0497
3815.00,0.0497
3814.00,0.0496
3813.00,0.0496
3812.00,0.0495
3811.00,0.0495
3810.00,0.0496
3809.00,0.0496
3808.00,0.0497
3807.00,0.0498
3806.00,0.0500
3805.00,0.0502
3804.00,0.0503
3803.00,0.0503
3802.00,0.0503
3801.00,0.0503
3800.00,0.0503
3799.00,0.0503
3798.00,0.0502
3797.00,0.0500
3796.00,0.0499
3795.00,0.0499
3794.00,0.0498
3793.00,0.0497
3792.00,0.0496
3791.00,0.0495
3790.00,0.0495
3789.00,0.0494
3788.00,0.0495
3787.00,0.0495
3786.00,0.0495
3785.00,0.0495
3784.00,0.0495
3783.00,0.0496
3782.00,0.0495
3781.00,0.0495
3780.00,0.0495
3779.00,0.0495
3778.00,0.0495
3777.00,0.0494
3776.00,0.0494
3775.00,0.0493
3774.00,0.0493
3773.00,0.0494
3772.00,0.0493
3771.00,0.0493
3770.00,0.0493
3769.00,0.0493
3768.00,0.0493
3767.00,0.0492
3766.00,0.0491
3765.00,0.0491
3764.00,0.0491
3763.00,0.0491
3762.00,0.0491
3761.00,0.0491
3760.00,0.0491
3759.00,0.0490
3758.00,0.0490
3757.00,0.0490
3756.00,0.0491
3755.00,0.0491
3754.00,0.0491
3753.00,0.0492
3752.00,0.0492
3751.00,0.0492
3750.00,0.0492
3749.00,0.0492
3748.00,0.0493
3747.00,0.0492
3746.00,0.0492
3745.00,0.0491
3744.00,0.0491
3743.00,0.0491
3742.00,0.0491
3741.00,0.0490
3740.00,0.0490
3739.00,0.0490
3738.00,0.0490
3737.00,0.0490
3736.00,0.0490
3735.00,0.0490
3734.00,0.0490
3733.00,0.0490
3732.00,0.0490
3731.00,0.0490
3730.00,0.0490
3729.00,0.0490
3728.00,0.0490
3727.00,0.0490
3726.00,0.0490
3725.00,0.0490
3724.00,0.0490
3723.00,0.0490
3722.00,0.0490
3721.00,0.0490
3720.00,0.0490
3719.00,0.0490
3718.00,0.0489
3717.00,0.0489
3716.00,0.0489
3715.00,0.0489
3714.00,0.0490
3713.00,0.0490
3712.00,0.0491
3711.00,0.0491
3710.00,0.0491
3709.00,0.0491
3708.00,0.0490
3707.00,0.0489
3706.00,0.0489
3705.00,0.0489
3704.00,0.0489
3703.00,0.0489
3702.00,0.0488
3701.00,0.0487
3700.00,0.0487
3699.00,0.0487
3698.00,0.0486
3697.00,0.0486
3696.00,0.0486
3695.00,0.0487
3694.00,0.0487
3693.00,0.0487
3692.00,0.0487
3691.00,0.0488
3690.00,0.0488
3689.00,0.0488
3688.00,0.0488
3687.00,0.0488
3686.00,0.0488
3685.00,0.0488
3684.00,0.0487
3683.00,0.0487
3682.00,0.0488
3681.00,0.0488
3680.00,0.0488
3679.00,0.0488
3678.00,0.0489
3677.00,0.0489
3676.00,0.0489
3675.00,0.0490
3674.00,0.0492
3673.00,0.0493
3672.00,0.0493
3671.00,0.0492
3670.00,0.0492
3669.00,0.0491
3668.00,0.0490
3667.00,0.0489
3666.00,0.0488
3665.00,0.0487
3664.00,0.0487
3663.00,0.0487
3662.00,0.0487
3661.00,0.0487
3660.00,0.0488
3659.00,0.0488
3658.00,0.0489
3657.00,0.0490
3656.00,0.0491
3655.00,0.0493
3654.00,0.0494
3653.00,0.0495
3652.00,0.0495
3651.00,0.0494
3650.00,0.0494
3649.00,0.0494
3648.00,0.0493
3647.00,0.0492
3646.00,0.0491
3645.00,0.0490
3644.00,0.0489
3643.00,0.0489
3642.00,0.0488
3641.00,0.0488
3640.00,0.0488
3639.00,0.0488
3638.00,0.0488
3637.00,0.0488
3636.00,0.0488
3635.00,0.0488
3634.00,0.0488
3633.00,0.0489
3632.00,0.0489
3631.00,0.0490
3630.00,0.0490
3629.00,0.0491
3628.00,0.0492
3627.00,0.0492
3626.00,0.0493
3625.00,0.0492
3624.00,0.0493
3623.00,0.0493
3622.00,0.0493
3621.00,0.0492
3620.00,0.0492
3619.00,0.0491
3618.00,0.0491
3617.00,0.0491
3616.00,0.0491
3615.00,0.0490
3614.00,0.0490
3613.00,0.0490
3612.00,0.0491
3611.00,0.0491
3610.00,0.0491
3609.00,0.0490
3608.00,0.0490
3607.00,0.0490
3606.00,0.0490
3605.00,0.0490
3604.00,0.0489
3603.00,0.0489
3602.00,0.0489
3601.00,0.0489
3600.00,0.0490
3599.00,0.0490
3598.00,0.0490
3597.00,0.0491
3596.00,0.0491
3595.00,0.0491
3594.00,0.0491
3593.00,0.0492
3592.00,0.0492
3591.00,0.0492
3590.00,0.0492
3589.00,0.0491
3588.00,0.0491
3587.00,0.0492
3586.00,0.0492
3585.00,0.0492
3584.00,0.0493
3583.00,0.0493
3582.00,0.0493
3581.00,0.0493
3580.00,0.0494
3579.00,0.0494
3578.00,0.0494
3577.00,0.0495
3576.00,0.0495
3575.00,0.0496
3574.00,0.0496
3573.00,0.0497
3572.00,0.0498
3571.00,0.0498
3570.00,0.0498
3569.00,0.0498
3568.00,0.0498
3567.00,0.0499
3566.00,0.0499
3565.00,0.0500
3564.00,0.0501
3563.00,0.0501
3562.00,0.0501
3561.00,0.0501
3560.00,0.0501
3559.00,0.0501
3558.00,0.0501
3557.00,0.0501
3556.00,0.0501
3555.00,0.0501
3554.00,0.0500
3553.00,0.0500
3552.00,0.0500
3551.00,0.0500
3550.00,0.0500
3549.00,0.0500
3548.00,0.0500
3547.00,0.0500
3546.00,0.0500
3545.00,0.0500
3544.00,0.0500
3543.00,0.0501
3542.00,0.0501
3541.00,0.0502
3540.00,0.0502
3539.00,0.0502
3538.00,0.0502
3537.00,0.0502
3536.00,0.0502
3535.00,0.0502
3534.00,0.0502
3533.00,0.0503
3532.00,0.0503
3531.00,0.0503
3530.00,0.0504
3529.00,0.0504
3528.00,0.0504
3527.00,0.0504
3526.00,0.0504
3525.00,0.0504
3524.00,0.0504
3523.00,0.0505
3522.00,0.0505
3521.00,0.0505
3520.00,0.0505
3519.00,0.0505
3518.00,0.0505
3517.00,0.0506
3516.00,0.0506
3515.00,0.0506
3514.00,0.0507
3513.00,0.0507
3512.00,0.0507
3511.00,0.0507
3510.00,0.0507
3509.00,0.0507
3508.00,0.0507
3507.00,0.0507
3506.00,0.0507
3505.00,0.0507
3504.00,0.0507
3503.00,0.0508
3502.00,0.0508
3501.00,0.0508
3500.00,0.0508
3499.00,0.0508
3498.00,0.0508
3497.00,0.0508
3496.00,0.0509
3495.00,0.0509
3494.00,0.0509
3493.00,0.0509
3492.00,0.0510
3491.00,0.0510
3490.00,0.0510
3489.00,0.0510
3488.00,0.0511
3487.00,0.0510
3486.00,0.0511
3485.00,0.0511
3484.00,0.0511
3483.00,0.0511
3482.00,0.0512
3481.00,0.0512
3480.00,0.0513
3479.00,0.0513
3478.00,0.0513
3477.00,0.0514
3476.00,0.0514
3475.00,0.0514
3474.00,0.0514
3473.00,0.0514
3472.00,0.0514
3471.00,0.0515
3470.00,0.0515
3469.00,0.0515
3468.00,0.0515
3467.00,0.0515
3466.00,0.0516
3465.00,0.0516
3464.00,0.0516
3463.00,0.0517
3462.00,0.0517
3461.00,0.0517
3460.00,0.0517
3459.00,0.0517
3458.00,0.0517
3457.00,0.0517
3456.00,0.0517
3455.00,0.0517
3454.00,0.0518
3453.00,0.0518
3452.00,0.0518
3451.00,0.0519
3450.00,0.0519
3449.00,0.0519
3448.00,0.0519
3447.00,0.0519
3446.00,0.0519
3445.00,0.0519
3444.00,0.0519
3443.00,0.0520
3442.00,0.0520
3441.00,0.0521
3440.00,0.0521
3439.00,0.0521
3438.00,0.0521
3437.00,0.0521
3436.00,0.0521
3435.00,0.0521
3434.00,0.0521
3433.00,0.0521
3432.00,0.0521
3431.00,0.0521
3430.00,0.0521
3429.00,0.0522
3428.00,0.0522
3427.00,0.0522
3426.00,0.0523
3425.00,0.0523
3424.00,0.0523
3423.00,0.0523
3422.00,0.0523
3421.00,0.0523
3420.00,0.0524
3419.00,0.0524
3418.00,0.0524
3417.00,0.0525
3416.00,0.0525
3415.00,0.0524
3414.00,0.0525
3413.00,0.0525
3412.00,0.0525
3411.00,0.0525
3410.00,0.0525
3409.00,0.0525
3408.00,0.0525
3407.00,0.0525
3406.00,0.0525
3405.00,0.0525
3404.00,0.0525
3403.00,0.0525
3402.00,0.0525
3401.00,0.0525
3400.00,0.0525
3399.00,0.0525
3398.00,0.0525
3397.00,0.0525
3396.00,0.0525
3395.00,0.0525
3394.00,0.0525
3393.00,0.0526
3392.00,0.0526
3391.00,0.0526
3390.00,0.0525
3389.00,0.0525
3388.00,0.0525
3387.00,0.0525
3386.00,0.0525
3385.00,0.0525
3384.00,0.0525
3383.00,0.0525
3382.00,0.0525
3381.00,0.0525
3380.00,0.0525
3379.00,0.0525
3378.00,0.0525
3377.00,0.0525
3376.00,0.0525
3375.00,0.0525
3374.00,0.0525
3373.00,0.0525
3372.00,0.0525
3371.00,0.0525
3370.00,0.0526
3369.00,0.0526
3368.00,0.0525
3367.00,0.0525
3366.00,0.0525
3365.00,0.0525
3364.00,0.0525
3363.00,0.0525
3362.00,0.0525
3361.00,0.0525
3360.00,0.0525
3359.00,0.0525
3358.00,0.0525
3357.00,0.0525
3356.00,0.0525
3355.00,0.0525
3354.00,0.0525
3353.00,0.0526
3352.00,0.0526
3351.00,0.0526
3350.00,0.0526
3349.00,0.0525
3348.00,0.0525
3347.00,0.0525
3346.00,0.0525
3345.00,0.0525
3344.00,0.0525
3343.00,0.0525
3342.00,0.0525
3341.00,0.0525
3340.00,0.0525
3339.00,0.0525
3338.00,0.0525
3337.00,0.0524
3336.00,0.0524
3335.00,0.0524
3334.00,0.0524
3333.00,0.0524
3332.00,0.0524
3331.00,0.0524
3330.00,0.0524
3329.00,0.0524
3328.00,0.0524
3327.00,0.0524
3326.00,0.0524
3325.00,0.0524
3324.00,0.0523
3323.00,0.0523
3322.00,0.0523
3321.00,0.0523
3320.00,0.0522
3319.00,0.0523
3318.00,0.0523
3317.00,0.0523
3316.00,0.0523
3315.00,0.0523
3314.00,0.0523
3313.00,0.0523
3312.00,0.0522
3311.00,0.0522
3310.00,0.0522
3309.00,0.0522
3308.00,0.0521
3307.00,0.0521
3306.00,0.0521
3305.00,0.0521
3304.00,0.0521
3303.00,0.0521
3302.00,0.0521
3301.00,0.0521
3300.00,0.0521
3299.00,0.0520
3298.00,0.0520
3297.00,0.0520
3296.00,0.0520
3295.00,0.0520
3294.00,0.0521
3293.00,0.0521
3292.00,0.0520
3291.00,0.0520
3290.00,0.0520
3289.00,0.0520
3288.00,0.0520
3287.00,0.0520
3286.00,0.0520
3285.00,0.0520
3284.00,0.0519
3283.00,0.0519
3282.00,0.0519
3281.00,0.0518
3280.00,0.0518
3279.00,0.0518
3278.00,0.0518
3277.00,0.0518
3276.00,0.0518
3275.00,0.0518
3274.00,0.0518
3273.00,0.0518
3272.00,0.0518
3271.00,0.0517
3270.00,0.0517
3269.00,0.0517
3268.00,0.0517
3267.00,0.0517
3266.00,0.0517
3265.00,0.0517
3264.00,0.0517
3263.00,0.0516
3262.00,0.0516
3261.00,0.0516
3260.00,0.0516
3259.00,0.0515
3258.00,0.0515
3257.00,0.0515
3256.00,0.0514
3255.00,0.0514
3254.00,0.0514
3253.00,0.0514
3252.00,0.0513
3251.00,0.0513
3250.00,0.0513
3249.00,0.0513
3248.00,0.0512
3247.00,0.0512
3246.00,0.0512
3245.00,0.0512
3244.00,0.0512
3243.00,0.0512
3242.00,0.0511
3241.00,0.0511
3240.00,0.0511
3239.00,0.0511
3238.00,0.0511
3237.00,0.0510
3236.00,0.0510
3235.00,0.0510
3234.00,0.0509
3233.00,0.0509
3232.00,0.0509
3231.00,0.0509
3230.00,0.0508
3229.00,0.0508
3228.00,0.0507
3227.00,0.0507
3226.00,0.0507
3225.00,0.0507
3224.00,0.0507
3223.00,0.0508
3222.00,0.0509
3221.00,0.0511
3220.00,0.0513
3219.00,0.0514
3218.00,0.0515
3217.00,0.0515
3216.00,0.0514
3215.00,0.0513
3214.00,0.0512
3213.00,0.0510
3212.00,0.0509
3211.00,0.0508
3210.00,0.0507
3209.00,0.0507
3208.00,0.0506
3207.00,0.0505
3206.00,0.0505
3205.00,0.0504
3204.00,0.0504
3203.00,0.0503
3202.00,0.0503
3201.00,0.0503
3200.00,0.0502
3199.00,0.0502
3198.00,0.0502
3197.00,0.0502
3196.00,0.0502
3195.00,0.0501
3194.00,0.0501
3193.00,0.0501
3192.00,0.0501
3191.00,0.0501
3190.00,0.0501
3189.00,0.0502
3188.00,0.0503
3187.00,0.0503
3186.00,0.0504
3185.00,0.0503
3184.00,0.0503
3183.00,0.0502
3182.00,0.0501
3181.00,0.0501
3180.00,0.0500
3179.00,0.0500
3178.00,0.0500
3177.00,0.0499
3176.00,0.0499
3175.00,0.0499
3174.00,0.0499
3173.00,0.0499
3172.00,0.0499
3171.00,0.0500
3170.00,0.0501
3169.00,0.0502
3168.00,0.0502
3167.00,0.0501
3166.00,0.0500
3165.00,0.0499
3164.00,0.0498
3163.00,0.0497
3162.00,0.0496
3161.00,0.0496
3160.00,0.0496
3159.00,0.0495
3158.00,0.0495
3157.00,0.0495
3156.00,0.0494
3155.00,0.0493
3154.00,0.0493
3153.00,0.0492
3152.00,0.0492
3151.00,0.0492
3150.00,0.0492
3149.00,0.0491
3148.00,0.0491
3147.00,0.0491
3146.00,0.0491
3145.00,0.0491
3144.00,0.0491
3143.00,0.0490
3142.00,0.0490
3141.00,0.0490
3140.00,0.0489
3139.00,0.0489
3138.00,0.0489
3137.00,0.0489
3136.00,0.0489
3135.00,0.0489
3134.00,0.0489
3133.00,0.0488
3132.00,0.0488
3131.00,0.0488
3130.00,0.0488
3129.00,0.0487
3128.00,0.0487
3127.00,0.0487
3126.00,0.0486
3125.00,0.0485
3124.00,0.0484
3123.00,0.0483
3122.00,0.0482
3121.00,0.0481
3120.00,0.0481
3119.00,0.0480
3118.00,0.0480
3117.00,0.0480
3116.00,0.0480
3115.00,0.0480
3114.00,0.0479
3113.00,0.0479
3112.00,0.0478
3111.00,0.0478
3110.00,0.0477
3109.00,0.0477
3108.00,0.0476
3107.00,0.0476
3106.00,0.0476
3105.00,0.0476
3104.00,0.0476
3103.00,0.0477
3102.00,0.0478
3101.00,0.0481
3100.00,0.0485
3099.00,0.0491
3098.00,0.0497
3097.00,0.0503
3096.00,0.0506
3095.00,0.0508
3094.00,0.0507
3093.00,0.0506
3092.00,0.0506
3091.00,0.0509
3090.00,0.0516
3089.00,0.0526
3088.00,0.0536
3087.00,0.0545
3086.00,0.0549
3085.00,0.0551
3084.00,0.0550
3083.00,0.0547
3082.00,0.0543
3081.00,0.0537
3080.00,0.0531
3079.00,0.0524
3078.00,0.0517
3077.00,0.0510
3076.00,0.0504
3075.00,0.0499
3074.00,0.0495
3073.00,0.0493
3072.00,0.0495
3071.00,0.0501
3070.00,0.0511
3069.00,0.0524
3068.00,0.0538
3067.00,0.0554
3066.00,0.0577
3065.00,0.0609
3064.00,0.0649
3063.00,0.0689
3062.00,0.0718
3061.00,0.0731
3060.00,0.0731
3059.00,0.0724
3058.00,0.0719
3057.00,0.0719
3056.00,0.0725
3055.00,0.0735
3054.00,0.0750
3053.00,0.0769
3052.00,0.0793
3051.00,0.0819
3050.00,0.0842
3049.00,0.0854
3048.00,0.0849
3047.00,0.0827
3046.00,0.0793
3045.00,0.0757
3044.00,0.0724
3043.00,0.0699
3042.00,0.0681
3041.00,0.0668
3040.00,0.0656
3039.00,0.0643
3038.00,0.0628
3037.00,0.0615
3036.00,0.0605
3035.00,0.0601
3034.00,0.0607
3033.00,0.0620
3032.00,0.0639
3031.00,0.0657
3030.00,0.0673
3029.00,0.0682
3028.00,0.0684
3027.00,0.0679
3026.00,0.0671
3025.00,0.0660
3024.00,0.0648
3023.00,0.0638
3022.00,0.0628
3021.00,0.0620
3020.00,0.0611
3019.00,0.0603
3018.00,0.0595
3017.00,0.0587
3016.00,0.0580
3015.00,0.0575
3014.00,0.0571
3013.00,0.0568
3012.00,0.0566
3011.00,0.0565
3010.00,0.0566
3009.00,0.0569
3008.00,0.0575
3007.00,0.0584
3006.00,0.0597
3005.00,0.0611
3004.00,0.0624
3003.00,0.0631
3002.00,0.0632
3001.00,0.0626
3000.00,0.0617
2999.00,0.0607
2998.00,0.0598
2997.00,0.0590
2996.00,0.0583
2995.00,0.0577
2994.00,0.0572
2993.00,0.0568
2992.00,0.0564
2991.00,0.0561
2990.00,0.0557
2989.00,0.0554
2988.00,0.0552
2987.00,0.0550
2986.00,0.0549
2985.00,0.0548
2984.00,0.0548
2983.00,0.0547
2982.00,0.0547
2981.00,0.0546
2980.00,0.0545
2979.00,0.0544
2978.00,0.0543
2977.00,0.0542
2976.00,0.0541
2975.00,0.0540
2974.00,0.0539
2973.00,0.0540
2972.00,0.0541
2971.00,0.0543
2970.00,0.0545
2969.00,0.0548
2968.00,0.0551
2967.00,0.0554
2966.00,0.0557
2965.00,0.0560
2964.00,0.0562
2963.00,0.0563
2962.00,0.0562
2961.00,0.0560
2960.00,0.0559
2959.00,0.0557
2958.00,0.0556
2957.00,0.0555
2956.00,0.0556
2955.00,0.0557
2954.00,0.0558
2953.00,0.0558
2952.00,0.0558
2951.00,0.0558
2950.00,0.0558
2949.00,0.0560
2948.00,0.0562
2947.00,0.0564
2946.00,0.0565
2945.00,0.0564
2944.00,0.0562
2943.00,0.0559
2942.00,0.0556
2941.00,0.0553
2940.00,0.0551
2939.00,0.0550
2938.00,0.0549
2937.00,0.0549
2936.00,0.0550
2935.00,0.0551
2934.00,0.0551
2933.00,0.0551
2932.00,0.0550
2931.00,0.0549
2930.00,0.0548
2929.00,0.0547
2928.00,0.0547
2927.00,0.0547
2926.00,0.0547
2925.00,0.0547
2924.00,0.0547
2923.00,0.0546
2922.00,0.0545
2921.00,0.0543
2920.00,0.0542
2919.00,0.0540
2918.00,0.0539
2917.00,0.0538
2916.00,0.0537
2915.00,0.0537
2914.00,0.0536
2913.00,0.0535
2912.00,0.0535
2911.00,0.0534
2910.00,0.0534
2909.00,0.0533
2908.00,0.0533
2907.00,0.0532
2906.00,0.0532
2905.00,0.0532
2904.00,0.0532
2903.00,0.0532
2902.00,0.0533
2901.00,0.0533
2900.00,0.0534
2899.00,0.0534
2898.00,0.0535
2897.00,0.0535
2896.00,0.0535
2895.00,0.0535
2894.00,0.0535
2893.00,0.0534
2892.00,0.0534
2891.00,0.0534
2890.00,0.0534
2889.00,0.0534
2888.00,0.0535
2887.00,0.0535
2886.00,0.0536
2885.00,0.0537
2884.00,0.0537
2883.00,0.0538
2882.00,0.0538
2881.00,0.0537
2880.00,0.0537
2879.00,0.0537
2878.00,0.0537
2877.00,0.0536
2876.00,0.0536
2875.00,0.0536
2874.00,0.0535
2873.00,0.0535
2872.00,0.0535
2871.00,0.0535
2870.00,0.0535
2869.00,0.0535
2868.00,0.0534
2867.00,0.0534
2866.00,0.0533
2865.00,0.0533
2864.00,0.0532
2863.00,0.0531
2862.00,0.0531
2861.00,0.0530
2860.00,0.0529
2859.00,0.0529
2858.00,0.0528
2857.00,0.0528
2856.00,0.0528
2855.00,0.0528
2854.00,0.0528
2853.00,0.0529
2852.00,0.0529
2851.00,0.0530
2850.00,0.0530
2849.00,0.0531
2848.00,0.0531
2847.00,0.0531
2846.00,0.0531
2845.00,0.0531
2844.00,0.0530
2843.00,0.0529
2842.00,0.0528
2841.00,0.0527
2840.00,0.0526
2839.00,0.0525
2838.00,0.0525
2837.00,0.0526
2836.00,0.0527
2835.00,0.0527
2834.00,0.0528
2833.00,0.0527
2832.00,0.0526
2831.00,0.0525
2830.00,0.0524
2829.00,0.0523
2828.00,0.0522
2827.00,0.0521
2826.00,0.0520
2825.00,0.0519
2824.00,0.0519
2823.00,0.0519
2822.00,0.0518
2821.00,0.0518
2820.00,0.0518
2819.00,0.0518
2818.00,0.0518
2817.00,0.0518
2816.00,0.0517
2815.00,0.0517
2814.00,0.0517
2813.00,0.0517
2812.00,0.0517
2811.00,0.0517
2810.00,0.0516
2809.00,0.0516
2808.00,0.0516
2807.00,0.0516
2806.00,0.0516
2805.00,0.0516
2804.00,0.0515
2803.00,0.0515
2802.00,0.0514
2801.00,0.0514
2800.00,0.0513
2799.00,0.0513
2798.00,0.0513
2797.00,0.0512
2796.00,0.0512
2795.00,0.0512
2794.00,0.0512
2793.00,0.0512
2792.00,0.0512
2791.00,0.0512
2790.00,0.0512
2789.00,0.0512
2788.00,0.0513
2787.00,0.0513
2786.00,0.0513
2785.00,0.0513
2784.00,0.0513
2783.00,0.0513
2782.00,0.0513
2781.00,0.0513
2780.00,0.0512
2779.00,0.0512
2778.00,0.0511
2777.00,0.0510
2776.00,0.0510
2775.00,0.0509
2774.00,0.0509
2773.00,0.0509
2772.00,0.0509
2771.00,0.0509
2770.00,0.0509
2769.00,0.0509
2768.00,0.0509
2767.00,0.0509
2766.00,0.0509
2765.00,0.0509
2764.00,0.0509
2763.00,0.0509
2762.00,0.0509
2761.00,0.0509
2760.00,0.0509
2759.00,0.0509
2758.00,0.0509
2757.00,0.0509
2756.00,0.0509
2755.00,0.0510
2754.00,0.0510
2753.00,0.0510
2752.00,0.0510
2751.00,0.0510
2750.00,0.0510
2749.00,0.0510
2748.00,0.0510
2747.00,0.0510
2746.00,0.0510
2745.00,0.0510
2744.00,0.0510
2743.00,0.0511
2742.00,0.0512
2741.00,0.0512
2740.00,0.0512
2739.00,0.0512
2738.00,0.0512
2737.00,0.0512
2736.00,0.0512
2735.00,0.0512
2734.00,0.0513
2733.00,0.0513
2732.00,0.0513
2731.00,0.0513
2730.00,0.0513
2729.00,0.0513
2728.00,0.0513
2727.00,0.0512
2726.00,0.0511
2725.00,0.0511
2724.00,0.0510
2723.00,0.0510
2722.00,0.0510
2721.00,0.0510
2720.00,0.0510
2719.00,0.0510
2718.00,0.0511
2717.00,0.0511
2716.00,0.0512
2715.00,0.0512
2714.00,0.0512
2713.00,0.0512
2712.00,0.0512
2711.00,0.0511
2710.00,0.0511
2709.00,0.0511
2708.00,0.0510
2707.00,0.0510
2706.00,0.0509
2705.00,0.0509
2704.00,0.0509
2703.00,0.0509
2702.00,0.0509
2701.00,0.0508
2700.00,0.0508
2699.00,0.0508
2698.00,0.0508
2697.00,0.0508
2696.00,0.0507
2695.00,0.0507
2694.00,0.0507
2693.00,0.0507
2692.00,0.0506
2691.00,0.0506
2690.00,0.0506
2689.00,0.0506
2688.00,0.0507
2687.00,0.0507
2686.00,0.0506
2685.00,0.0506
2684.00,0.0506
2683.00,0.0506
2682.00,0.0506
2681.00,0.0506
2680.00,0.0506
2679.00,0.0506
2678.00,0.0506
2677.00,0.0506
2676.00,0.0507
2675.00,0.0507
2674.00,0.0507
2673.00,0.0507
2672.00,0.0508
2671.00,0.0508
2670.00,0.0508
2669.00,0.0509
2668.00,0.0509
2667.00,0.0509
2666.00,0.0509
2665.00,0.0509
2664.00,0.0509
2663.00,0.0509
2662.00,0.0509
2661.00,0.0509
2660.00,0.0509
2659.00,0.0509
2658.00,0.0509
2657.00,0.0509
2656.00,0.0509
2655.00,0.0510
2654.00,0.0510
2653.00,0.0511
2652.00,0.0511
2651.00,0.0512
2650.00,0.0512
2649.00,0.0511
2648.00,0.0510
2647.00,0.0509
2646.00,0.0508
2645.00,0.0508
2644.00,0.0507
2643.00,0.0506
2642.00,0.0506
2641.00,0.0506
2640.00,0.0506
2639.00,0.0506
2638.00,0.0506
2637.00,0.0506
2636.00,0.0506
2635.00,0.0506
2634.00,0.0506
2633.00,0.0506
2632.00,0.0506
2631.00,0.0506
2630.00,0.0505
2629.00,0.0505
2628.00,0.0504
2627.00,0.0503
2626.00,0.0503
2625.00,0.0502
2624.00,0.0502
2623.00,0.0502
2622.00,0.0502
2621.00,0.0501
2620.00,0.0501
2619.00,0.0501
2618.00,0.0501
2617.00,0.0501
2616.00,0.0500
2615.00,0.0500
2614.00,0.0500
2613.00,0.0500
2612.00,0.0499
2611.00,0.0499
2610.00,0.0499
2609.00,0.0499
2608.00,0.0499
2607.00,0.0500
2606.00,0.0501
2605.00,0.0502
2604.00,0.0502
2603.00,0.0502
2602.00,0.0502
2601.00,0.0502
2600.00,0.0502
2599.00,0.0502
2598.00,0.0501
2597.00,0.0501
2596.00,0.0501
2595.00,0.0501
2594.00,0.0501
2593.00,0.0501
2592.00,0.0500
2591.00,0.0500
2590.00,0.0500
2589.00,0.0500
2588.00,0.0500
2587.00,0.0500
2586.00,0.0500
2585.00,0.0500
2584.00,0.0500
2583.00,0.0499
2582.00,0.0499
2581.00,0.0498
2580.00,0.0498
2579.00,0.0498
2578.00,0.0498
2577.00,0.0498
2576.00,0.0498
2575.00,0.0498
2574.00,0.0497
2573.00,0.0497
2572.00,0.0496
2571.00,0.0496
2570.00,0.0496
2569.00,0.0496
2568.00,0.0495
2567.00,0.0495
2566.00,0.0495
2565.00,0.0495
2564.00,0.0495
2563.00,0.0495
2562.00,0.0495
2561.00,0.0494
2560.00,0.0494
2559.00,0.0494
2558.00,0.0494
2557.00,0.0494
2556.00,0.0494
2555.00,0.0495
2554.00,0.0495
2553.00,0.0496
2552.00,0.0496
2551.00,0.0496
2550.00,0.0495
2549.00,0.0495
2548.00,0.0495
2547.00,0.0495
2546.00,0.0496
2545.00,0.0496
2544.00,0.0496
2543.00,0.0496
2542.00,0.0497
2541.00,0.0497
2540.00,0.0497
2539.00,0.0497
2538.00,0.0497
2537.00,0.0497
2536.00,0.0496
2535.00,0.0496
2534.00,0.0497
2533.00,0.0498
2532.00,0.0499
2531.00,0.0500
2530.00,0.0500
2529.00,0.0500
2528.00,0.0499
2527.00,0.0498
2526.00,0.0497
2525.00,0.0497
2524.00,0.0497
2523.00,0.0496
2522.00,0.0496
2521.00,0.0496
2520.00,0.0496
2519.00,0.0497
2518.00,0.0497
2517.00,0.0497
2516.00,0.0496
2515.00,0.0496
2514.00,0.0495
2513.00,0.0495
2512.00,0.0496
2511.00,0.0496
2510.00,0.0496
2509.00,0.0496
2508.00,0.0496
2507.00,0.0496
2506.00,0.0496
2505.00,0.0495
2504.00,0.0495
2503.00,0.0494
2502.00,0.0494
2501.00,0.0494
2500.00,0.0494
2499.00,0.0494
2498.00,0.0494
2497.00,0.0494
2496.00,0.0495
2495.00,0.0494
2494.00,0.0494
2493.00,0.0494
2492.00,0.0493
2491.00,0.0493
2490.00,0.0493
2489.00,0.0493
2488.00,0.0493
2487.00,0.0493
2486.00,0.0493
2485.00,0.0492
2484.00,0.0492
2483.00,0.0491
2482.00,0.0491
2481.00,0.0491
2480.00,0.0492
2479.00,0.0492
2478.00,0.0493
2477.00,0.0493
2476.00,0.0493
2475.00,0.0494
2474.00,0.0494
2473.00,0.0494
2472.00,0.0495
2471.00,0.0495
2470.00,0.0495
2469.00,0.0496
2468.00,0.0496
2467.00,0.0496
2466.00,0.0497
2465.00,0.0497
2464.00,0.0497
2463.00,0.0497
2462.00,0.0496
2461.00,0.0495
2460.00,0.0495
2459.00,0.0495
2458.00,0.0495
2457.00,0.0496
2456.00,0.0496
2455.00,0.0497
2454.00,0.0497
2453.00,0.0497
2452.00,0.0497
2451.00,0.0497
2450.00,0.0496
2449.00,0.0495
2448.00,0.0495
2447.00,0.0494
2446.00,0.0494
2445.00,0.0494
2444.00,0.0495
2443.00,0.0495
2442.00,0.0496
2441.00,0.0497
2440.00,0.0497
2439.00,0.0498
2438.00,0.0499
2437.00,0.0499
2436.00,0.0499
2435.00,0.0499
2434.00,0.0498
2433.00,0.0497
2432.00,0.0496
2431.00,0.0496
2430.00,0.0496
2429.00,0.0496
2428.00,0.0497
2427.00,0.0498
2426.00,0.0500
2425.00,0.0503
2424.00,0.0507
2423.00,0.0510
2422.00,0.0512
2421.00,0.0513
2420.00,0.0511
2419.00,0.0509
2418.00,0.0507
2417.00,0.0506
2416.00,0.0505
2415.00,0.0504
2414.00,0.0504
2413.00,0.0504
2412.00,0.0504
2411.00,0.0503
2410.00,0.0503
2409.00,0.0502
2408.00,0.0500
2407.00,0.0499
2406.00,0.0498
2405.00,0.0497
2404.00,0.0497
2403.00,0.0496
2402.00,0.0495
2401.00,0.0494
2400.00,0.0493
2399.00,0.0493
2398.00,0.0493
2397.00,0.0492
2396.00,0.0492
2395.00,0.0492
2394.00,0.0492
2393.00,0.0492
2392.00,0.0492
2391.00,0.0493
2390.00,0.0494
2389.00,0.0494
2388.00,0.0495
2387.00,0.0495
2386.00,0.0496
2385.00,0.0497
2384.00,0.0498
2383.00,0.0499
2382.00,0.0499
2381.00,0.0499
2380.00,0.0499
2379.00,0.0498
2378.00,0.0498
2377.00,0.0498
2376.00,0.0498
2375.00,0.0498
2374.00,0.0498
2373.00,0.0498
2372.00,0.0498
2371.00,0.0498
2370.00,0.0499
2369.00,0.0499
2368.00,0.0499
2367.00,0.0499
2366.00,0.0499
2365.00,0.0499
2364.00,0.0500
2363.00,0.0500
2362.00,0.0500
2361.00,0.0500
2360.00,0.0501
2359.00,0.0501
2358.00,0.0501
2357.00,0.0501
2356.00,0.0502
2355.00,0.0502
2354.00,0.0502
2353.00,0.0502
2352.00,0.0501
2351.00,0.0501
2350.00,0.0501
2349.00,0.0501
2348.00,0.0501
2347.00,0.0502
2346.00,0.0502
2345.00,0.0502
2344.00,0.0502
2343.00,0.0502
2342.00,0.0501
2341.00,0.0502
2340.00,0.0502
2339.00,0.0503
2338.00,0.0504
2337.00,0.0504
2336.00,0.0504
2335.00,0.0503
2334.00,0.0503
2333.00,0.0502
2332.00,0.0502
2331.00,0.0502
2330.00,0.0502
2329.00,0.0503
2328.00,0.0505
2327.00,0.0508
2326.00,0.0510
2325.00,0.0510
2324.00,0.0510
2323.00,0.0508
2322.00,0.0507
2321.00,0.0505
2320.00,0.0504
2319.00,0.0502
2318.00,0.0501
2317.00,0.0500
2316.00,0.0500
2315.00,0.0499
2314.00,0.0499
2313.00,0.0499
2312.00,0.0498
2311.00,0.0498
2310.00,0.0498
2309.00,0.0498
2308.00,0.0500
2307.00,0.0501
2306.00,0.0503
2305.00,0.0504
2304.00,0.0505
2303.00,0.0505
2302.00,0.0505
2301.00,0.0504
2300.00,0.0504
2299.00,0.0504
2298.00,0.0505
2297.00,0.0508
2296.00,0.0510
2295.00,0.0512
2294.00,0.0515
2293.00,0.0516
2292.00,0.0518
2291.00,0.0519
2290.00,0.0520
2289.00,0.0522
2288.00,0.0522
2287.00,0.0522
2286.00,0.0520
2285.00,0.0517
2284.00,0.0514
2283.00,0.0510
2282.00,0.0508
2281.00,0.0505
2280.00,0.0504
2279.00,0.0503
2278.00,0.0502
2277.00,0.0502
2276.00,0.0503
2275.00,0.0503
2274.00,0.0504
2273.00,0.0503
2272.00,0.0503
2271.00,0.0502
2270.00,0.0501
2269.00,0.0499
2268.00,0.0498
2267.00,0.0497
2266.00,0.0496
2265.00,0.0496
2264.00,0.0496
2263.00,0.0497
2262.00,0.0498
2261.00,0.0498
2260.00,0.0498
2259.00,0.0497
2258.00,0.0495
2257.00,0.0494
2256.00,0.0493
2255.00,0.0492
2254.00,0.0493
2253.00,0.0495
2252.00,0.0497
2251.00,0.0498
2250.00,0.0498
2249.00,0.0496
2248.00,0.0495
2247.00,0.0493
2246.00,0.0492
2245.00,0.0491
2244.00,0.0491
2243.00,0.0491
2242.00,0.0491
2241.00,0.0491
2240.00,0.0491
2239.00,0.0491
2238.00,0.0491
2237.00,0.0492
2236.00,0.0493
2235.00,0.0493
2234.00,0.0492
2233.00,0.0491
2232.00,0.0490
2231.00,0.0490
2230.00,0.0490
2229.00,0.0490
2228.00,0.0490
2227.00,0.0490
2226.00,0.0490
2225.00,0.0491
2224.00,0.0491
2223.00,0.0491
2222.00,0.0490
2221.00,0.0489
2220.00,0.0488
2219.00,0.0487
2218.00,0.0486
2217.00,0.0485
2216.00,0.0485
2215.00,0.0485
2214.00,0.0485
2213.00,0.0485
2212.00,0.0486
2211.00,0.0487
2210.00,0.0487
2209.00,0.0487
2208.00,0.0488
2207.00,0.0487
2206.00,0.0487
2205.00,0.0487
2204.00,0.0487
2203.00,0.0487
2202.00,0.0487
2201.00,0.0486
2200.00,0.0485
2199.00,0.0485
2198.00,0.0485
2197.00,0.0486
2196.00,0.0485
2195.00,0.0484
2194.00,0.0484
2193.00,0.0484
2192.00,0.0484
2191.00,0.0485
2190.00,0.0486
2189.00,0.0486
2188.00,0.0486
2187.00,0.0487
2186.00,0.0487
2185.00,0.0487
2184.00,0.0486
2183.00,0.0484
2182.00,0.0483
2181.00,0.0482
2180.00,0.0483
2179.00,0.0482
2178.00,0.0481
2177.00,0.0479
2176.00,0.0478
2175.00,0.0478
2174.00,0.0481
2173.00,0.0484
2172.00,0.0488
2171.00,0.0491
2170.00,0.0494
2169.00,0.0496
2168.00,0.0497
2167.00,0.0497
2166.00,0.0496
2165.00,0.0496
2164.00,0.0496
2163.00,0.0495
2162.00,0.0492
2161.00,0.0484
2160.00,0.0472
2159.00,0.0462
2158.00,0.0457
2157.00,0.0458
2156.00,0.0462
2155.00,0.0467
2154.00,0.0471
2153.00,0.0474
2152.00,0.0476
2151.00,0.0476
2150.00,0.0475
2149.00,0.0475
2148.00,0.0474
2147.00,0.0473
2146.00,0.0473
2145.00,0.0474
2144.00,0.0474
2143.00,0.0474
2142.00,0.0474
2141.00,0.0474
2140.00,0.0473
2139.00,0.0472
2138.00,0.0471
2137.00,0.0470
2136.00,0.0469
2135.00,0.0469
2134.00,0.0469
2133.00,0.0470
2132.00,0.0471
2131.00,0.0473
2130.00,0.0474
2129.00,0.0475
2128.00,0.0477
2127.00,0.0478
2126.00,0.0479
2125.00,0.0480
2124.00,0.0481
2123.00,0.0481
2122.00,0.0482
2121.00,0.0482
2120.00,0.0483
2119.00,0.0484
2118.00,0.0485
2117.00,0.0486
2116.00,0.0486
2115.00,0.0487
2114.00,0.0487
2113.00,0.0487
2112.00,0.0487
2111.00,0.0487
2110.00,0.0487
2109.00,0.0488
2108.00,0.0488
2107.00,0.0488
2106.00,0.0488
2105.00,0.0489
2104.00,0.0489
2103.00,0.0489
2102.00,0.0488
2101.00,0.0487
2100.00,0.0485
2099.00,0.0484
2098.00,0.0482
2097.00,0.0482
2096.00,0.0481
2095.00,0.0481
2094.00,0.0481
2093.00,0.0482
2092.00,0.0483
2091.00,0.0485
2090.00,0.0486
2089.00,0.0487
2088.00,0.0488
2087.00,0.0487
2086.00,0.0487
2085.00,0.0486
2084.00,0.0486
2083.00,0.0486
2082.00,0.0487
2081.00,0.0489
2080.00,0.0490
2079.00,0.0491
2078.00,0.0491
2077.00,0.0491
2076.00,0.0491
2075.00,0.0490
2074.00,0.0489
2073.00,0.0488
2072.00,0.0487
2071.00,0.0486
2070.00,0.0486
2069.00,0.0485
2068.00,0.0485
2067.00,0.0485
2066.00,0.0485
2065.00,0.0484
2064.00,0.0484
2063.00,0.0484
2062.00,0.0485
2061.00,0.0485
2060.00,0.0485
2059.00,0.0485
2058.00,0.0485
2057.00,0.0485
2056.00,0.0485
2055.00,0.0485
2054.00,0.0487
2053.00,0.0489
2052.00,0.0490
2051.00,0.0490
2050.00,0.0488
2049.00,0.0486
2048.00,0.0484
2047.00,0.0484
2046.00,0.0483
2045.00,0.0482
2044.00,0.0482
2043.00,0.0482
2042.00,0.0482
2041.00,0.0482
2040.00,0.0483
2039.00,0.0484
2038.00,0.0485
2037.00,0.0485
2036.00,0.0485
2035.00,0.0484
2034.00,0.0482
2033.00,0.0480
2032.00,0.0478
2031.00,0.0477
2030.00,0.0475
2029.00,0.0475
2028.00,0.0476
2027.00,0.0478
2026.00,0.0480
2025.00,0.0480
2024.00,0.0481
2023.00,0.0480
2022.00,0.0479
2021.00,0.0478
2020.00,0.0476
2019.00,0.0473
2018.00,0.0469
2017.00,0.0465
2016.00,0.0462
2015.00,0.0461
2014.00,0.0460
2013.00,0.0461
2012.00,0.0461
2011.00,0.0460
2010.00,0.0461
2009.00,0.0462
2008.00,0.0465
2007.00,0.0467
2006.00,0.0467
2005.00,0.0466
2004.00,0.0466
2003.00,0.0467
2002.00,0.0468
2001.00,0.0469
2000.00,0.0471
1999.00,0.0472
1998.00,0.0472
1997.00,0.0471
1996.00,0.0471
1995.00,0.0471
1994.00,0.0473
1993.00,0.0476
1992.00,0.0479
1991.00,0.0481
1990.00,0.0483
1989.00,0.0485
1988.00,0.0486
1987.00,0.0486
1986.00,0.0484
1985.00,0.0482
1984.00,0.0481
1983.00,0.0482
1982.00,0.0484
1981.00,0.0485
1980.00,0.0483
1979.00,0.0480
1978.00,0.0474
1977.00,0.0468
1976.00,0.0465
1975.00,0.0463
1974.00,0.0463
1973.00,0.0464
1972.00,0.0466
1971.00,0.0466
1970.00,0.0466
1969.00,0.0466
1968.00,0.0466
1967.00,0.0467
1966.00,0.0467
1965.00,0.0467
1964.00,0.0468
1963.00,0.0470
1962.00,0.0474
1961.00,0.0481
1960.00,0.0494
1959.00,0.0513
1958.00,0.0535
1957.00,0.0557
1956.00,0.0575
1955.00,0.0585
1954.00,0.0586
1953.00,0.0581
1952.00,0.0572
1951.00,0.0562
1950.00,0.0554
1949.00,0.0548
1948.00,0.0545
1947.00,0.0545
1946.00,0.0546
1945.00,0.0548
1944.00,0.0551
1943.00,0.0553
1942.00,0.0553
1941.00,0.0550
1940.00,0.0546
1939.00,0.0541
1938.00,0.0534
1937.00,0.0527
1936.00,0.0521
1935.00,0.0515
1934.00,0.0510
1933.00,0.0506
1932.00,0.0504
1931.00,0.0504
1930.00,0.0504
1929.00,0.0506
1928.00,0.0509
1927.00,0.0513
1926.00,0.0519
1925.00,0.0525
1924.00,0.0532
1923.00,0.0537
1922.00,0.0540
1921.00,0.0540
1920.00,0.0536
1919.00,0.0531
1918.00,0.0526
1917.00,0.0522
1916.00,0.0522
1915.00,0.0524
1914.00,0.0528
1913.00,0.0534
1912.00,0.0543
1911.00,0.0554
1910.00,0.0566
1909.00,0.0576
1908.00,0.0583
1907.00,0.0584
1906.00,0.0580
1905.00,0.0573
1904.00,0.0564
1903.00,0.0555
1902.00,0.0547
1901.00,0.0540
1900.00,0.0533
1899.00,0.0528
1898.00,0.0523
1897.00,0.0519
1896.00,0.0516
1895.00,0.0513
1894.00,0.0511
1893.00,0.0508
1892.00,0.0506
1891.00,0.0505
1890.00,0.0503
1889.00,0.0502
1888.00,0.0500
1887.00,0.0499
1886.00,0.0498
1885.00,0.0497
1884.00,0.0497
1883.00,0.0497
1882.00,0.0496
1881.00,0.0495
1880.00,0.0494
1879.00,0.0494
1878.00,0.0493
1877.00,0.0493
1876.00,0.0492
1875.00,0.0492
1874.00,0.0492
1873.00,0.0492
1872.00,0.0492
1871.00,0.0493
1870.00,0.0494
1869.00,0.0496
1868.00,0.0498
1867.00,0.0501
1866.00,0.0505
1865.00,0.0508
1864.00,0.0513
1863.00,0.0518
1862.00,0.0523
1861.00,0.0529
1860.00,0.0536
1859.00,0.0543
1858.00,0.0550
1857.00,0.0556
1856.00,0.0558
1855.00,0.0557
1854.00,0.0553
1853.00,0.0547
1852.00,0.0542
1851.00,0.0538
1850.00,0.0537
1849.00,0.0537
1848.00,0.0540
1847.00,0.0543
1846.00,0.0546
1845.00,0.0551
1844.00,0.0554
1843.00,0.0554
1842.00,0.0551
1841.00,0.0546
1840.00,0.0540
1839.00,0.0532
1838.00,0.0525
1837.00,0.0519
1836.00,0.0514
1835.00,0.0511
1834.00,0.0508
1833.00,0.0506
1832.00,0.0505
1831.00,0.0504
1830.00,0.0504
1829.00,0.0506
1828.00,0.0508
1827.00,0.0512
1826.00,0.0517
1825.00,0.0524
1824.00,0.0532
1823.00,0.0538
1822.00,0.0543
1821.00,0.0548
1820.00,0.0553
1819.00,0.0558
1818.00,0.0563
1817.00,0.0566
1816.00,0.0567
1815.00,0.0564
1814.00,0.0560
1813.00,0.0553
1812.00,0.0545
1811.00,0.0538
1810.00,0.0532
1809.00,0.0527
1808.00,0.0523
1807.00,0.0520
1806.00,0.0517
1805.00,0.0515
1804.00,0.0513
1803.00,0.0511
1802.00,0.0510
1801.00,0.0509
1800.00,0.0508
1799.00,0.0507
1798.00,0.0507
1797.00,0.0507
1796.00,0.0508
1795.00,0.0509
1794.00,0.0511
1793.00,0.0515
1792.00,0.0520
1791.00,0.0526
1790.00,0.0532
1789.00,0.0538
1788.00,0.0543
1787.00,0.0549
1786.00,0.0555
1785.00,0.0558
1784.00,0.0560
1783.00,0.0558
1782.00,0.0553
1781.00,0.0547
1780.00,0.0540
1779.00,0.0534
1778.00,0.0529
1777.00,0.0525
1776.00,0.0522
1775.00,0.0520
1774.00,0.0518
1773.00,0.0516
1772.00,0.0513
1771.00,0.0512
1770.00,0.0511
1769.00,0.0511
1768.00,0.0511
1767.00,0.0511
1766.00,0.0510
1765.00,0.0509
1764.00,0.0508
1763.00,0.0507
1762.00,0.0506
1761.00,0.0505
1760.00,0.0503
1759.00,0.0503
1758.00,0.0502
1757.00,0.0502
1756.00,0.0502
1755.00,0.0501
1754.00,0.0501
1753.00,0.0502
1752.00,0.0503
1751.00,0.0506
1750.00,0.0510
1749.00,0.0514
1748.00,0.0519
1747.00,0.0525
1746.00,0.0532
1745.00,0.0539
1744.00,0.0546
1743.00,0.0552
1742.00,0.0560
1741.00,0.0570
1740.00,0.0583
1739.00,0.0597
1738.00,0.0609
1737.00,0.0617
1736.00,0.0621
1735.00,0.0619
1734.00,0.0612
1733.00,0.0601
1732.00,0.0593
1731.00,0.0586
1730.00,0.0580
1729.00,0.0574
1728.00,0.0569
1727.00,0.0565
1726.00,0.0561
1725.00,0.0559
1724.00,0.0558
1723.00,0.0557
1722.00,0.0556
1721.00,0.0556
1720.00,0.0556
1719.00,0.0557
1718.00,0.0558
1717.00,0.0558
1716.00,0.0556
1715.00,0.0553
1714.00,0.0548
1713.00,0.0542
1712.00,0.0538
1711.00,0.0534
1710.00,0.0531
1709.00,0.0529
1708.00,0.0526
1707.00,0.0525
1706.00,0.0523
1705.00,0.0522
1704.00,0.0521
1703.00,0.0520
1702.00,0.0520
1701.00,0.0520
1700.00,0.0520
1699.00,0.0520
1698.00,0.0521
1697.00,0.0523
1696.00,0.0527
1695.00,0.0532
1694.00,0.0536
1693.00,0.0540
1692.00,0.0544
1691.00,0.0549
1690.00,0.0553
1689.00,0.0556
1688.00,0.0559
1687.00,0.0562
1686.00,0.0564
1685.00,0.0565
1684.00,0.0564
1683.00,0.0562
1682.00,0.0560
1681.00,0.0561
1680.00,0.0562
1679.00,0.0563
1678.00,0.0564
1677.00,0.0566
1676.00,0.0570
1675.00,0.0574
1674.00,0.0578
1673.00,0.0581
1672.00,0.0582
1671.00,0.0580
1670.00,0.0576
1669.00,0.0569
1668.00,0.0562
1667.00,0.0556
1666.00,0.0551
1665.00,0.0546
1664.00,0.0541
1663.00,0.0537
1662.00,0.0533
1661.00,0.0530
1660.00,0.0528
1659.00,0.0527
1658.00,0.0526
1657.00,0.0524
1656.00,0.0523
1655.00,0.0522
1654.00,0.0521
1653.00,0.0521
1652.00,0.0521
1651.00,0.0521
1650.00,0.0521
1649.00,0.0521
1648.00,0.0521
1647.00,0.0520
1646.00,0.0518
1645.00,0.0517
1644.00,0.0517
1643.00,0.0518
1642.00,0.0519
1641.00,0.0520
1640.00,0.0520
1639.00,0.0521
1638.00,0.0521
1637.00,0.0521
1636.00,0.0520
1635.00,0.0519
1634.00,0.0518
1633.00,0.0516
1632.00,0.0515
1631.00,0.0513
1630.00,0.0512
1629.00,0.0510
1628.00,0.0508
1627.00,0.0507
1626.00,0.0506
1625.00,0.0505
1624.00,0.0504
1623.00,0.0503
1622.00,0.0502
1621.00,0.0501
1620.00,0.0500
1619.00,0.0500
1618.00,0.0500
1617.00,0.0499
1616.00,0.0499
1615.00,0.0499
1614.00,0.0499
1613.00,0.0499
1612.00,0.0500
1611.00,0.0500
1610.00,0.0500
1609.00,0.0500
1608.00,0.0501
1607.00,0.0502
1606.00,0.0502
1605.00,0.0502
1604.00,0.0501
1603.00,0.0499
1602.00,0.0495
1601.00,0.0491
1600.00,0.0485
1599.00,0.0480
1598.00,0.0482
1597.00,0.0506
1596.00,0.0576
1595.00,0.0699
1594.00,0.0845
1593.00,0.0951
1592.00,0.0970
1591.00,0.0911
1590.00,0.0823
1589.00,0.0750
1588.00,0.0703
1587.00,0.0672
1586.00,0.0644
1585.00,0.0617
1584.00,0.0594
1583.00,0.0577
1582.00,0.0565
1581.00,0.0558
1580.00,0.0553
1579.00,0.0548
1578.00,0.0544
1577.00,0.0541
1576.00,0.0539
1575.00,0.0539
1574.00,0.0542
1573.00,0.0547
1572.00,0.0556
1571.00,0.0567
1570.00,0.0581
1569.00,0.0595
1568.00,0.0606
1567.00,0.0611
1566.00,0.0611
1565.00,0.0606
1564.00,0.0600
1563.00,0.0594
1562.00,0.0589
1561.00,0.0585
1560.00,0.0578
1559.00,0.0568
1558.00,0.0556
1557.00,0.0549
1556.00,0.0546
1555.00,0.0543
1554.00,0.0539
1553.00,0.0534
1552.00,0.0529
1551.00,0.0524
1550.00,0.0520
1549.00,0.0516
1548.00,0.0513
1547.00,0.0510
1546.00,0.0508
1545.00,0.0505
1544.00,0.0503
1543.00,0.0500
1542.00,0.0497
1541.00,0.0494
1540.00,0.0493
1539.00,0.0492
1538.00,0.0491
1537.00,0.0490
1536.00,0.0489
1535.00,0.0487
1534.00,0.0484
1533.00,0.0482
1532.00,0.0480
1531.00,0.0478
1530.00,0.0476
1529.00,0.0473
1528.00,0.0470
1527.00,0.0467
1526.00,0.0465
1525.00,0.0469
1524.00,0.0482
1523.00,0.0510
1522.00,0.0550
1521.00,0.0588
1520.00,0.0607
1519.00,0.0607
1518.00,0.0594
1517.00,0.0572
1516.00,0.0548
1515.00,0.0529
1514.00,0.0523
1513.00,0.0536
1512.00,0.0566
1511.00,0.0605
1510.00,0.0638
1509.00,0.0659
1508.00,0.0681
1507.00,0.0735
1506.00,0.0831
1505.00,0.0924
1504.00,0.0979
1503.00,0.0995
1502.00,0.0980
1501.00,0.0946
1500.00,0.0901
1499.00,0.0852
1498.00,0.0802
1497.00,0.0755
1496.00,0.0715
1495.00,0.0687
1494.00,0.0668
1493.00,0.0655
1492.00,0.0646
1491.00,0.0637
1490.00,0.0628
1489.00,0.0621
1488.00,0.0615
1487.00,0.0610
1486.00,0.0606
1485.00,0.0602
1484.00,0.0599
1483.00,0.0597
1482.00,0.0594
1481.00,0.0592
1480.00,0.0590
1479.00,0.0589
1478.00,0.0587
1477.00,0.0586
1476.00,0.0585
1475.00,0.0583
1474.00,0.0582
1473.00,0.0580
1472.00,0.0578
1471.00,0.0577
1470.00,0.0576
1469.00,0.0576
1468.00,0.0576
1467.00,0.0576
1466.00,0.0575
1465.00,0.0574
1464.00,0.0573
1463.00,0.0573
1462.00,0.0572
1461.00,0.0572
1460.00,0.0572
1459.00,0.0572
1458.00,0.0571
1457.00,0.0571
1456.00,0.0570
1455.00,0.0569
1454.00,0.0568
1453.00,0.0567
1452.00,0.0567
1451.00,0.0567
1450.00,0.0567
1449.00,0.0569
1448.00,0.0572
1447.00,0.0578
1446.00,0.0584
1445.00,0.0589
1444.00,0.0593
1443.00,0.0593
1442.00,0.0590
1441.00,0.0585
1440.00,0.0581
1439.00,0.0578
1438.00,0.0577
1437.00,0.0577
1436.00,0.0578
1435.00,0.0581
1434.00,0.0585
1433.00,0.0587
1432.00,0.0589
1431.00,0.0590
1430.00,0.0588
1429.00,0.0585
1428.00,0.0582
1427.00,0.0579
1426.00,0.0576
1425.00,0.0572
1424.00,0.0570
1423.00,0.0567
1422.00,0.0564
1421.00,0.0562
1420.00,0.0561
1419.00,0.0559
1418.00,0.0558
1417.00,0.0556
1416.00,0.0555
1415.00,0.0555
1414.00,0.0554
1413.00,0.0552
1412.00,0.0551
1411.00,0.0550
1410.00,0.0548
1409.00,0.0547
1408.00,0.0545
1407.00,0.0545
1406.00,0.0543
1405.00,0.0542
1404.00,0.0541
1403.00,0.0540
1402.00,0.0539
1401.00,0.0537
1400.00,0.0536
1399.00,0.0535
1398.00,0.0533
1397.00,0.0531
1396.00,0.0532
1395.00,0.0539
1394.00,0.0565
1393.00,0.0631
1392.00,0.0743
1391.00,0.0882
1390.00,0.1000
1389.00,0.1052
1388.00,0.1026
1387.00,0.0962
1386.00,0.0906
1385.00,0.0868
1384.00,0.0834
1383.00,0.0794
1382.00,0.0751
1381.00,0.0711
1380.00,0.0677
1379.00,0.0651
1378.00,0.0631
1377.00,0.0616
1376.00,0.0606
1375.00,0.0599
1374.00,0.0596
1373.00,0.0596
1372.00,0.0599
1371.00,0.0604
1370.00,0.0612
1369.00,0.0622
1368.00,0.0633
1367.00,0.0642
1366.00,0.0652
1365.00,0.0667
1364.00,0.0687
1363.00,0.0710
1362.00,0.0724
1361.00,0.0720
1360.00,0.0700
1359.00,0.0675
1358.00,0.0652
1357.00,0.0637
1356.00,0.0627
1355.00,0.0621
1354.00,0.0618
1353.00,0.0616
1352.00,0.0616
1351.00,0.0615
1350.00,0.0615
1349.00,0.0612
1348.00,0.0607
1347.00,0.0600
1346.00,0.0593
1345.00,0.0587
1344.00,0.0581
1343.00,0.0577
1342.00,0.0574
1341.00,0.0571
1340.00,0.0569
1339.00,0.0568
1338.00,0.0566
1337.00,0.0564
1336.00,0.0563
1335.00,0.0561
1334.00,0.0560
1333.00,0.0559
1332.00,0.0558
1331.00,0.0557
1330.00,0.0556
1329.00,0.0555
1328.00,0.0555
1327.00,0.0554
1326.00,0.0554
1325.00,0.0554
1324.00,0.0554
1323.00,0.0553
1322.00,0.0552
1321.00,0.0552
1320.00,0.0551
1319.00,0.0551
1318.00,0.0550
1317.00,0.0550
1316.00,0.0550
1315.00,0.0549
1314.00,0.0549
1313.00,0.0549
1312.00,0.0550
1311.00,0.0551
1310.00,0.0553
1309.00,0.0555
1308.00,0.0556
1307.00,0.0558
1306.00,0.0559
1305.00,0.0561
1304.00,0.0563
1303.00,0.0563
1302.00,0.0561
1301.00,0.0558
1300.00,0.0554
1299.00,0.0549
1298.00,0.0546
1297.00,0.0542
1296.00,0.0540
1295.00,0.0537
1294.00,0.0535
1293.00,0.0533
1292.00,0.0531
1291.00,0.0530
1290.00,0.0528
1289.00,0.0526
1288.00,0.0525
1287.00,0.0523
1286.00,0.0521
1285.00,0.0519
1284.00,0.0517
1283.00,0.0516
1282.00,0.0515
1281.00,0.0514
1280.00,0.0514
1279.00,0.0518
1278.00,0.0529
1277.00,0.0559
1276.00,0.0620
1275.00,0.0713
1274.00,0.0824
1273.00,0.0923
1272.00,0.0976
1271.00,0.0970
1270.00,0.0916
1269.00,0.0839
1268.00,0.0765
1267.00,0.0708
1266.00,0.0672
1265.00,0.0652
1264.00,0.0641
1263.00,0.0632
1262.00,0.0624
1261.00,0.0614
1260.00,0.0603
1259.00,0.0594
1258.00,0.0588
1257.00,0.0585
1256.00,0.0585
1255.00,0.0588
1254.00,0.0593
1253.00,0.0600
1252.00,0.0609
1251.00,0.0618
1250.00,0.0628
1249.00,0.0641
1248.00,0.0659
1247.00,0.0681
1246.00,0.0705
1245.00,0.0726
1244.00,0.0734
1243.00,0.0726
1242.00,0.0706
1241.00,0.0679
1240.00,0.0652
1239.00,0.0628
1238.00,0.0610
1237.00,0.0597
1236.00,0.0586
1235.00,0.0578
1234.00,0.0572
1233.00,0.0567
1232.00,0.0562
1231.00,0.0558
1230.00,0.0554
1229.00,0.0550
1228.00,0.0546
1227.00,0.0541
1226.00,0.0536
1225.00,0.0531
1224.00,0.0526
1223.00,0.0521
1222.00,0.0517
1221.00,0.0516
1220.00,0.0518
1219.00,0.0528
1218.00,0.0547
1217.00,0.0579
1216.00,0.0622
1215.00,0.0674
1214.00,0.0732
1213.00,0.0788
1212.00,0.0835
1211.00,0.0865
1210.00,0.0870
1209.00,0.0852
1208.00,0.0817
1207.00,0.0774
1206.00,0.0733
1205.00,0.0699
1204.00,0.0673
1203.00,0.0654
1202.00,0.0640
1201.00,0.0630
1200.00,0.0622
1199.00,0.0616
1198.00,0.0611
1197.00,0.0608
1196.00,0.0604
1195.00,0.0602
1194.00,0.0600
1193.00,0.0600
1192.00,0.0600
1191.00,0.0600
1190.00,0.0600
1189.00,0.0600
1188.00,0.0599
1187.00,0.0598
1186.00,0.0596
1185.00,0.0595
1184.00,0.0594
1183.00,0.0593
1182.00,0.0592
1181.00,0.0593
1180.00,0.0597
1179.00,0.0603
1178.00,0.0611
1177.00,0.0619
1176.00,0.0624
1175.00,0.0623
1174.00,0.0617
1173.00,0.0608
1172.00,0.0599
1171.00,0.0591
1170.00,0.0584
1169.00,0.0579
1168.00,0.0575
1167.00,0.0572
1166.00,0.0569
1165.00,0.0566
1164.00,0.0564
1163.00,0.0561
1162.00,0.0559
1161.00,0.0558
1160.00,0.0557
1159.00,0.0556
1158.00,0.0555
1157.00,0.0554
1156.00,0.0553
1155.00,0.0551
1154.00,0.0549
1153.00,0.0547
1152.00,0.0545
1151.00,0.0543
1150.00,0.0541
1149.00,0.0539
1148.00,0.0539
1147.00,0.0540
1146.00,0.0545
1145.00,0.0559
1144.00,0.0586
1143.00,0.0619
1142.00,0.0644
1141.00,0.0648
1140.00,0.0632
1139.00,0.0606
1138.00,0.0583
1137.00,0.0568
1136.00,0.0557
1135.00,0.0546
1134.00,0.0538
1133.00,0.0536
1132.00,0.0549
1131.00,0.0589
1130.00,0.0669
1129.00,0.0778
1128.00,0.0885
1127.00,0.0959
1126.00,0.0997
1125.00,0.1023
1124.00,0.1060
1123.00,0.1096
1122.00,0.1097
1121.00,0.1048
1120.00,0.0967
1119.00,0.0885
1118.00,0.0822
1117.00,0.0777
1116.00,0.0745
1115.00,0.0720
1114.00,0.0702
1113.00,0.0687
1112.00,0.0676
1111.00,0.0666
1110.00,0.0659
1109.00,0.0653
1108.00,0.0647
1107.00,0.0642
1106.00,0.0638
1105.00,0.0633
1104.00,0.0630
1103.00,0.0626
1102.00,0.0624
1101.00,0.0622
1100.00,0.0621
1099.00,0.0619
1098.00,0.0618
1097.00,0.0618
1096.00,0.0617
1095.00,0.0617
1094.00,0.0619
1093.00,0.0621
1092.00,0.0625
1091.00,0.0630
1090.00,0.0637
1089.00,0.0643
1088.00,0.0646
1087.00,0.0647
1086.00,0.0648
1085.00,0.0647
1084.00,0.0646
1083.00,0.0646
1082.00,0.0646
1081.00,0.0647
1080.00,0.0647
1079.00,0.0647
1078.00,0.0647
1077.00,0.0647
1076.00,0.0646
1075.00,0.0646
1074.00,0.0645
1073.00,0.0645
1072.00,0.0644
1071.00,0.0644
1070.00,0.0643
1069.00,0.0644
1068.00,0.0644
1067.00,0.0644
1066.00,0.0644
1065.00,0.0645
1064.00,0.0645
1063.00,0.0646
1062.00,0.0646
1061.00,0.0646
1060.00,0.0646
1059.00,0.0645
1058.00,0.0644
1057.00,0.0643
1056.00,0.0642
1055.00,0.0640
1054.00,0.0639
1053.00,0.0636
1052.00,0.0633
1051.00,0.0629
1050.00,0.0625
1049.00,0.0621
1048.00,0.0617
1047.00,0.0613
1046.00,0.0609
1045.00,0.0605
1044.00,0.0602
1043.00,0.0598
1042.00,0.0594
1041.00,0.0590
1040.00,0.0587
1039.00,0.0584
1038.00,0.0581
1037.00,0.0579
1036.00,0.0577
1035.00,0.0575
1034.00,0.0574
1033.00,0.0572
1032.00,0.0570
1031.00,0.0567
1030.00,0.0565
1029.00,0.0562
1028.00,0.0559
1027.00,0.0556
1026.00,0.0552
1025.00,0.0549
1024.00,0.0544
1023.00,0.0540
1022.00,0.0535
1021.00,0.0531
1020.00,0.0526
1019.00,0.0520
1018.00,0.0512
1017.00,0.0502
1016.00,0.0492
1015.00,0.0480
1014.00,0.0468
1013.00,0.0456
1012.00,0.0453
1011.00,0.0478
1010.00,0.0558
1009.00,0.0699
1008.00,0.0867
1007.00,0.0997
1006.00,0.1040
1005.00,0.1003
1004.00,0.0933
1003.00,0.0869
1002.00,0.0822
1001.00,0.0785
1000.00,0.0754
999.00,0.0726
998.00,0.0702
997.00,0.0684
996.00,0.0670
995.00,0.0660
994.00,0.0651
993.00,0.0644
992.00,0.0637
991.00,0.0630
990.00,0.0623
989.00,0.0618
988.00,0.0613
987.00,0.0610
986.00,0.0609
985.00,0.0611
984.00,0.0620
983.00,0.0641
982.00,0.0672
981.00,0.0704
980.00,0.0723
979.00,0.0723
978.00,0.0710
977.00,0.0695
976.00,0.0684
975.00,0.0678
974.00,0.0673
973.00,0.0668
972.00,0.0662
971.00,0.0655
970.00,0.0649
969.00,0.0642
968.00,0.0637
967.00,0.0635
966.00,0.0640
965.00,0.0659
964.00,0.0699
963.00,0.0769
962.00,0.0869
961.00,0.0982
960.00,0.1078
959.00,0.1123
958.00,0.1102
957.00,0.1030
956.00,0.0935
955.00,0.0848
954.00,0.0780
953.00,0.0734
952.00,0.0703
951.00,0.0682
950.00,0.0668
949.00,0.0657
948.00,0.0648
947.00,0.0641
946.00,0.0636
945.00,0.0632
944.00,0.0630
943.00,0.0628
942.00,0.0627
941.00,0.0627
940.00,0.0628
939.00,0.0629
938.00,0.0631
937.00,0.0632
936.00,0.0632
935.00,0.0632
934.00,0.0631
933.00,0.0630
932.00,0.0629
931.00,0.0627
930.00,0.0626
929.00,0.0624
928.00,0.0622
927.00,0.0620
926.00,0.0619
925.00,0.0618
924.00,0.0617
923.00,0.0616
922.00,0.0615
921.00,0.0614
920.00,0.0613
919.00,0.0614
918.00,0.0615
917.00,0.0616
916.00,0.0617
915.00,0.0618
914.00,0.0618
913.00,0.0617
912.00,0.0617
911.00,0.0616
910.00,0.0615
909.00,0.0615
908.00,0.0614
907.00,0.0613
906.00,0.0613
905.00,0.0612
904.00,0.0611
903.00,0.0611
902.00,0.0611
901.00,0.0610
900.00,0.0610
899.00,0.0609
898.00,0.0609
897.00,0.0608
896.00,0.0607
895.00,0.0606
894.00,0.0605
893.00,0.0603
892.00,0.0601
891.00,0.0600
890.00,0.0598
889.00,0.0597
888.00,0.0597
887.00,0.0596
886.00,0.0595
885.00,0.0594
884.00,0.0593
883.00,0.0593
882.00,0.0592
881.00,0.0592
880.00,0.0592
879.00,0.0591
878.00,0.0590
877.00,0.0589
876.00,0.0588
875.00,0.0587
874.00,0.0587
873.00,0.0587
872.00,0.0587
871.00,0.0587
870.00,0.0588
869.00,0.0588
868.00,0.0587
867.00,0.0586
866.00,0.0585
865.00,0.0583
864.00,0.0582
863.00,0.0581
862.00,0.0580
861.00,0.0579
860.00,0.0578
859.00,0.0578
858.00,0.0577
857.00,0.0575
856.00,0.0574
855.00,0.0573
854.00,0.0573
853.00,0.0573
852.00,0.0572
851.00,0.0573
850.00,0.0577
849.00,0.0586
848.00,0.0609
847.00,0.0653
846.00,0.0711
845.00,0.0760
844.00,0.0774
843.00,0.0750
842.00,0.0704
841.00,0.0662
840.00,0.0633
839.00,0.0614
838.00,0.0601
837.00,0.0593
836.00,0.0589
835.00,0.0588
834.00,0.0588
833.00,0.0589
832.00,0.0591
831.00,0.0592
830.00,0.0593
829.00,0.0593
828.00,0.0593
827.00,0.0594
826.00,0.0598
825.00,0.0605
824.00,0.0616
823.00,0.0627
822.00,0.0636
821.00,0.0641
820.00,0.0641
819.00,0.0636
818.00,0.0628
817.00,0.0618
816.00,0.0607
815.00,0.0596
814.00,0.0586
813.00,0.0576
812.00,0.0568
811.00,0.0561
810.00,0.0553
809.00,0.0547
808.00,0.0541
807.00,0.0535
806.00,0.0530
805.00,0.0526
804.00,0.0523
803.00,0.0522
802.00,0.0526
801.00,0.0542
800.00,0.0580
799.00,0.0635
798.00,0.0690
797.00,0.0724
796.00,0.0737
795.00,0.0758
794.00,0.0824
793.00,0.0954
792.00,0.1138
791.00,0.1339
790.00,0.1515
789.00,0.1638
788.00,0.1705
787.00,0.1731
786.00,0.1736
785.00,0.1737
784.00,0.1743
783.00,0.1759
782.00,0.1792
781.00,0.1846
780.00,0.1920
779.00,0.2007
778.00,0.2094
777.00,0.2164
776.00,0.2205
775.00,0.2216
774.00,0.2204
773.00,0.2179
772.00,0.2146
771.00,0.2108
770.00,0.2067
769.00,0.2023
768.00,0.1975
767.00,0.1925
766.00,0.1873
765.00,0.1820
764.00,0.1766
763.00,0.1713
762.00,0.1662
761.00,0.1614
760.00,0.1568
759.00,0.1522
758.00,0.1476
757.00,0.1432
756.00,0.1393
755.00,0.1358
754.00,0.1330
753.00,0.1309
752.00,0.1293
751.00,0.1282
750.00,0.1273
749.00,0.1263
748.00,0.1247
747.00,0.1224
746.00,0.1195
745.00,0.1162
744.00,0.1131
743.00,0.1102
742.00,0.1076
741.00,0.1053
740.00,0.1032
739.00,0.1013
738.00,0.0997
737.00,0.0984
736.00,0.0974
735.00,0.0967
734.00,0.0964
733.00,0.0965
732.00,0.0967
731.00,0.0970
730.00,0.0971
729.00,0.0969
728.00,0.0962
727.00,0.0953
726.00,0.0940
725.00,0.0926
724.00,0.0912
723.00,0.0899
722.00,0.0886
721.00,0.0875
720.00,0.0866
719.00,0.0858
718.00,0.0851
717.00,0.0844
716.00,0.0836
715.00,0.0828
714.00,0.0820
713.00,0.0813
712.00,0.0807
711.00,0.0802
710.00,0.0798
709.00,0.0793
708.00,0.0789
707.00,0.0784
706.00,0.0780
705.00,0.0777
704.00,0.0774
703.00,0.0772
702.00,0.0771
701.00,0.0773
700.00,0.0776
699.00,0.0778
698.00,0.0777
697.00,0.0773
696.00,0.0768
695.00,0.0762
694.00,0.0759
693.00,0.0756
692.00,0.0753
691.00,0.0750
690.00,0.0747
689.00,0.0744
688.00,0.0743
687.00,0.0742
686.00,0.0740
685.00,0.0739
684.00,0.0737
683.00,0.0735
682.00,0.0732
681.00,0.0730
680.00,0.0727
679.00,0.0724
678.00,0.0722
677.00,0.0719
676.00,0.0718
675.00,0.0717
674.00,0.0716
673.00,0.0714
672.00,0.0713
671.00,0.0711
670.00,0.0710
669.00,0.0710
668.00,0.0712
667.00,0.0714
666.00,0.0712
665.00,0.0708
664.00,0.0705
663.00,0.0703
662.00,0.0702
661.00,0.0701
660.00,0.0701
659.00,0.0701
658.00,0.0700
657.00,0.0698
656.00,0.0697
655.00,0.0695
654.00,0.0693
653.00,0.0689
652.00,0.0686
651.00,0.0684
650.00,0.0682
649.00,0.0679
648.00,0.0677
647.00,0.0676
646.00,0.0674
645.00,0.0672
644.00,0.0670
643.00,0.0668
642.00,0.0667
641.00,0.0665
640.00,0.0663
639.00,0.0661
638.00,0.0659
637.00,0.0656
636.00,0.0653
635.00,0.0651
634.00,0.0649
633.00,0.0647
632.00,0.0644
631.00,0.0642
630.00,0.0639
629.00,0.0634
628.00,0.0627
627.00,0.0622
626.00,0.0617
625.00,0.0614
624.00,0.0611
623.00,0.0600
622.00,0.0585
621.00,0.0586
620.00,0.0640
619.00,0.0763
618.00,0.0921
617.00,0.1039
616.00,0.1064
615.00,0.1013
614.00,0.0938
613.00,0.0877
612.00,0.0832
611.00,0.0797
610.00,0.0770
609.00,0.0752
608.00,0.0741
607.00,0.0733
606.00,0.0726
605.00,0.0721
604.00,0.0717
603.00,0.0713
602.00,0.0710
601.00,0.0710
600.00,0.0709
599.00,0.0707
598.00,0.0704
597.00,0.0702
596.00,0.0700
595.00,0.0697
594.00,0.0695
593.00,0.0694
592.00,0.0694
591.00,0.0692
590.00,0.0691
589.00,0.0692
588.00,0.0692
587.00,0.0692
586.00,0.0692
585.00,0.0694
584.00,0.0696
583.00,0.0698
582.00,0.0700
581.00,0.0703
580.00,0.0706
579.00,0.0707
578.00,0.0707
577.00,0.0707
576.00,0.0707
575.00,0.0705
574.00,0.0703
573.00,0.0700
572.00,0.0698
571.00,0.0696
570.00,0.0694
569.00,0.0693
568.00,0.0691
567.00,0.0689
566.00,0.0688
565.00,0.0687
564.00,0.0687
563.00,0.0688
562.00,0.0689
561.00,0.0690
560.00,0.0690
559.00,0.0690
558.00,0.0689
557.00,0.0687
556.00,0.0685
555.00,0.0682
554.00,0.0680
553.00,0.0679
552.00,0.0677
551.00,0.0675
550.00,0.0674
549.00,0.0674
548.00,0.0673
547.00,0.0671
546.00,0.0669
545.00,0.0668
544.00,0.0668
543.00,0.0667
542.00,0.0666
541.00,0.0665
540.00,0.0663
539.00,0.0662
538.00,0.0662
537.00,0.0662
536.00,0.0663
535.00,0.0661
534.00,0.0658
533.00,0.0656
532.00,0.0654
531.00,0.0653
530.00,0.0653
529.00,0.0653
528.00,0.0653
527.00,0.0652
526.00,0.0651
525.00,0.0651
524.00,0.0651
523.00,0.0650
522.00,0.0649
521.00,0.0647
520.00,0.0646
519.00,0.0644
518.00,0.0644
517.00,0.0643
516.00,0.0642
515.00,0.0640
514.00,0.0639
513.00,0.0639
512.00,0.0639
511.00,0.0638
510.00,0.0636
509.00,0.0635
508.00,0.0635
507.00,0.0634
506.00,0.0635
505.00,0.0636
504.00,0.0637
503.00,0.0636
502.00,0.0632
501.00,0.0628
500.00,0.0623
499.00,0.0619
498.00,0.0617
497.00,0.0617
496.00,0.0616
495.00,0.0615
494.00,0.0615
493.00,0.0617
492.00,0.0622
491.00,0.0629
490.00,0.0643
489.00,0.0670
488.00,0.0719
487.00,0.0801
486.00,0.0927
485.00,0.1101
484.00,0.1315
483.00,0.1541
482.00,0.1740
481.00,0.1871
480.00,0.1913
479.00,0.1870
478.00,0.1769
477.00,0.1652
476.00,0.1561
475.00,0.1539
474.00,0.1615
473.00,0.1781
472.00,0.1948
471.00,0.2001
470.00,0.1905
469.00,0.1727
468.00,0.1542
467.00,0.1390
466.00,0.1281
465.00,0.1205
464.00,0.1150
463.00,0.1106
462.00,0.1066
461.00,0.1030
460.00,0.0999
459.00,0.0970
458.00,0.0942
457.00,0.0919
456.00,0.0904
455.00,0.0892
454.00,0.0881
453.00,0.0870
452.00,0.0861
451.00,0.0852
450.00,0.0842
449.00,0.0831
448.00,0.0821
447.00,0.0813
446.00,0.0805
445.00,0.0799
444.00,0.0794
443.00,0.0791
442.00,0.0786
441.00,0.0780
440.00,0.0773
439.00,0.0766
438.00,0.0762
437.00,0.0760
436.00,0.0760
435.00,0.0761
434.00,0.0761
433.00,0.0760
432.00,0.0758
431.00,0.0755
430.00,0.0754
429.00,0.0754
428.00,0.0754
427.00,0.0753
426.00,0.0750
425.00,0.0747
424.00,0.0745
423.00,0.0745
422.00,0.0744
421.00,0.0743
420.00,0.0741
419.00,0.0739
418.00,0.0736
417.00,0.0732
416.00,0.0724
415.00,0.0716
414.00,0.0713
413.00,0.0715
412.00,0.0717
411.00,0.0715
410.00,0.0709
409.00,0.0703
408.00,0.0697
407.00,0.0691
406.00,0.0687
405.00,0.0688
404.00,0.0693
403.00,0.0698
402.00,0.0699
401.00,0.0701
400.00,0.0709
