Created as New Dataset,Sample 1006 By YargerLab Date Thursday, July 31 2025
cm-1,A
4000.00,0.0040
3999.00,0.0040
3998.00,0.0040
3997.00,0.0040
3996.00,0.0040
3995.00,0.0040
3994.00,0.0040
3993.00,0.0040
3992.00,0.0040
3991.00,0.0040
3990.00,0.0040
3989.00,0.0040
3988.00,0.0040
3987.00,0.0040
3986.00,0.0040
3985.00,0.0040
3984.00,0.0040
3983.00,0.0040
3982.00,0.0040
3981.00,0.0040
3980.00,0.0040
3979.00,0.0040
3978.00,0.0040
3977.00,0.0040
3976.00,0.0040
3975.00,0.0040
3974.00,0.0039
3973.00,0.0039
3972.00,0.0039
3971.00,0.0039
3970.00,0.0039
3969.00,0.0040
3968.00,0.0040
3967.00,0.0040
3966.00,0.0040
3965.00,0.0040
3964.00,0.0040
3963.00,0.0040
3962.00,0.0039
3961.00,0.0039
3960.00,0.0039
3959.00,0.0039
3958.00,0.0040
3957.00,0.0040
3956.00,0.0040
3955.00,0.0040
3954.00,0.0040
3953.00,0.0040
3952.00,0.0040
3951.00,0.0039
3950.00,0.0039
3949.00,0.0039
3948.00,0.0040
3947.00,0.0040
3946.00,0.0040
3945.00,0.0039
3944.00,0.0039
3943.00,0.0039
3942.00,0.0039
3941.00,0.0039
3940.00,0.0039
3939.00,0.0039
3938.00,0.0039
3937.00,0.0039
3936.00,0.0039
3935.00,0.0039
3934.00,0.0039
3933.00,0.0039
3932.00,0.0039
3931.00,0.0039
3930.00,0.0039
3929.00,0.0039
3928.00,0.0039
3927.00,0.0039
3926.00,0.0039
3925.00,0.0040
3924.00,0.0040
3923.00,0.0039
3922.00,0.0039
3921.00,0.0039
3920.00,0.0039
3919.00,0.0039
3918.00,0.0038
3917.00,0.0038
3916.00,0.0038
3915.00,0.0038
3914.00,0.0039
3913.00,0.0039
3912.00,0.0039
3911.00,0.0039
3910.00,0.0039
3909.00,0.0039
3908.00,0.0039
3907.00,0.0039
3906.00,0.0038
3905.00,0.0038
3904.00,0.0038
3903.00,0.0038
3902.00,0.0038
3901.00,0.0038
3900.00,0.0038
3899.00,0.0038
3898.00,0.0038
3897.00,0.0039
3896.00,0.0039
3895.00,0.0039
3894.00,0.0039
3893.00,0.0039
3892.00,0.0039
3891.00,0.0039
3890.00,0.0039
3889.00,0.0039
3888.00,0.0038
3887.00,0.0038
3886.00,0.0039
3885.00,0.0039
3884.00,0.0039
3883.00,0.0038
3882.00,0.0038
3881.00,0.0038
3880.00,0.0039
3879.00,0.0039
3878.00,0.0039
3877.00,0.0039
3876.00,0.0039
3875.00,0.0039
3874.00,0.0039
3873.00,0.0038
3872.00,0.0038
3871.00,0.0038
3870.00,0.0038
3869.00,0.0038
3868.00,0.0038
3867.00,0.0038
3866.00,0.0037
3865.00,0.0038
3864.00,0.0038
3863.00,0.0038
3862.00,0.0038
3861.00,0.0038
3860.00,0.0038
3859.00,0.0038
3858.00,0.0038
3857.00,0.0038
3856.00,0.0038
3855.00,0.0038
3854.00,0.0038
3853.00,0.0037
3852.00,0.0037
3851.00,0.0037
3850.00,0.0038
3849.00,0.0038
3848.00,0.0039
3847.00,0.0039
3846.00,0.0039
3845.00,0.0039
3844.00,0.0039
3843.00,0.0039
3842.00,0.0039
3841.00,0.0039
3840.00,0.0039
3839.00,0.0039
3838.00,0.0038
3837.00,0.0038
3836.00,0.0038
3835.00,0.0038
3834.00,0.0038
3833.00,0.0038
3832.00,0.0038
3831.00,0.0039
3830.00,0.0039
3829.00,0.0039
3828.00,0.0039
3827.00,0.0039
3826.00,0.0040
3825.00,0.0039
3824.00,0.0039
3823.00,0.0039
3822.00,0.0039
3821.00,0.0039
3820.00,0.0039
3819.00,0.0038
3818.00,0.0038
3817.00,0.0038
3816.00,0.0038
3815.00,0.0039
3814.00,0.0039
3813.00,0.0039
3812.00,0.0039
3811.00,0.0039
3810.00,0.0039
3809.00,0.0039
3808.00,0.0039
3807.00,0.0039
3806.00,0.0039
3805.00,0.0039
3804.00,0.0038
3803.00,0.0038
3802.00,0.0038
3801.00,0.0039
3800.00,0.0038
3799.00,0.0038
3798.00,0.0038
3797.00,0.0038
3796.00,0.0039
3795.00,0.0039
3794.00,0.0039
3793.00,0.0040
3792.00,0.0040
3791.00,0.0040
3790.00,0.0040
3789.00,0.0040
3788.00,0.0040
3787.00,0.0040
3786.00,0.0040
3785.00,0.0040
3784.00,0.0040
3783.00,0.0040
3782.00,0.0040
3781.00,0.0040
3780.00,0.0040
3779.00,0.0040
3778.00,0.0040
3777.00,0.0040
3776.00,0.0040
3775.00,0.0040
3774.00,0.0040
3773.00,0.0040
3772.00,0.0039
3771.00,0.0039
3770.00,0.0039
3769.00,0.0039
3768.00,0.0039
3767.00,0.0039
3766.00,0.0039
3765.00,0.0039
3764.00,0.0039
3763.00,0.0039
3762.00,0.0039
3761.00,0.0039
3760.00,0.0039
3759.00,0.0040
3758.00,0.0040
3757.00,0.0040
3756.00,0.0039
3755.00,0.0039
3754.00,0.0039
3753.00,0.0039
3752.00,0.0038
3751.00,0.0038
3750.00,0.0038
3749.00,0.0038
3748.00,0.0038
3747.00,0.0037
3746.00,0.0037
3745.00,0.0037
3744.00,0.0038
3743.00,0.0038
3742.00,0.0038
3741.00,0.0038
3740.00,0.0038
3739.00,0.0038
3738.00,0.0038
3737.00,0.0038
3736.00,0.0038
3735.00,0.0038
3734.00,0.0038
3733.00,0.0038
3732.00,0.0038
3731.00,0.0038
3730.00,0.0038
3729.00,0.0039
3728.00,0.0039
3727.00,0.0039
3726.00,0.0039
3725.00,0.0038
3724.00,0.0038
3723.00,0.0038
3722.00,0.0039
3721.00,0.0039
3720.00,0.0039
3719.00,0.0039
3718.00,0.0039
3717.00,0.0039
3716.00,0.0040
3715.00,0.0040
3714.00,0.0039
3713.00,0.0039
3712.00,0.0039
3711.00,0.0039
3710.00,0.0039
3709.00,0.0038
3708.00,0.0038
3707.00,0.0038
3706.00,0.0038
3705.00,0.0039
3704.00,0.0039
3703.00,0.0039
3702.00,0.0039
3701.00,0.0039
3700.00,0.0039
3699.00,0.0039
3698.00,0.0040
3697.00,0.0040
3696.00,0.0040
3695.00,0.0040
3694.00,0.0040
3693.00,0.0040
3692.00,0.0040
3691.00,0.0039
3690.00,0.0039
3689.00,0.0040
3688.00,0.0040
3687.00,0.0040
3686.00,0.0041
3685.00,0.0041
3684.00,0.0042
3683.00,0.0043
3682.00,0.0043
3681.00,0.0043
3680.00,0.0044
3679.00,0.0044
3678.00,0.0044
3677.00,0.0044
3676.00,0.0044
3675.00,0.0044
3674.00,0.0043
3673.00,0.0043
3672.00,0.0043
3671.00,0.0043
3670.00,0.0044
3669.00,0.0044
3668.00,0.0045
3667.00,0.0045
3666.00,0.0045
3665.00,0.0046
3664.00,0.0047
3663.00,0.0048
3662.00,0.0048
3661.00,0.0049
3660.00,0.0049
3659.00,0.0049
3658.00,0.0048
3657.00,0.0049
3656.00,0.0049
3655.00,0.0050
3654.00,0.0050
3653.00,0.0050
3652.00,0.0051
3651.00,0.0051
3650.00,0.0052
3649.00,0.0051
3648.00,0.0051
3647.00,0.0051
3646.00,0.0052
3645.00,0.0053
3644.00,0.0054
3643.00,0.0055
3642.00,0.0056
3641.00,0.0057
3640.00,0.0057
3639.00,0.0058
3638.00,0.0058
3637.00,0.0059
3636.00,0.0059
3635.00,0.0060
3634.00,0.0060
3633.00,0.0061
3632.00,0.0061
3631.00,0.0061
3630.00,0.0061
3629.00,0.0062
3628.00,0.0062
3627.00,0.0062
3626.00,0.0063
3625.00,0.0065
3624.00,0.0066
3623.00,0.0067
3622.00,0.0067
3621.00,0.0067
3620.00,0.0068
3619.00,0.0068
3618.00,0.0068
3617.00,0.0069
3616.00,0.0069
3615.00,0.0070
3614.00,0.0071
3613.00,0.0072
3612.00,0.0073
3611.00,0.0073
3610.00,0.0074
3609.00,0.0075
3608.00,0.0075
3607.00,0.0076
3606.00,0.0077
3605.00,0.0078
3604.00,0.0079
3603.00,0.0080
3602.00,0.0081
3601.00,0.0082
3600.00,0.0083
3599.00,0.0084
3598.00,0.0085
3597.00,0.0085
3596.00,0.0086
3595.00,0.0087
3594.00,0.0088
3593.00,0.0089
3592.00,0.0090
3591.00,0.0091
3590.00,0.0091
3589.00,0.0092
3588.00,0.0093
3587.00,0.0094
3586.00,0.0094
3585.00,0.0095
3584.00,0.0096
3583.00,0.0098
3582.00,0.0099
3581.00,0.0101
3580.00,0.0102
3579.00,0.0103
3578.00,0.0104
3577.00,0.0105
3576.00,0.0106
3575.00,0.0107
3574.00,0.0108
3573.00,0.0109
3572.00,0.0110
3571.00,0.0111
3570.00,0.0112
3569.00,0.0113
3568.00,0.0114
3567.00,0.0115
3566.00,0.0115
3565.00,0.0116
3564.00,0.0117
3563.00,0.0119
3562.00,0.0120
3561.00,0.0122
3560.00,0.0123
3559.00,0.0125
3558.00,0.0126
3557.00,0.0127
3556.00,0.0128
3555.00,0.0129
3554.00,0.0130
3553.00,0.0131
3552.00,0.0132
3551.00,0.0133
3550.00,0.0134
3549.00,0.0135
3548.00,0.0136
3547.00,0.0137
3546.00,0.0138
3545.00,0.0138
3544.00,0.0139
3543.00,0.0140
3542.00,0.0141
3541.00,0.0142
3540.00,0.0144
3539.00,0.0145
3538.00,0.0146
3537.00,0.0146
3536.00,0.0147
3535.00,0.0147
3534.00,0.0148
3533.00,0.0149
3532.00,0.0150
3531.00,0.0151
3530.00,0.0151
3529.00,0.0152
3528.00,0.0152
3527.00,0.0153
3526.00,0.0153
3525.00,0.0154
3524.00,0.0154
3523.00,0.0155
3522.00,0.0156
3521.00,0.0157
3520.00,0.0158
3519.00,0.0158
3518.00,0.0159
3517.00,0.0159
3516.00,0.0160
3515.00,0.0161
3514.00,0.0162
3513.00,0.0163
3512.00,0.0163
3511.00,0.0164
3510.00,0.0164
3509.00,0.0165
3508.00,0.0165
3507.00,0.0165
3506.00,0.0166
3505.00,0.0167
3504.00,0.0167
3503.00,0.0168
3502.00,0.0168
3501.00,0.0168
3500.00,0.0169
3499.00,0.0170
3498.00,0.0171
3497.00,0.0171
3496.00,0.0172
3495.00,0.0172
3494.00,0.0173
3493.00,0.0173
3492.00,0.0174
3491.00,0.0174
3490.00,0.0175
3489.00,0.0176
3488.00,0.0176
3487.00,0.0177
3486.00,0.0177
3485.00,0.0178
3484.00,0.0178
3483.00,0.0179
3482.00,0.0179
3481.00,0.0180
3480.00,0.0181
3479.00,0.0181
3478.00,0.0182
3477.00,0.0182
3476.00,0.0182
3475.00,0.0183
3474.00,0.0183
3473.00,0.0183
3472.00,0.0184
3471.00,0.0184
3470.00,0.0184
3469.00,0.0185
3468.00,0.0185
3467.00,0.0186
3466.00,0.0186
3465.00,0.0186
3464.00,0.0187
3463.00,0.0187
3462.00,0.0188
3461.00,0.0188
3460.00,0.0188
3459.00,0.0188
3458.00,0.0189
3457.00,0.0189
3456.00,0.0189
3455.00,0.0190
3454.00,0.0190
3453.00,0.0190
3452.00,0.0190
3451.00,0.0191
3450.00,0.0191
3449.00,0.0191
3448.00,0.0191
3447.00,0.0191
3446.00,0.0191
3445.00,0.0191
3444.00,0.0192
3443.00,0.0192
3442.00,0.0192
3441.00,0.0192
3440.00,0.0192
3439.00,0.0193
3438.00,0.0193
3437.00,0.0194
3436.00,0.0194
3435.00,0.0194
3434.00,0.0194
3433.00,0.0194
3432.00,0.0194
3431.00,0.0194
3430.00,0.0194
3429.00,0.0194
3428.00,0.0194
3427.00,0.0194
3426.00,0.0194
3425.00,0.0194
3424.00,0.0194
3423.00,0.0194
3422.00,0.0194
3421.00,0.0193
3420.00,0.0193
3419.00,0.0193
3418.00,0.0193
3417.00,0.0193
3416.00,0.0193
3415.00,0.0194
3414.00,0.0194
3413.00,0.0193
3412.00,0.0193
3411.00,0.0193
3410.00,0.0193
3409.00,0.0193
3408.00,0.0192
3407.00,0.0192
3406.00,0.0192
3405.00,0.0192
3404.00,0.0192
3403.00,0.0192
3402.00,0.0192
3401.00,0.0192
3400.00,0.0191
3399.00,0.0191
3398.00,0.0190
3397.00,0.0190
3396.00,0.0190
3395.00,0.0190
3394.00,0.0190
3393.00,0.0189
3392.00,0.0189
3391.00,0.0189
3390.00,0.0188
3389.00,0.0188
3388.00,0.0188
3387.00,0.0188
3386.00,0.0188
3385.00,0.0187
3384.00,0.0187
3383.00,0.0187
3382.00,0.0186
3381.00,0.0186
3380.00,0.0186
3379.00,0.0186
3378.00,0.0185
3377.00,0.0185
3376.00,0.0185
3375.00,0.0184
3374.00,0.0184
3373.00,0.0184
3372.00,0.0183
3371.00,0.0182
3370.00,0.0182
3369.00,0.0181
3368.00,0.0181
3367.00,0.0181
3366.00,0.0181
3365.00,0.0181
3364.00,0.0181
3363.00,0.0181
3362.00,0.0180
3361.00,0.0180
3360.00,0.0180
3359.00,0.0180
3358.00,0.0180
3357.00,0.0180
3356.00,0.0180
3355.00,0.0179
3354.00,0.0178
3353.00,0.0177
3352.00,0.0177
3351.00,0.0176
3350.00,0.0176
3349.00,0.0176
3348.00,0.0177
3347.00,0.0177
3346.00,0.0177
3345.00,0.0176
3344.00,0.0175
3343.00,0.0175
3342.00,0.0174
3341.00,0.0174
3340.00,0.0174
3339.00,0.0173
3338.00,0.0173
3337.00,0.0173
3336.00,0.0173
3335.00,0.0173
3334.00,0.0173
3333.00,0.0173
3332.00,0.0173
3331.00,0.0173
3330.00,0.0173
3329.00,0.0172
3328.00,0.0172
3327.00,0.0171
3326.00,0.0170
3325.00,0.0170
3324.00,0.0170
3323.00,0.0170
3322.00,0.0171
3321.00,0.0171
3320.00,0.0171
3319.00,0.0170
3318.00,0.0170
3317.00,0.0169
3316.00,0.0169
3315.00,0.0169
3314.00,0.0169
3313.00,0.0169
3312.00,0.0169
3311.00,0.0168
3310.00,0.0167
3309.00,0.0166
3308.00,0.0165
3307.00,0.0165
3306.00,0.0165
3305.00,0.0166
3304.00,0.0166
3303.00,0.0167
3302.00,0.0168
3301.00,0.0168
3300.00,0.0168
3299.00,0.0167
3298.00,0.0167
3297.00,0.0166
3296.00,0.0165
3295.00,0.0165
3294.00,0.0165
3293.00,0.0165
3292.00,0.0165
3291.00,0.0166
3290.00,0.0166
3289.00,0.0167
3288.00,0.0167
3287.00,0.0167
3286.00,0.0167
3285.00,0.0167
3284.00,0.0166
3283.00,0.0166
3282.00,0.0166
3281.00,0.0166
3280.00,0.0165
3279.00,0.0165
3278.00,0.0165
3277.00,0.0165
3276.00,0.0164
3275.00,0.0163
3274.00,0.0163
3273.00,0.0162
3272.00,0.0162
3271.00,0.0162
3270.00,0.0162
3269.00,0.0162
3268.00,0.0162
3267.00,0.0162
3266.00,0.0161
3265.00,0.0161
3264.00,0.0161
3263.00,0.0161
3262.00,0.0161
3261.00,0.0161
3260.00,0.0160
3259.00,0.0160
3258.00,0.0160
3257.00,0.0159
3256.00,0.0159
3255.00,0.0158
3254.00,0.0158
3253.00,0.0158
3252.00,0.0158
3251.00,0.0157
3250.00,0.0157
3249.00,0.0157
3248.00,0.0156
3247.00,0.0156
3246.00,0.0156
3245.00,0.0156
3244.00,0.0156
3243.00,0.0156
3242.00,0.0156
3241.00,0.0155
3240.00,0.0155
3239.00,0.0155
3238.00,0.0154
3237.00,0.0154
3236.00,0.0153
3235.00,0.0153
3234.00,0.0152
3233.00,0.0152
3232.00,0.0152
3231.00,0.0152
3230.00,0.0152
3229.00,0.0152
3228.00,0.0152
3227.00,0.0151
3226.00,0.0151
3225.00,0.0151
3224.00,0.0150
3223.00,0.0150
3222.00,0.0150
3221.00,0.0150
3220.00,0.0149
3219.00,0.0148
3218.00,0.0148
3217.00,0.0148
3216.00,0.0147
3215.00,0.0147
3214.00,0.0147
3213.00,0.0146
3212.00,0.0146
3211.00,0.0146
3210.00,0.0146
3209.00,0.0145
3208.00,0.0145
3207.00,0.0144
3206.00,0.0144
3205.00,0.0143
3204.00,0.0143
3203.00,0.0143
3202.00,0.0142
3201.00,0.0142
3200.00,0.0142
3199.00,0.0142
3198.00,0.0141
3197.00,0.0141
3196.00,0.0141
3195.00,0.0140
3194.00,0.0140
3193.00,0.0140
3192.00,0.0139
3191.00,0.0139
3190.00,0.0138
3189.00,0.0138
3188.00,0.0138
3187.00,0.0138
3186.00,0.0138
3185.00,0.0137
3184.00,0.0137
3183.00,0.0137
3182.00,0.0137
3181.00,0.0136
3180.00,0.0136
3179.00,0.0136
3178.00,0.0135
3177.00,0.0135
3176.00,0.0135
3175.00,0.0135
3174.00,0.0134
3173.00,0.0134
3172.00,0.0134
3171.00,0.0134
3170.00,0.0134
3169.00,0.0133
3168.00,0.0133
3167.00,0.0133
3166.00,0.0132
3165.00,0.0132
3164.00,0.0132
3163.00,0.0132
3162.00,0.0131
3161.00,0.0131
3160.00,0.0131
3159.00,0.0131
3158.00,0.0130
3157.00,0.0130
3156.00,0.0130
3155.00,0.0129
3154.00,0.0129
3153.00,0.0129
3152.00,0.0128
3151.00,0.0128
3150.00,0.0128
3149.00,0.0128
3148.00,0.0127
3147.00,0.0127
3146.00,0.0127
3145.00,0.0126
3144.00,0.0126
3143.00,0.0126
3142.00,0.0126
3141.00,0.0125
3140.00,0.0125
3139.00,0.0125
3138.00,0.0125
3137.00,0.0124
3136.00,0.0124
3135.00,0.0124
3134.00,0.0124
3133.00,0.0123
3132.00,0.0123
3131.00,0.0123
3130.00,0.0122
3129.00,0.0122
3128.00,0.0122
3127.00,0.0122
3126.00,0.0122
3125.00,0.0122
3124.00,0.0121
3123.00,0.0121
3122.00,0.0121
3121.00,0.0121
3120.00,0.0121
3119.00,0.0121
3118.00,0.0121
3117.00,0.0120
3116.00,0.0120
3115.00,0.0120
3114.00,0.0120
3113.00,0.0120
3112.00,0.0119
3111.00,0.0119
3110.00,0.0118
3109.00,0.0118
3108.00,0.0118
3107.00,0.0118
3106.00,0.0118
3105.00,0.0117
3104.00,0.0117
3103.00,0.0116
3102.00,0.0116
3101.00,0.0116
3100.00,0.0116
3099.00,0.0115
3098.00,0.0115
3097.00,0.0115
3096.00,0.0115
3095.00,0.0115
3094.00,0.0115
3093.00,0.0115
3092.00,0.0115
3091.00,0.0115
3090.00,0.0114
3089.00,0.0114
3088.00,0.0114
3087.00,0.0115
3086.00,0.0115
3085.00,0.0115
3084.00,0.0115
3083.00,0.0115
3082.00,0.0115
3081.00,0.0115
3080.00,0.0115
3079.00,0.0114
3078.00,0.0114
3077.00,0.0114
3076.00,0.0114
3075.00,0.0114
3074.00,0.0114
3073.00,0.0113
3072.00,0.0113
3071.00,0.0113
3070.00,0.0113
3069.00,0.0112
3068.00,0.0112
3067.00,0.0111
3066.00,0.0111
3065.00,0.0111
3064.00,0.0111
3063.00,0.0110
3062.00,0.0110
3061.00,0.0110
3060.00,0.0110
3059.00,0.0109
3058.00,0.0109
3057.00,0.0109
3056.00,0.0109
3055.00,0.0108
3054.00,0.0108
3053.00,0.0108
3052.00,0.0108
3051.00,0.0108
3050.00,0.0108
3049.00,0.0107
3048.00,0.0107
3047.00,0.0107
3046.00,0.0107
3045.00,0.0107
3044.00,0.0107
3043.00,0.0107
3042.00,0.0107
3041.00,0.0106
3040.00,0.0106
3039.00,0.0106
3038.00,0.0106
3037.00,0.0106
3036.00,0.0106
3035.00,0.0106
3034.00,0.0106
3033.00,0.0106
3032.00,0.0105
3031.00,0.0105
3030.00,0.0105
3029.00,0.0105
3028.00,0.0105
3027.00,0.0105
3026.00,0.0105
3025.00,0.0104
3024.00,0.0104
3023.00,0.0104
3022.00,0.0104
3021.00,0.0104
3020.00,0.0105
3019.00,0.0105
3018.00,0.0105
3017.00,0.0106
3016.00,0.0106
3015.00,0.0106
3014.00,0.0107
3013.00,0.0107
3012.00,0.0108
3011.00,0.0109
3010.00,0.0110
3009.00,0.0112
3008.00,0.0113
3007.00,0.0115
3006.00,0.0116
3005.00,0.0118
3004.00,0.0120
3003.00,0.0123
3002.00,0.0125
3001.00,0.0128
3000.00,0.0131
2999.00,0.0134
2998.00,0.0137
2997.00,0.0141
2996.00,0.0145
2995.00,0.0149
2994.00,0.0153
2993.00,0.0157
2992.00,0.0162
2991.00,0.0166
2990.00,0.0171
2989.00,0.0175
2988.00,0.0180
2987.00,0.0184
2986.00,0.0188
2985.00,0.0192
2984.00,0.0196
2983.00,0.0200
2982.00,0.0203
2981.00,0.0207
2980.00,0.0210
2979.00,0.0214
2978.00,0.0217
2977.00,0.0220
2976.00,0.0222
2975.00,0.0225
2974.00,0.0227
2973.00,0.0229
2972.00,0.0232
2971.00,0.0234
2970.00,0.0237
2969.00,0.0240
2968.00,0.0243
2967.00,0.0246
2966.00,0.0249
2965.00,0.0252
2964.00,0.0255
2963.00,0.0257
2962.00,0.0260
2961.00,0.0263
2960.00,0.0265
2959.00,0.0268
2958.00,0.0270
2957.00,0.0272
2956.00,0.0274
2955.00,0.0275
2954.00,0.0276
2953.00,0.0276
2952.00,0.0276
2951.00,0.0276
2950.00,0.0276
2949.00,0.0275
2948.00,0.0274
2947.00,0.0273
2946.00,0.0272
2945.00,0.0272
2944.00,0.0271
2943.00,0.0271
2942.00,0.0271
2941.00,0.0272
2940.00,0.0272
2939.00,0.0273
2938.00,0.0274
2937.00,0.0276
2936.00,0.0278
2935.00,0.0280
2934.00,0.0283
2933.00,0.0285
2932.00,0.0287
2931.00,0.0289
2930.00,0.0290
2929.00,0.0292
2928.00,0.0293
2927.00,0.0295
2926.00,0.0295
2925.00,0.0295
2924.00,0.0295
2923.00,0.0294
2922.00,0.0292
2921.00,0.0290
2920.00,0.0288
2919.00,0.0285
2918.00,0.0281
2917.00,0.0278
2916.00,0.0274
2915.00,0.0270
2914.00,0.0266
2913.00,0.0262
2912.00,0.0258
2911.00,0.0253
2910.00,0.0249
2909.00,0.0245
2908.00,0.0242
2907.00,0.0238
2906.00,0.0235
2905.00,0.0233
2904.00,0.0231
2903.00,0.0229
2902.00,0.0227
2901.00,0.0226
2900.00,0.0225
2899.00,0.0224
2898.00,0.0223
2897.00,0.0223
2896.00,0.0223
2895.00,0.0223
2894.00,0.0223
2893.00,0.0222
2892.00,0.0222
2891.00,0.0222
2890.00,0.0221
2889.00,0.0221
2888.00,0.0220
2887.00,0.0220
2886.00,0.0220
2885.00,0.0219
2884.00,0.0219
2883.00,0.0219
2882.00,0.0220
2881.00,0.0220
2880.00,0.0221
2879.00,0.0221
2878.00,0.0222
2877.00,0.0222
2876.00,0.0223
2875.00,0.0224
2874.00,0.0224
2873.00,0.0225
2872.00,0.0226
2871.00,0.0226
2870.00,0.0226
2869.00,0.0226
2868.00,0.0225
2867.00,0.0225
2866.00,0.0224
2865.00,0.0223
2864.00,0.0223
2863.00,0.0222
2862.00,0.0222
2861.00,0.0222
2860.00,0.0222
2859.00,0.0221
2858.00,0.0220
2857.00,0.0219
2856.00,0.0216
2855.00,0.0213
2854.00,0.0210
2853.00,0.0206
2852.00,0.0201
2851.00,0.0197
2850.00,0.0191
2849.00,0.0186
2848.00,0.0181
2847.00,0.0177
2846.00,0.0172
2845.00,0.0168
2844.00,0.0164
2843.00,0.0160
2842.00,0.0156
2841.00,0.0152
2840.00,0.0148
2839.00,0.0144
2838.00,0.0141
2837.00,0.0138
2836.00,0.0136
2835.00,0.0133
2834.00,0.0131
2833.00,0.0129
2832.00,0.0127
2831.00,0.0125
2830.00,0.0123
2829.00,0.0120
2828.00,0.0118
2827.00,0.0116
2826.00,0.0114
2825.00,0.0113
2824.00,0.0111
2823.00,0.0110
2822.00,0.0108
2821.00,0.0107
2820.00,0.0106
2819.00,0.0104
2818.00,0.0103
2817.00,0.0102
2816.00,0.0100
2815.00,0.0099
2814.00,0.0099
2813.00,0.0098
2812.00,0.0097
2811.00,0.0096
2810.00,0.0096
2809.00,0.0095
2808.00,0.0095
2807.00,0.0094
2806.00,0.0094
2805.00,0.0093
2804.00,0.0093
2803.00,0.0092
2802.00,0.0092
2801.00,0.0092
2800.00,0.0091
2799.00,0.0090
2798.00,0.0090
2797.00,0.0089
2796.00,0.0089
2795.00,0.0089
2794.00,0.0088
2793.00,0.0088
2792.00,0.0088
2791.00,0.0087
2790.00,0.0087
2789.00,0.0087
2788.00,0.0087
2787.00,0.0086
2786.00,0.0086
2785.00,0.0086
2784.00,0.0086
2783.00,0.0085
2782.00,0.0085
2781.00,0.0084
2780.00,0.0084
2779.00,0.0084
2778.00,0.0084
2777.00,0.0083
2776.00,0.0083
2775.00,0.0083
2774.00,0.0082
2773.00,0.0082
2772.00,0.0082
2771.00,0.0082
2770.00,0.0082
2769.00,0.0081
2768.00,0.0081
2767.00,0.0081
2766.00,0.0081
2765.00,0.0081
2764.00,0.0081
2763.00,0.0081
2762.00,0.0080
2761.00,0.0081
2760.00,0.0081
2759.00,0.0081
2758.00,0.0081
2757.00,0.0081
2756.00,0.0081
2755.00,0.0081
2754.00,0.0081
2753.00,0.0081
2752.00,0.0081
2751.00,0.0081
2750.00,0.0081
2749.00,0.0081
2748.00,0.0081
2747.00,0.0081
2746.00,0.0081
2745.00,0.0081
2744.00,0.0081
2743.00,0.0081
2742.00,0.0081
2741.00,0.0081
2740.00,0.0081
2739.00,0.0081
2738.00,0.0082
2737.00,0.0082
2736.00,0.0082
2735.00,0.0082
2734.00,0.0082
2733.00,0.0082
2732.00,0.0082
2731.00,0.0081
2730.00,0.0081
2729.00,0.0081
2728.00,0.0081
2727.00,0.0081
2726.00,0.0081
2725.00,0.0081
2724.00,0.0080
2723.00,0.0080
2722.00,0.0080
2721.00,0.0080
2720.00,0.0080
2719.00,0.0080
2718.00,0.0080
2717.00,0.0080
2716.00,0.0080
2715.00,0.0080
2714.00,0.0079
2713.00,0.0079
2712.00,0.0079
2711.00,0.0079
2710.00,0.0079
2709.00,0.0078
2708.00,0.0078
2707.00,0.0078
2706.00,0.0078
2705.00,0.0078
2704.00,0.0077
2703.00,0.0077
2702.00,0.0077
2701.00,0.0077
2700.00,0.0077
2699.00,0.0076
2698.00,0.0076
2697.00,0.0076
2696.00,0.0076
2695.00,0.0076
2694.00,0.0076
2693.00,0.0075
2692.00,0.0075
2691.00,0.0075
2690.00,0.0075
2689.00,0.0075
2688.00,0.0075
2687.00,0.0074
2686.00,0.0074
2685.00,0.0074
2684.00,0.0074
2683.00,0.0074
2682.00,0.0074
2681.00,0.0074
2680.00,0.0074
2679.00,0.0073
2678.00,0.0073
2677.00,0.0073
2676.00,0.0073
2675.00,0.0073
2674.00,0.0073
2673.00,0.0073
2672.00,0.0073
2671.00,0.0073
2670.00,0.0073
2669.00,0.0074
2668.00,0.0074
2667.00,0.0074
2666.00,0.0074
2665.00,0.0074
2664.00,0.0075
2663.00,0.0075
2662.00,0.0076
2661.00,0.0076
2660.00,0.0076
2659.00,0.0076
2658.00,0.0076
2657.00,0.0076
2656.00,0.0076
2655.00,0.0076
2654.00,0.0076
2653.00,0.0076
2652.00,0.0076
2651.00,0.0076
2650.00,0.0076
2649.00,0.0076
2648.00,0.0076
2647.00,0.0076
2646.00,0.0076
2645.00,0.0075
2644.00,0.0075
2643.00,0.0075
2642.00,0.0075
2641.00,0.0075
2640.00,0.0074
2639.00,0.0074
2638.00,0.0074
2637.00,0.0074
2636.00,0.0074
2635.00,0.0074
2634.00,0.0074
2633.00,0.0074
2632.00,0.0074
2631.00,0.0074
2630.00,0.0074
2629.00,0.0074
2628.00,0.0073
2627.00,0.0073
2626.00,0.0073
2625.00,0.0073
2624.00,0.0073
2623.00,0.0073
2622.00,0.0073
2621.00,0.0073
2620.00,0.0073
2619.00,0.0073
2618.00,0.0072
2617.00,0.0072
2616.00,0.0072
2615.00,0.0071
2614.00,0.0071
2613.00,0.0071
2612.00,0.0071
2611.00,0.0071
2610.00,0.0071
2609.00,0.0070
2608.00,0.0070
2607.00,0.0070
2606.00,0.0070
2605.00,0.0070
2604.00,0.0070
2603.00,0.0069
2602.00,0.0069
2601.00,0.0069
2600.00,0.0069
2599.00,0.0069
2598.00,0.0069
2597.00,0.0068
2596.00,0.0068
2595.00,0.0068
2594.00,0.0068
2593.00,0.0068
2592.00,0.0068
2591.00,0.0068
2590.00,0.0068
2589.00,0.0068
2588.00,0.0068
2587.00,0.0067
2586.00,0.0067
2585.00,0.0067
2584.00,0.0067
2583.00,0.0067
2582.00,0.0067
2581.00,0.0067
2580.00,0.0067
2579.00,0.0067
2578.00,0.0067
2577.00,0.0067
2576.00,0.0067
2575.00,0.0067
2574.00,0.0066
2573.00,0.0066
2572.00,0.0066
2571.00,0.0066
2570.00,0.0066
2569.00,0.0066
2568.00,0.0066
2567.00,0.0066
2566.00,0.0066
2565.00,0.0066
2564.00,0.0066
2563.00,0.0065
2562.00,0.0065
2561.00,0.0065
2560.00,0.0065
2559.00,0.0064
2558.00,0.0064
2557.00,0.0063
2556.00,0.0063
2555.00,0.0063
2554.00,0.0063
2553.00,0.0063
2552.00,0.0064
2551.00,0.0064
2550.00,0.0064
2549.00,0.0063
2548.00,0.0063
2547.00,0.0062
2546.00,0.0062
2545.00,0.0062
2544.00,0.0062
2543.00,0.0062
2542.00,0.0062
2541.00,0.0062
2540.00,0.0062
2539.00,0.0062
2538.00,0.0061
2537.00,0.0061
2536.00,0.0060
2535.00,0.0060
2534.00,0.0060
2533.00,0.0060
2532.00,0.0060
2531.00,0.0060
2530.00,0.0060
2529.00,0.0060
2528.00,0.0060
2527.00,0.0060
2526.00,0.0059
2525.00,0.0059
2524.00,0.0059
2523.00,0.0058
2522.00,0.0058
2521.00,0.0058
2520.00,0.0057
2519.00,0.0057
2518.00,0.0057
2517.00,0.0058
2516.00,0.0058
2515.00,0.0058
2514.00,0.0058
2513.00,0.0058
2512.00,0.0057
2511.00,0.0057
2510.00,0.0057
2509.00,0.0057
2508.00,0.0057
2507.00,0.0057
2506.00,0.0057
2505.00,0.0057
2504.00,0.0057
2503.00,0.0056
2502.00,0.0056
2501.00,0.0056
2500.00,0.0056
2499.00,0.0057
2498.00,0.0057
2497.00,0.0056
2496.00,0.0056
2495.00,0.0056
2494.00,0.0056
2493.00,0.0056
2492.00,0.0056
2491.00,0.0056
2490.00,0.0056
2489.00,0.0056
2488.00,0.0056
2487.00,0.0056
2486.00,0.0056
2485.00,0.0055
2484.00,0.0055
2483.00,0.0055
2482.00,0.0055
2481.00,0.0055
2480.00,0.0055
2479.00,0.0055
2478.00,0.0055
2477.00,0.0055
2476.00,0.0055
2475.00,0.0055
2474.00,0.0055
2473.00,0.0055
2472.00,0.0055
2471.00,0.0054
2470.00,0.0054
2469.00,0.0055
2468.00,0.0055
2467.00,0.0055
2466.00,0.0055
2465.00,0.0055
2464.00,0.0055
2463.00,0.0055
2462.00,0.0055
2461.00,0.0055
2460.00,0.0055
2459.00,0.0055
2458.00,0.0055
2457.00,0.0055
2456.00,0.0055
2455.00,0.0056
2454.00,0.0056
2453.00,0.0056
2452.00,0.0056
2451.00,0.0056
2450.00,0.0056
2449.00,0.0056
2448.00,0.0056
2447.00,0.0056
2446.00,0.0055
2445.00,0.0055
2444.00,0.0055
2443.00,0.0055
2442.00,0.0054
2441.00,0.0054
2440.00,0.0054
2439.00,0.0054
2438.00,0.0054
2437.00,0.0054
2436.00,0.0054
2435.00,0.0054
2434.00,0.0054
2433.00,0.0054
2432.00,0.0054
2431.00,0.0054
2430.00,0.0054
2429.00,0.0054
2428.00,0.0053
2427.00,0.0053
2426.00,0.0053
2425.00,0.0053
2424.00,0.0053
2423.00,0.0053
2422.00,0.0053
2421.00,0.0053
2420.00,0.0053
2419.00,0.0053
2418.00,0.0053
2417.00,0.0053
2416.00,0.0053
2415.00,0.0053
2414.00,0.0052
2413.00,0.0053
2412.00,0.0053
2411.00,0.0053
2410.00,0.0053
2409.00,0.0053
2408.00,0.0052
2407.00,0.0052
2406.00,0.0052
2405.00,0.0052
2404.00,0.0052
2403.00,0.0052
2402.00,0.0051
2401.00,0.0051
2400.00,0.0051
2399.00,0.0051
2398.00,0.0051
2397.00,0.0051
2396.00,0.0051
2395.00,0.0051
2394.00,0.0051
2393.00,0.0051
2392.00,0.0052
2391.00,0.0051
2390.00,0.0051
2389.00,0.0051
2388.00,0.0050
2387.00,0.0050
2386.00,0.0049
2385.00,0.0049
2384.00,0.0049
2383.00,0.0049
2382.00,0.0049
2381.00,0.0049
2380.00,0.0049
2379.00,0.0049
2378.00,0.0049
2377.00,0.0049
2376.00,0.0049
2375.00,0.0048
2374.00,0.0048
2373.00,0.0048
2372.00,0.0047
2371.00,0.0047
2370.00,0.0047
2369.00,0.0047
2368.00,0.0047
2367.00,0.0048
2366.00,0.0048
2365.00,0.0049
2364.00,0.0049
2363.00,0.0049
2362.00,0.0049
2361.00,0.0049
2360.00,0.0049
2359.00,0.0049
2358.00,0.0049
2357.00,0.0049
2356.00,0.0049
2355.00,0.0049
2354.00,0.0048
2353.00,0.0048
2352.00,0.0049
2351.00,0.0049
2350.00,0.0050
2349.00,0.0051
2348.00,0.0052
2347.00,0.0053
2346.00,0.0053
2345.00,0.0052
2344.00,0.0052
2343.00,0.0052
2342.00,0.0052
2341.00,0.0053
2340.00,0.0054
2339.00,0.0054
2338.00,0.0054
2337.00,0.0053
2336.00,0.0053
2335.00,0.0053
2334.00,0.0052
2333.00,0.0052
2332.00,0.0052
2331.00,0.0052
2330.00,0.0053
2329.00,0.0055
2328.00,0.0058
2327.00,0.0063
2326.00,0.0066
2325.00,0.0067
2324.00,0.0066
2323.00,0.0064
2322.00,0.0062
2321.00,0.0060
2320.00,0.0059
2319.00,0.0059
2318.00,0.0059
2317.00,0.0058
2316.00,0.0058
2315.00,0.0058
2314.00,0.0057
2313.00,0.0057
2312.00,0.0056
2311.00,0.0056
2310.00,0.0056
2309.00,0.0056
2308.00,0.0057
2307.00,0.0057
2306.00,0.0058
2305.00,0.0058
2304.00,0.0059
2303.00,0.0059
2302.00,0.0058
2301.00,0.0058
2300.00,0.0058
2299.00,0.0059
2298.00,0.0059
2297.00,0.0060
2296.00,0.0060
2295.00,0.0061
2294.00,0.0061
2293.00,0.0062
2292.00,0.0063
2291.00,0.0064
2290.00,0.0065
2289.00,0.0066
2288.00,0.0067
2287.00,0.0067
2286.00,0.0066
2285.00,0.0065
2284.00,0.0065
2283.00,0.0064
2282.00,0.0063
2281.00,0.0062
2280.00,0.0061
2279.00,0.0061
2278.00,0.0061
2277.00,0.0061
2276.00,0.0061
2275.00,0.0060
2274.00,0.0060
2273.00,0.0060
2272.00,0.0060
2271.00,0.0060
2270.00,0.0059
2269.00,0.0059
2268.00,0.0058
2267.00,0.0057
2266.00,0.0056
2265.00,0.0056
2264.00,0.0056
2263.00,0.0057
2262.00,0.0058
2261.00,0.0059
2260.00,0.0059
2259.00,0.0059
2258.00,0.0058
2257.00,0.0057
2256.00,0.0056
2255.00,0.0055
2254.00,0.0054
2253.00,0.0054
2252.00,0.0054
2251.00,0.0055
2250.00,0.0056
2249.00,0.0056
2248.00,0.0056
2247.00,0.0056
2246.00,0.0056
2245.00,0.0056
2244.00,0.0056
2243.00,0.0056
2242.00,0.0056
2241.00,0.0056
2240.00,0.0056
2239.00,0.0057
2238.00,0.0057
2237.00,0.0056
2236.00,0.0056
2235.00,0.0056
2234.00,0.0055
2233.00,0.0055
2232.00,0.0056
2231.00,0.0056
2230.00,0.0057
2229.00,0.0057
2228.00,0.0057
2227.00,0.0056
2226.00,0.0055
2225.00,0.0055
2224.00,0.0055
2223.00,0.0055
2222.00,0.0055
2221.00,0.0055
2220.00,0.0055
2219.00,0.0055
2218.00,0.0055
2217.00,0.0056
2216.00,0.0056
2215.00,0.0055
2214.00,0.0055
2213.00,0.0054
2212.00,0.0055
2211.00,0.0055
2210.00,0.0055
2209.00,0.0056
2208.00,0.0056
2207.00,0.0056
2206.00,0.0055
2205.00,0.0054
2204.00,0.0054
2203.00,0.0053
2202.00,0.0053
2201.00,0.0054
2200.00,0.0055
2199.00,0.0056
2198.00,0.0056
2197.00,0.0057
2196.00,0.0058
2195.00,0.0059
2194.00,0.0060
2193.00,0.0060
2192.00,0.0061
2191.00,0.0061
2190.00,0.0060
2189.00,0.0059
2188.00,0.0059
2187.00,0.0059
2186.00,0.0059
2185.00,0.0058
2184.00,0.0055
2183.00,0.0052
2182.00,0.0050
2181.00,0.0050
2180.00,0.0052
2179.00,0.0053
2178.00,0.0053
2177.00,0.0053
2176.00,0.0052
2175.00,0.0053
2174.00,0.0054
2173.00,0.0056
2172.00,0.0058
2171.00,0.0060
2170.00,0.0063
2169.00,0.0066
2168.00,0.0069
2167.00,0.0069
2166.00,0.0069
2165.00,0.0069
2164.00,0.0069
2163.00,0.0068
2162.00,0.0063
2161.00,0.0052
2160.00,0.0040
2159.00,0.0029
2158.00,0.0025
2157.00,0.0025
2156.00,0.0028
2155.00,0.0031
2154.00,0.0032
2153.00,0.0033
2152.00,0.0035
2151.00,0.0036
2150.00,0.0036
2149.00,0.0035
2148.00,0.0035
2147.00,0.0035
2146.00,0.0035
2145.00,0.0035
2144.00,0.0036
2143.00,0.0037
2142.00,0.0038
2141.00,0.0038
2140.00,0.0039
2139.00,0.0039
2138.00,0.0038
2137.00,0.0037
2136.00,0.0035
2135.00,0.0034
2134.00,0.0033
2133.00,0.0033
2132.00,0.0034
2131.00,0.0036
2130.00,0.0038
2129.00,0.0040
2128.00,0.0042
2127.00,0.0044
2126.00,0.0045
2125.00,0.0046
2124.00,0.0046
2123.00,0.0047
2122.00,0.0047
2121.00,0.0047
2120.00,0.0048
2119.00,0.0049
2118.00,0.0050
2117.00,0.0051
2116.00,0.0052
2115.00,0.0053
2114.00,0.0053
2113.00,0.0053
2112.00,0.0053
2111.00,0.0054
2110.00,0.0054
2109.00,0.0054
2108.00,0.0054
2107.00,0.0053
2106.00,0.0052
2105.00,0.0051
2104.00,0.0052
2103.00,0.0053
2102.00,0.0053
2101.00,0.0053
2100.00,0.0053
2099.00,0.0052
2098.00,0.0050
2097.00,0.0048
2096.00,0.0047
2095.00,0.0046
2094.00,0.0046
2093.00,0.0048
2092.00,0.0049
2091.00,0.0050
2090.00,0.0051
2089.00,0.0051
2088.00,0.0052
2087.00,0.0053
2086.00,0.0053
2085.00,0.0054
2084.00,0.0054
2083.00,0.0054
2082.00,0.0054
2081.00,0.0054
2080.00,0.0054
2079.00,0.0054
2078.00,0.0054
2077.00,0.0053
2076.00,0.0053
2075.00,0.0053
2074.00,0.0053
2073.00,0.0053
2072.00,0.0054
2071.00,0.0054
2070.00,0.0053
2069.00,0.0053
2068.00,0.0052
2067.00,0.0052
2066.00,0.0051
2065.00,0.0050
2064.00,0.0049
2063.00,0.0049
2062.00,0.0050
2061.00,0.0050
2060.00,0.0051
2059.00,0.0051
2058.00,0.0051
2057.00,0.0051
2056.00,0.0051
2055.00,0.0052
2054.00,0.0055
2053.00,0.0060
2052.00,0.0064
2051.00,0.0064
2050.00,0.0060
2049.00,0.0056
2048.00,0.0053
2047.00,0.0052
2046.00,0.0051
2045.00,0.0051
2044.00,0.0052
2043.00,0.0053
2042.00,0.0054
2041.00,0.0054
2040.00,0.0055
2039.00,0.0054
2038.00,0.0053
2037.00,0.0051
2036.00,0.0050
2035.00,0.0048
2034.00,0.0047
2033.00,0.0046
2032.00,0.0046
2031.00,0.0046
2030.00,0.0046
2029.00,0.0045
2028.00,0.0045
2027.00,0.0045
2026.00,0.0044
2025.00,0.0043
2024.00,0.0044
2023.00,0.0046
2022.00,0.0047
2021.00,0.0047
2020.00,0.0048
2019.00,0.0047
2018.00,0.0045
2017.00,0.0044
2016.00,0.0043
2015.00,0.0042
2014.00,0.0041
2013.00,0.0040
2012.00,0.0039
2011.00,0.0040
2010.00,0.0039
2009.00,0.0037
2008.00,0.0035
2007.00,0.0032
2006.00,0.0030
2005.00,0.0030
2004.00,0.0032
2003.00,0.0035
2002.00,0.0036
2001.00,0.0038
2000.00,0.0041
1999.00,0.0043
1998.00,0.0044
1997.00,0.0045
1996.00,0.0046
1995.00,0.0046
1994.00,0.0045
1993.00,0.0045
1992.00,0.0046
1991.00,0.0047
1990.00,0.0048
1989.00,0.0050
1988.00,0.0051
1987.00,0.0052
1986.00,0.0052
1985.00,0.0052
1984.00,0.0054
1983.00,0.0056
1982.00,0.0058
1981.00,0.0059
1980.00,0.0058
1979.00,0.0053
1978.00,0.0047
1977.00,0.0041
1976.00,0.0038
1975.00,0.0035
1974.00,0.0033
1973.00,0.0032
1972.00,0.0033
1971.00,0.0034
1970.00,0.0035
1969.00,0.0036
1968.00,0.0036
1967.00,0.0036
1966.00,0.0036
1965.00,0.0036
1964.00,0.0037
1963.00,0.0037
1962.00,0.0036
1961.00,0.0035
1960.00,0.0033
1959.00,0.0033
1958.00,0.0033
1957.00,0.0033
1956.00,0.0035
1955.00,0.0037
1954.00,0.0037
1953.00,0.0037
1952.00,0.0038
1951.00,0.0037
1950.00,0.0036
1949.00,0.0036
1948.00,0.0037
1947.00,0.0038
1946.00,0.0038
1945.00,0.0039
1944.00,0.0040
1943.00,0.0040
1942.00,0.0039
1941.00,0.0039
1940.00,0.0039
1939.00,0.0039
1938.00,0.0038
1937.00,0.0037
1936.00,0.0037
1935.00,0.0038
1934.00,0.0039
1933.00,0.0039
1932.00,0.0040
1931.00,0.0040
1930.00,0.0039
1929.00,0.0039
1928.00,0.0039
1927.00,0.0039
1926.00,0.0040
1925.00,0.0040
1924.00,0.0041
1923.00,0.0042
1922.00,0.0042
1921.00,0.0042
1920.00,0.0042
1919.00,0.0042
1918.00,0.0042
1917.00,0.0042
1916.00,0.0042
1915.00,0.0042
1914.00,0.0042
1913.00,0.0041
1912.00,0.0041
1911.00,0.0042
1910.00,0.0042
1909.00,0.0042
1908.00,0.0042
1907.00,0.0042
1906.00,0.0042
1905.00,0.0042
1904.00,0.0042
1903.00,0.0042
1902.00,0.0042
1901.00,0.0042
1900.00,0.0042
1899.00,0.0043
1898.00,0.0043
1897.00,0.0044
1896.00,0.0044
1895.00,0.0044
1894.00,0.0043
1893.00,0.0042
1892.00,0.0042
1891.00,0.0042
1890.00,0.0042
1889.00,0.0042
1888.00,0.0042
1887.00,0.0042
1886.00,0.0042
1885.00,0.0042
1884.00,0.0042
1883.00,0.0042
1882.00,0.0042
1881.00,0.0042
1880.00,0.0043
1879.00,0.0043
1878.00,0.0043
1877.00,0.0043
1876.00,0.0043
1875.00,0.0043
1874.00,0.0042
1873.00,0.0042
1872.00,0.0042
1871.00,0.0042
1870.00,0.0043
1869.00,0.0042
1868.00,0.0042
1867.00,0.0042
1866.00,0.0042
1865.00,0.0043
1864.00,0.0043
1863.00,0.0043
1862.00,0.0043
1861.00,0.0043
1860.00,0.0043
1859.00,0.0043
1858.00,0.0043
1857.00,0.0043
1856.00,0.0044
1855.00,0.0044
1854.00,0.0044
1853.00,0.0043
1852.00,0.0043
1851.00,0.0043
1850.00,0.0043
1849.00,0.0043
1848.00,0.0042
1847.00,0.0042
1846.00,0.0041
1845.00,0.0042
1844.00,0.0042
1843.00,0.0043
1842.00,0.0043
1841.00,0.0043
1840.00,0.0044
1839.00,0.0044
1838.00,0.0044
1837.00,0.0044
1836.00,0.0044
1835.00,0.0044
1834.00,0.0043
1833.00,0.0043
1832.00,0.0043
1831.00,0.0043
1830.00,0.0043
1829.00,0.0042
1828.00,0.0042
1827.00,0.0042
1826.00,0.0042
1825.00,0.0043
1824.00,0.0044
1823.00,0.0044
1822.00,0.0044
1821.00,0.0043
1820.00,0.0042
1819.00,0.0041
1818.00,0.0040
1817.00,0.0040
1816.00,0.0040
1815.00,0.0041
1814.00,0.0041
1813.00,0.0042
1812.00,0.0043
1811.00,0.0043
1810.00,0.0043
1809.00,0.0042
1808.00,0.0043
1807.00,0.0043
1806.00,0.0043
1805.00,0.0043
1804.00,0.0043
1803.00,0.0044
1802.00,0.0043
1801.00,0.0043
1800.00,0.0043
1799.00,0.0044
1798.00,0.0044
1797.00,0.0044
1796.00,0.0044
1795.00,0.0043
1794.00,0.0043
1793.00,0.0043
1792.00,0.0043
1791.00,0.0044
1790.00,0.0044
1789.00,0.0044
1788.00,0.0044
1787.00,0.0044
1786.00,0.0045
1785.00,0.0045
1784.00,0.0045
1783.00,0.0045
1782.00,0.0045
1781.00,0.0045
1780.00,0.0045
1779.00,0.0045
1778.00,0.0045
1777.00,0.0044
1776.00,0.0044
1775.00,0.0044
1774.00,0.0044
1773.00,0.0044
1772.00,0.0044
1771.00,0.0044
1770.00,0.0045
1769.00,0.0045
1768.00,0.0047
1767.00,0.0047
1766.00,0.0047
1765.00,0.0047
1764.00,0.0047
1763.00,0.0047
1762.00,0.0047
1761.00,0.0048
1760.00,0.0049
1759.00,0.0049
1758.00,0.0049
1757.00,0.0049
1756.00,0.0049
1755.00,0.0050
1754.00,0.0049
1753.00,0.0049
1752.00,0.0050
1751.00,0.0051
1750.00,0.0051
1749.00,0.0051
1748.00,0.0052
1747.00,0.0053
1746.00,0.0054
1745.00,0.0054
1744.00,0.0055
1743.00,0.0054
1742.00,0.0054
1741.00,0.0054
1740.00,0.0054
1739.00,0.0055
1738.00,0.0055
1737.00,0.0055
1736.00,0.0056
1735.00,0.0058
1734.00,0.0059
1733.00,0.0059
1732.00,0.0060
1731.00,0.0061
1730.00,0.0062
1729.00,0.0063
1728.00,0.0064
1727.00,0.0066
1726.00,0.0067
1725.00,0.0068
1724.00,0.0070
1723.00,0.0071
1722.00,0.0071
1721.00,0.0072
1720.00,0.0074
1719.00,0.0077
1718.00,0.0080
1717.00,0.0081
1716.00,0.0084
1715.00,0.0087
1714.00,0.0089
1713.00,0.0093
1712.00,0.0098
1711.00,0.0103
1710.00,0.0108
1709.00,0.0113
1708.00,0.0120
1707.00,0.0128
1706.00,0.0138
1705.00,0.0148
1704.00,0.0159
1703.00,0.0170
1702.00,0.0182
1701.00,0.0201
1700.00,0.0227
1699.00,0.0254
1698.00,0.0277
1697.00,0.0304
1696.00,0.0337
1695.00,0.0373
1694.00,0.0406
1693.00,0.0439
1692.00,0.0473
1691.00,0.0511
1690.00,0.0550
1689.00,0.0589
1688.00,0.0628
1687.00,0.0666
1686.00,0.0702
1685.00,0.0740
1684.00,0.0776
1683.00,0.0810
1682.00,0.0842
1681.00,0.0875
1680.00,0.0907
1679.00,0.0938
1678.00,0.0966
1677.00,0.0993
1676.00,0.1016
1675.00,0.1035
1674.00,0.1053
1673.00,0.1075
1672.00,0.1100
1671.00,0.1122
1670.00,0.1136
1669.00,0.1145
1668.00,0.1159
1667.00,0.1179
1666.00,0.1203
1665.00,0.1227
1664.00,0.1247
1663.00,0.1260
1662.00,0.1268
1661.00,0.1279
1660.00,0.1294
1659.00,0.1311
1658.00,0.1327
1657.00,0.1346
1656.00,0.1368
1655.00,0.1387
1654.00,0.1376
1653.00,0.1324
1652.00,0.1284
1651.00,0.1280
1650.00,0.1294
1649.00,0.1305
1648.00,0.1296
1647.00,0.1258
1646.00,0.1209
1645.00,0.1171
1644.00,0.1147
1643.00,0.1127
1642.00,0.1104
1641.00,0.1075
1640.00,0.1045
1639.00,0.1017
1638.00,0.0989
1637.00,0.0950
1636.00,0.0893
1635.00,0.0832
1634.00,0.0787
1633.00,0.0760
1632.00,0.0740
1631.00,0.0720
1630.00,0.0697
1629.00,0.0672
1628.00,0.0648
1627.00,0.0630
1626.00,0.0618
1625.00,0.0611
1624.00,0.0606
1623.00,0.0603
1622.00,0.0603
1621.00,0.0605
1620.00,0.0610
1619.00,0.0613
1618.00,0.0608
1617.00,0.0593
1616.00,0.0571
1615.00,0.0553
1614.00,0.0541
1613.00,0.0532
1612.00,0.0523
1611.00,0.0512
1610.00,0.0501
1609.00,0.0487
1608.00,0.0471
1607.00,0.0453
1606.00,0.0434
1605.00,0.0413
1604.00,0.0392
1603.00,0.0372
1602.00,0.0352
1601.00,0.0334
1600.00,0.0319
1599.00,0.0306
1598.00,0.0296
1597.00,0.0288
1596.00,0.0283
1595.00,0.0280
1594.00,0.0281
1593.00,0.0285
1592.00,0.0292
1591.00,0.0303
1590.00,0.0316
1589.00,0.0330
1588.00,0.0344
1587.00,0.0354
1586.00,0.0361
1585.00,0.0363
1584.00,0.0359
1583.00,0.0350
1582.00,0.0338
1581.00,0.0323
1580.00,0.0310
1579.00,0.0298
1578.00,0.0286
1577.00,0.0273
1576.00,0.0258
1575.00,0.0245
1574.00,0.0237
1573.00,0.0232
1572.00,0.0227
1571.00,0.0222
1570.00,0.0216
1569.00,0.0209
1568.00,0.0204
1567.00,0.0201
1566.00,0.0197
1565.00,0.0193
1564.00,0.0189
1563.00,0.0184
1562.00,0.0180
1561.00,0.0176
1560.00,0.0173
1559.00,0.0166
1558.00,0.0160
1557.00,0.0159
1556.00,0.0160
1555.00,0.0160
1554.00,0.0159
1553.00,0.0157
1552.00,0.0156
1551.00,0.0155
1550.00,0.0154
1549.00,0.0152
1548.00,0.0150
1547.00,0.0148
1546.00,0.0147
1545.00,0.0146
1544.00,0.0144
1543.00,0.0142
1542.00,0.0141
1541.00,0.0141
1540.00,0.0139
1539.00,0.0138
1538.00,0.0137
1537.00,0.0138
1536.00,0.0138
1535.00,0.0138
1534.00,0.0138
1533.00,0.0137
1532.00,0.0137
1531.00,0.0138
1530.00,0.0138
1529.00,0.0139
1528.00,0.0139
1527.00,0.0140
1526.00,0.0140
1525.00,0.0141
1524.00,0.0143
1523.00,0.0145
1522.00,0.0147
1521.00,0.0148
1520.00,0.0150
1519.00,0.0152
1518.00,0.0155
1517.00,0.0158
1516.00,0.0160
1515.00,0.0162
1514.00,0.0164
1513.00,0.0166
1512.00,0.0168
1511.00,0.0169
1510.00,0.0172
1509.00,0.0175
1508.00,0.0178
1507.00,0.0181
1506.00,0.0187
1505.00,0.0197
1504.00,0.0208
1503.00,0.0220
1502.00,0.0234
1501.00,0.0250
1500.00,0.0268
1499.00,0.0287
1498.00,0.0307
1497.00,0.0325
1496.00,0.0338
1495.00,0.0346
1494.00,0.0351
1493.00,0.0352
1492.00,0.0348
1491.00,0.0339
1490.00,0.0323
1489.00,0.0304
1488.00,0.0286
1487.00,0.0268
1486.00,0.0253
1485.00,0.0240
1484.00,0.0229
1483.00,0.0219
1482.00,0.0210
1481.00,0.0204
1480.00,0.0199
1479.00,0.0197
1478.00,0.0198
1477.00,0.0201
1476.00,0.0206
1475.00,0.0214
1474.00,0.0226
1473.00,0.0243
1472.00,0.0265
1471.00,0.0290
1470.00,0.0317
1469.00,0.0346
1468.00,0.0377
1467.00,0.0411
1466.00,0.0447
1465.00,0.0484
1464.00,0.0519
1463.00,0.0547
1462.00,0.0568
1461.00,0.0583
1460.00,0.0592
1459.00,0.0591
1458.00,0.0572
1457.00,0.0537
1456.00,0.0500
1455.00,0.0475
1454.00,0.0460
1453.00,0.0450
1452.00,0.0442
1451.00,0.0437
1450.00,0.0437
1449.00,0.0444
1448.00,0.0457
1447.00,0.0475
1446.00,0.0496
1445.00,0.0520
1444.00,0.0545
1443.00,0.0571
1442.00,0.0597
1441.00,0.0621
1440.00,0.0644
1439.00,0.0664
1438.00,0.0682
1437.00,0.0696
1436.00,0.0707
1435.00,0.0716
1434.00,0.0725
1433.00,0.0735
1432.00,0.0743
1431.00,0.0748
1430.00,0.0755
1429.00,0.0765
1428.00,0.0780
1427.00,0.0799
1426.00,0.0822
1425.00,0.0846
1424.00,0.0866
1423.00,0.0881
1422.00,0.0890
1421.00,0.0889
1420.00,0.0871
1419.00,0.0829
1418.00,0.0778
1417.00,0.0732
1416.00,0.0690
1415.00,0.0649
1414.00,0.0610
1413.00,0.0574
1412.00,0.0543
1411.00,0.0515
1410.00,0.0494
1409.00,0.0480
1408.00,0.0470
1407.00,0.0463
1406.00,0.0459
1405.00,0.0456
1404.00,0.0453
1403.00,0.0451
1402.00,0.0448
1401.00,0.0442
1400.00,0.0432
1399.00,0.0417
1398.00,0.0400
1397.00,0.0383
1396.00,0.0365
1395.00,0.0346
1394.00,0.0329
1393.00,0.0316
1392.00,0.0308
1391.00,0.0302
1390.00,0.0298
1389.00,0.0297
1388.00,0.0298
1387.00,0.0301
1386.00,0.0307
1385.00,0.0316
1384.00,0.0325
1383.00,0.0336
1382.00,0.0347
1381.00,0.0357
1380.00,0.0366
1379.00,0.0372
1378.00,0.0377
1377.00,0.0380
1376.00,0.0381
1375.00,0.0379
1374.00,0.0376
1373.00,0.0372
1372.00,0.0369
1371.00,0.0365
1370.00,0.0362
1369.00,0.0359
1368.00,0.0355
1367.00,0.0352
1366.00,0.0350
1365.00,0.0350
1364.00,0.0350
1363.00,0.0350
1362.00,0.0349
1361.00,0.0347
1360.00,0.0342
1359.00,0.0335
1358.00,0.0324
1357.00,0.0311
1356.00,0.0297
1355.00,0.0284
1354.00,0.0272
1353.00,0.0263
1352.00,0.0255
1351.00,0.0249
1350.00,0.0245
1349.00,0.0242
1348.00,0.0239
1347.00,0.0237
1346.00,0.0235
1345.00,0.0234
1344.00,0.0233
1343.00,0.0233
1342.00,0.0233
1341.00,0.0234
1340.00,0.0235
1339.00,0.0237
1338.00,0.0239
1337.00,0.0241
1336.00,0.0244
1335.00,0.0247
1334.00,0.0251
1333.00,0.0256
1332.00,0.0260
1331.00,0.0265
1330.00,0.0271
1329.00,0.0277
1328.00,0.0285
1327.00,0.0293
1326.00,0.0303
1325.00,0.0314
1324.00,0.0325
1323.00,0.0337
1322.00,0.0348
1321.00,0.0359
1320.00,0.0369
1319.00,0.0376
1318.00,0.0380
1317.00,0.0382
1316.00,0.0382
1315.00,0.0379
1314.00,0.0374
1313.00,0.0368
1312.00,0.0362
1311.00,0.0356
1310.00,0.0351
1309.00,0.0347
1308.00,0.0346
1307.00,0.0346
1306.00,0.0349
1305.00,0.0354
1304.00,0.0362
1303.00,0.0373
1302.00,0.0387
1301.00,0.0406
1300.00,0.0430
1299.00,0.0459
1298.00,0.0496
1297.00,0.0538
1296.00,0.0586
1295.00,0.0639
1294.00,0.0693
1293.00,0.0748
1292.00,0.0801
1291.00,0.0850
1290.00,0.0892
1289.00,0.0928
1288.00,0.0956
1287.00,0.0974
1286.00,0.0983
1285.00,0.0983
1284.00,0.0975
1283.00,0.0960
1282.00,0.0941
1281.00,0.0921
1280.00,0.0902
1279.00,0.0887
1278.00,0.0876
1277.00,0.0871
1276.00,0.0871
1275.00,0.0873
1274.00,0.0876
1273.00,0.0878
1272.00,0.0877
1271.00,0.0871
1270.00,0.0860
1269.00,0.0843
1268.00,0.0821
1267.00,0.0795
1266.00,0.0765
1265.00,0.0733
1264.00,0.0700
1263.00,0.0667
1262.00,0.0635
1261.00,0.0604
1260.00,0.0575
1259.00,0.0547
1258.00,0.0522
1257.00,0.0500
1256.00,0.0479
1255.00,0.0461
1254.00,0.0445
1253.00,0.0432
1252.00,0.0421
1251.00,0.0412
1250.00,0.0406
1249.00,0.0402
1248.00,0.0400
1247.00,0.0401
1246.00,0.0405
1245.00,0.0410
1244.00,0.0417
1243.00,0.0424
1242.00,0.0432
1241.00,0.0439
1240.00,0.0445
1239.00,0.0451
1238.00,0.0456
1237.00,0.0462
1236.00,0.0467
1235.00,0.0472
1234.00,0.0476
1233.00,0.0480
1232.00,0.0483
1231.00,0.0484
1230.00,0.0485
1229.00,0.0485
1228.00,0.0484
1227.00,0.0483
1226.00,0.0482
1225.00,0.0482
1224.00,0.0482
1223.00,0.0483
1222.00,0.0484
1221.00,0.0485
1220.00,0.0486
1219.00,0.0486
1218.00,0.0484
1217.00,0.0480
1216.00,0.0474
1215.00,0.0466
1214.00,0.0456
1213.00,0.0444
1212.00,0.0431
1211.00,0.0418
1210.00,0.0406
1209.00,0.0395
1208.00,0.0385
1207.00,0.0376
1206.00,0.0370
1205.00,0.0365
1204.00,0.0362
1203.00,0.0361
1202.00,0.0362
1201.00,0.0365
1200.00,0.0370
1199.00,0.0376
1198.00,0.0382
1197.00,0.0389
1196.00,0.0395
1195.00,0.0399
1194.00,0.0400
1193.00,0.0399
1192.00,0.0393
1191.00,0.0385
1190.00,0.0374
1189.00,0.0363
1188.00,0.0352
1187.00,0.0341
1186.00,0.0332
1185.00,0.0324
1184.00,0.0316
1183.00,0.0311
1182.00,0.0307
1181.00,0.0305
1180.00,0.0303
1179.00,0.0303
1178.00,0.0304
1177.00,0.0306
1176.00,0.0309
1175.00,0.0312
1174.00,0.0316
1173.00,0.0320
1172.00,0.0324
1171.00,0.0327
1170.00,0.0330
1169.00,0.0332
1168.00,0.0333
1167.00,0.0334
1166.00,0.0334
1165.00,0.0335
1164.00,0.0337
1163.00,0.0340
1162.00,0.0345
1161.00,0.0352
1160.00,0.0360
1159.00,0.0367
1158.00,0.0373
1157.00,0.0377
1156.00,0.0377
1155.00,0.0374
1154.00,0.0367
1153.00,0.0358
1152.00,0.0347
1151.00,0.0334
1150.00,0.0321
1149.00,0.0308
1148.00,0.0296
1147.00,0.0284
1146.00,0.0274
1145.00,0.0265
1144.00,0.0257
1143.00,0.0251
1142.00,0.0246
1141.00,0.0243
1140.00,0.0241
1139.00,0.0240
1138.00,0.0242
1137.00,0.0247
1136.00,0.0255
1135.00,0.0266
1134.00,0.0281
1133.00,0.0298
1132.00,0.0314
1131.00,0.0329
1130.00,0.0338
1129.00,0.0340
1128.00,0.0335
1127.00,0.0323
1126.00,0.0308
1125.00,0.0291
1124.00,0.0276
1123.00,0.0262
1122.00,0.0252
1121.00,0.0244
1120.00,0.0238
1119.00,0.0233
1118.00,0.0230
1117.00,0.0228
1116.00,0.0227
1115.00,0.0227
1114.00,0.0227
1113.00,0.0228
1112.00,0.0229
1111.00,0.0230
1110.00,0.0231
1109.00,0.0233
1108.00,0.0235
1107.00,0.0237
1106.00,0.0241
1105.00,0.0246
1104.00,0.0252
1103.00,0.0257
1102.00,0.0262
1101.00,0.0266
1100.00,0.0268
1099.00,0.0268
1098.00,0.0266
1097.00,0.0261
1096.00,0.0256
1095.00,0.0250
1094.00,0.0244
1093.00,0.0239
1092.00,0.0234
1091.00,0.0230
1090.00,0.0227
1089.00,0.0224
1088.00,0.0222
1087.00,0.0221
1086.00,0.0220
1085.00,0.0219
1084.00,0.0219
1083.00,0.0220
1082.00,0.0221
1081.00,0.0224
1080.00,0.0226
1079.00,0.0230
1078.00,0.0234
1077.00,0.0238
1076.00,0.0243
1075.00,0.0248
1074.00,0.0253
1073.00,0.0258
1072.00,0.0263
1071.00,0.0270
1070.00,0.0278
1069.00,0.0289
1068.00,0.0301
1067.00,0.0316
1066.00,0.0334
1065.00,0.0354
1064.00,0.0376
1063.00,0.0400
1062.00,0.0423
1061.00,0.0445
1060.00,0.0464
1059.00,0.0478
1058.00,0.0486
1057.00,0.0485
1056.00,0.0476
1055.00,0.0459
1054.00,0.0437
1053.00,0.0411
1052.00,0.0384
1051.00,0.0359
1050.00,0.0336
1049.00,0.0316
1048.00,0.0300
1047.00,0.0287
1046.00,0.0277
1045.00,0.0269
1044.00,0.0263
1043.00,0.0259
1042.00,0.0255
1041.00,0.0253
1040.00,0.0251
1039.00,0.0250
1038.00,0.0249
1037.00,0.0250
1036.00,0.0252
1035.00,0.0255
1034.00,0.0259
1033.00,0.0264
1032.00,0.0269
1031.00,0.0274
1030.00,0.0276
1029.00,0.0277
1028.00,0.0275
1027.00,0.0271
1026.00,0.0267
1025.00,0.0264
1024.00,0.0261
1023.00,0.0260
1022.00,0.0261
1021.00,0.0262
1020.00,0.0263
1019.00,0.0264
1018.00,0.0265
1017.00,0.0264
1016.00,0.0260
1015.00,0.0256
1014.00,0.0250
1013.00,0.0243
1012.00,0.0238
1011.00,0.0234
1010.00,0.0232
1009.00,0.0232
1008.00,0.0235
1007.00,0.0239
1006.00,0.0245
1005.00,0.0251
1004.00,0.0257
1003.00,0.0261
1002.00,0.0263
1001.00,0.0263
1000.00,0.0260
999.00,0.0255
998.00,0.0249
997.00,0.0244
996.00,0.0239
995.00,0.0234
994.00,0.0230
993.00,0.0225
992.00,0.0221
991.00,0.0217
990.00,0.0213
989.00,0.0210
988.00,0.0206
987.00,0.0202
986.00,0.0199
985.00,0.0196
984.00,0.0193
983.00,0.0192
982.00,0.0190
981.00,0.0190
980.00,0.0189
979.00,0.0188
978.00,0.0188
977.00,0.0188
976.00,0.0187
975.00,0.0187
974.00,0.0186
973.00,0.0185
972.00,0.0184
971.00,0.0182
970.00,0.0180
969.00,0.0178
968.00,0.0177
967.00,0.0176
966.00,0.0175
965.00,0.0174
964.00,0.0173
963.00,0.0172
962.00,0.0171
961.00,0.0169
960.00,0.0168
959.00,0.0167
958.00,0.0166
957.00,0.0165
956.00,0.0165
955.00,0.0164
954.00,0.0163
953.00,0.0162
952.00,0.0162
951.00,0.0161
950.00,0.0161
949.00,0.0161
948.00,0.0162
947.00,0.0163
946.00,0.0164
945.00,0.0166
944.00,0.0168
943.00,0.0170
942.00,0.0174
941.00,0.0178
940.00,0.0184
939.00,0.0191
938.00,0.0199
937.00,0.0207
936.00,0.0214
935.00,0.0221
934.00,0.0226
933.00,0.0228
932.00,0.0229
931.00,0.0228
930.00,0.0225
929.00,0.0223
928.00,0.0221
927.00,0.0219
926.00,0.0218
925.00,0.0217
924.00,0.0216
923.00,0.0214
922.00,0.0211
921.00,0.0208
920.00,0.0205
919.00,0.0202
918.00,0.0200
917.00,0.0198
916.00,0.0196
915.00,0.0194
914.00,0.0193
913.00,0.0191
912.00,0.0190
911.00,0.0190
910.00,0.0191
909.00,0.0192
908.00,0.0194
907.00,0.0196
906.00,0.0199
905.00,0.0203
904.00,0.0208
903.00,0.0213
902.00,0.0219
901.00,0.0224
900.00,0.0229
899.00,0.0233
898.00,0.0236
897.00,0.0238
896.00,0.0238
895.00,0.0237
894.00,0.0233
893.00,0.0229
892.00,0.0225
891.00,0.0220
890.00,0.0217
889.00,0.0213
888.00,0.0211
887.00,0.0209
886.00,0.0208
885.00,0.0208
884.00,0.0208
883.00,0.0209
882.00,0.0211
881.00,0.0215
880.00,0.0219
879.00,0.0224
878.00,0.0230
877.00,0.0236
876.00,0.0242
875.00,0.0249
874.00,0.0255
873.00,0.0261
872.00,0.0266
871.00,0.0270
870.00,0.0272
869.00,0.0274
868.00,0.0275
867.00,0.0276
866.00,0.0277
865.00,0.0278
864.00,0.0280
863.00,0.0282
862.00,0.0284
861.00,0.0286
860.00,0.0289
859.00,0.0292
858.00,0.0295
857.00,0.0300
856.00,0.0305
855.00,0.0310
854.00,0.0316
853.00,0.0322
852.00,0.0327
851.00,0.0333
850.00,0.0339
849.00,0.0345
848.00,0.0349
847.00,0.0353
846.00,0.0356
845.00,0.0357
844.00,0.0358
843.00,0.0358
842.00,0.0358
841.00,0.0357
840.00,0.0356
839.00,0.0354
838.00,0.0353
837.00,0.0352
836.00,0.0351
835.00,0.0349
834.00,0.0349
833.00,0.0348
832.00,0.0348
831.00,0.0347
830.00,0.0346
829.00,0.0344
828.00,0.0341
827.00,0.0339
826.00,0.0337
825.00,0.0336
824.00,0.0334
823.00,0.0333
822.00,0.0333
821.00,0.0333
820.00,0.0333
819.00,0.0333
818.00,0.0333
817.00,0.0332
816.00,0.0331
815.00,0.0329
814.00,0.0327
813.00,0.0322
812.00,0.0317
811.00,0.0309
810.00,0.0300
809.00,0.0290
808.00,0.0278
807.00,0.0267
806.00,0.0257
805.00,0.0248
804.00,0.0241
803.00,0.0235
802.00,0.0231
801.00,0.0228
800.00,0.0227
799.00,0.0225
798.00,0.0224
797.00,0.0223
796.00,0.0223
795.00,0.0223
794.00,0.0224
793.00,0.0225
792.00,0.0225
791.00,0.0226
790.00,0.0227
789.00,0.0227
788.00,0.0228
787.00,0.0229
786.00,0.0231
785.00,0.0232
784.00,0.0233
783.00,0.0234
782.00,0.0236
781.00,0.0238
780.00,0.0241
779.00,0.0244
778.00,0.0247
777.00,0.0249
776.00,0.0250
775.00,0.0250
774.00,0.0249
773.00,0.0249
772.00,0.0249
771.00,0.0250
770.00,0.0252
769.00,0.0254
768.00,0.0255
767.00,0.0257
766.00,0.0260
765.00,0.0262
764.00,0.0265
763.00,0.0269
762.00,0.0273
761.00,0.0277
760.00,0.0282
759.00,0.0286
758.00,0.0291
757.00,0.0296
756.00,0.0301
755.00,0.0306
754.00,0.0311
753.00,0.0317
752.00,0.0322
751.00,0.0327
750.00,0.0333
749.00,0.0338
748.00,0.0343
747.00,0.0349
746.00,0.0355
745.00,0.0361
744.00,0.0367
743.00,0.0374
742.00,0.0382
741.00,0.0391
740.00,0.0401
739.00,0.0411
738.00,0.0419
737.00,0.0425
736.00,0.0428
735.00,0.0428
734.00,0.0424
733.00,0.0419
732.00,0.0412
731.00,0.0404
730.00,0.0396
729.00,0.0388
728.00,0.0380
727.00,0.0372
726.00,0.0364
725.00,0.0357
724.00,0.0351
723.00,0.0345
722.00,0.0341
721.00,0.0337
720.00,0.0333
719.00,0.0331
718.00,0.0329
717.00,0.0328
716.00,0.0328
715.00,0.0328
714.00,0.0327
713.00,0.0327
712.00,0.0326
711.00,0.0324
710.00,0.0323
709.00,0.0322
708.00,0.0321
707.00,0.0320
706.00,0.0320
705.00,0.0320
704.00,0.0321
703.00,0.0322
702.00,0.0324
701.00,0.0326
700.00,0.0328
699.00,0.0331
698.00,0.0335
697.00,0.0339
696.00,0.0344
695.00,0.0350
694.00,0.0356
693.00,0.0362
692.00,0.0367
691.00,0.0372
690.00,0.0376
689.00,0.0380
688.00,0.0382
687.00,0.0384
686.00,0.0385
685.00,0.0386
684.00,0.0388
683.00,0.0388
682.00,0.0389
681.00,0.0390
680.00,0.0391
679.00,0.0394
678.00,0.0397
677.00,0.0401
676.00,0.0406
675.00,0.0410
674.00,0.0414
673.00,0.0420
672.00,0.0427
671.00,0.0434
670.00,0.0441
669.00,0.0448
668.00,0.0454
667.00,0.0460
666.00,0.0467
665.00,0.0475
664.00,0.0484
663.00,0.0493
662.00,0.0502
661.00,0.0511
660.00,0.0520
659.00,0.0529
658.00,0.0539
657.00,0.0549
656.00,0.0559
655.00,0.0569
654.00,0.0577
653.00,0.0585
652.00,0.0592
651.00,0.0598
650.00,0.0602
649.00,0.0605
648.00,0.0606
647.00,0.0606
646.00,0.0604
645.00,0.0601
644.00,0.0596
643.00,0.0591
642.00,0.0584
641.00,0.0577
640.00,0.0570
639.00,0.0563
638.00,0.0556
637.00,0.0549
636.00,0.0543
635.00,0.0536
634.00,0.0531
633.00,0.0526
632.00,0.0521
631.00,0.0517
630.00,0.0513
629.00,0.0510
628.00,0.0507
627.00,0.0506
626.00,0.0505
625.00,0.0504
624.00,0.0503
623.00,0.0501
622.00,0.0499
621.00,0.0498
620.00,0.0496
619.00,0.0494
618.00,0.0493
617.00,0.0492
616.00,0.0491
615.00,0.0491
614.00,0.0492
613.00,0.0492
612.00,0.0492
611.00,0.0492
610.00,0.0493
609.00,0.0495
608.00,0.0498
607.00,0.0500
606.00,0.0502
605.00,0.0505
604.00,0.0508
603.00,0.0511
602.00,0.0513
601.00,0.0515
600.00,0.0516
599.00,0.0518
598.00,0.0519
597.00,0.0520
596.00,0.0521
595.00,0.0522
594.00,0.0524
593.00,0.0526
592.00,0.0530
591.00,0.0534
590.00,0.0540
589.00,0.0548
588.00,0.0558
587.00,0.0570
586.00,0.0584
585.00,0.0599
584.00,0.0614
583.00,0.0627
582.00,0.0637
581.00,0.0645
580.00,0.0650
579.00,0.0654
578.00,0.0657
577.00,0.0659
576.00,0.0661
575.00,0.0662
574.00,0.0662
573.00,0.0663
572.00,0.0663
571.00,0.0662
570.00,0.0660
569.00,0.0657
568.00,0.0655
567.00,0.0652
566.00,0.0648
565.00,0.0644
564.00,0.0639
563.00,0.0634
562.00,0.0628
561.00,0.0622
560.00,0.0617
559.00,0.0613
558.00,0.0609
557.00,0.0606
556.00,0.0602
555.00,0.0597
554.00,0.0592
553.00,0.0588
552.00,0.0586
551.00,0.0585
550.00,0.0583
549.00,0.0582
548.00,0.0580
547.00,0.0577
546.00,0.0574
545.00,0.0570
544.00,0.0567
543.00,0.0563
542.00,0.0560
541.00,0.0558
540.00,0.0556
539.00,0.0555
538.00,0.0556
537.00,0.0557
536.00,0.0560
535.00,0.0564
534.00,0.0568
533.00,0.0573
532.00,0.0576
531.00,0.0577
530.00,0.0576
529.00,0.0575
528.00,0.0574
527.00,0.0571
526.00,0.0567
525.00,0.0562
524.00,0.0558
523.00,0.0555
522.00,0.0553
521.00,0.0552
520.00,0.0551
519.00,0.0550
518.00,0.0549
517.00,0.0546
516.00,0.0543
515.00,0.0542
514.00,0.0541
513.00,0.0542
512.00,0.0544
511.00,0.0545
510.00,0.0546
509.00,0.0547
508.00,0.0548
507.00,0.0548
506.00,0.0549
505.00,0.0549
504.00,0.0547
503.00,0.0543
502.00,0.0540
501.00,0.0538
500.00,0.0537
499.00,0.0536
498.00,0.0535
497.00,0.0535
496.00,0.0536
495.00,0.0537
494.00,0.0538
493.00,0.0540
492.00,0.0543
491.00,0.0545
490.00,0.0546
489.00,0.0548
488.00,0.0550
487.00,0.0552
486.00,0.0553
485.00,0.0553
484.00,0.0551
483.00,0.0549
482.00,0.0549
481.00,0.0550
480.00,0.0551
479.00,0.0553
478.00,0.0555
477.00,0.0556
476.00,0.0558
475.00,0.0559
474.00,0.0559
473.00,0.0558
472.00,0.0558
471.00,0.0558
470.00,0.0559
469.00,0.0560
468.00,0.0560
467.00,0.0559
466.00,0.0557
465.00,0.0555
464.00,0.0552
463.00,0.0548
462.00,0.0543
461.00,0.0539
460.00,0.0537
459.00,0.0535
458.00,0.0534
457.00,0.0533
456.00,0.0533
455.00,0.0533
454.00,0.0535
453.00,0.0535
452.00,0.0535
451.00,0.0534
450.00,0.0531
449.00,0.0528
448.00,0.0525
447.00,0.0524
446.00,0.0522
445.00,0.0520
444.00,0.0517
443.00,0.0513
442.00,0.0510
441.00,0.0507
440.00,0.0505
439.00,0.0505
438.00,0.0505
437.00,0.0505
436.00,0.0501
435.00,0.0494
434.00,0.0489
433.00,0.0489
432.00,0.0490
431.00,0.0491
430.00,0.0488
429.00,0.0484
428.00,0.0481
427.00,0.0477
426.00,0.0473
425.00,0.0470
424.00,0.0467
423.00,0.0466
422.00,0.0464
421.00,0.0461
420.00,0.0457
419.00,0.0454
418.00,0.0456
417.00,0.0463
416.00,0.0469
415.00,0.0474
414.00,0.0478
413.00,0.0483
412.00,0.0487
411.00,0.0487
410.00,0.0487
409.00,0.0488
408.00,0.0491
407.00,0.0492
406.00,0.0488
405.00,0.0483
404.00,0.0481
403.00,0.0481
402.00,0.0481
401.00,0.0477
400.00,0.0472
