Created as New Dataset,Sample 089 By YargerLab Date Thursday, August 14 2025
cm-1,A
4000.00,0.0056
3999.00,0.0056
3998.00,0.0056
3997.00,0.0056
3996.00,0.0056
3995.00,0.0056
3994.00,0.0056
3993.00,0.0056
3992.00,0.0056
3991.00,0.0056
3990.00,0.0056
3989.00,0.0056
3988.00,0.0056
3987.00,0.0056
3986.00,0.0056
3985.00,0.0056
3984.00,0.0056
3983.00,0.0056
3982.00,0.0056
3981.00,0.0056
3980.00,0.0056
3979.00,0.0056
3978.00,0.0056
3977.00,0.0056
3976.00,0.0056
3975.00,0.0056
3974.00,0.0056
3973.00,0.0056
3972.00,0.0056
3971.00,0.0056
3970.00,0.0056
3969.00,0.0056
3968.00,0.0056
3967.00,0.0056
3966.00,0.0056
3965.00,0.0056
3964.00,0.0056
3963.00,0.0056
3962.00,0.0056
3961.00,0.0056
3960.00,0.0056
3959.00,0.0056
3958.00,0.0056
3957.00,0.0056
3956.00,0.0056
3955.00,0.0056
3954.00,0.0056
3953.00,0.0056
3952.00,0.0056
3951.00,0.0056
3950.00,0.0056
3949.00,0.0056
3948.00,0.0056
3947.00,0.0056
3946.00,0.0056
3945.00,0.0056
3944.00,0.0056
3943.00,0.0056
3942.00,0.0056
3941.00,0.0056
3940.00,0.0056
3939.00,0.0056
3938.00,0.0056
3937.00,0.0056
3936.00,0.0056
3935.00,0.0056
3934.00,0.0056
3933.00,0.0056
3932.00,0.0056
3931.00,0.0056
3930.00,0.0056
3929.00,0.0056
3928.00,0.0056
3927.00,0.0056
3926.00,0.0056
3925.00,0.0055
3924.00,0.0055
3923.00,0.0056
3922.00,0.0056
3921.00,0.0056
3920.00,0.0056
3919.00,0.0056
3918.00,0.0056
3917.00,0.0056
3916.00,0.0056
3915.00,0.0056
3914.00,0.0056
3913.00,0.0056
3912.00,0.0056
3911.00,0.0056
3910.00,0.0056
3909.00,0.0056
3908.00,0.0056
3907.00,0.0057
3906.00,0.0057
3905.00,0.0058
3904.00,0.0058
3903.00,0.0058
3902.00,0.0058
3901.00,0.0058
3900.00,0.0057
3899.00,0.0057
3898.00,0.0057
3897.00,0.0057
3896.00,0.0056
3895.00,0.0056
3894.00,0.0056
3893.00,0.0056
3892.00,0.0056
3891.00,0.0056
3890.00,0.0057
3889.00,0.0057
3888.00,0.0057
3887.00,0.0057
3886.00,0.0056
3885.00,0.0056
3884.00,0.0056
3883.00,0.0056
3882.00,0.0056
3881.00,0.0056
3880.00,0.0056
3879.00,0.0056
3878.00,0.0056
3877.00,0.0056
3876.00,0.0056
3875.00,0.0056
3874.00,0.0056
3873.00,0.0057
3872.00,0.0057
3871.00,0.0057
3870.00,0.0057
3869.00,0.0057
3868.00,0.0057
3867.00,0.0057
3866.00,0.0056
3865.00,0.0056
3864.00,0.0056
3863.00,0.0056
3862.00,0.0056
3861.00,0.0056
3860.00,0.0056
3859.00,0.0056
3858.00,0.0056
3857.00,0.0057
3856.00,0.0057
3855.00,0.0058
3854.00,0.0058
3853.00,0.0058
3852.00,0.0058
3851.00,0.0058
3850.00,0.0057
3849.00,0.0057
3848.00,0.0056
3847.00,0.0056
3846.00,0.0056
3845.00,0.0056
3844.00,0.0056
3843.00,0.0056
3842.00,0.0056
3841.00,0.0057
3840.00,0.0057
3839.00,0.0057
3838.00,0.0057
3837.00,0.0057
3836.00,0.0057
3835.00,0.0057
3834.00,0.0057
3833.00,0.0057
3832.00,0.0056
3831.00,0.0056
3830.00,0.0056
3829.00,0.0056
3828.00,0.0056
3827.00,0.0056
3826.00,0.0056
3825.00,0.0056
3824.00,0.0057
3823.00,0.0057
3822.00,0.0057
3821.00,0.0057
3820.00,0.0057
3819.00,0.0057
3818.00,0.0057
3817.00,0.0057
3816.00,0.0057
3815.00,0.0056
3814.00,0.0056
3813.00,0.0056
3812.00,0.0056
3811.00,0.0056
3810.00,0.0056
3809.00,0.0056
3808.00,0.0056
3807.00,0.0056
3806.00,0.0056
3805.00,0.0056
3804.00,0.0056
3803.00,0.0056
3802.00,0.0056
3801.00,0.0056
3800.00,0.0056
3799.00,0.0056
3798.00,0.0056
3797.00,0.0056
3796.00,0.0056
3795.00,0.0056
3794.00,0.0055
3793.00,0.0055
3792.00,0.0055
3791.00,0.0055
3790.00,0.0055
3789.00,0.0055
3788.00,0.0055
3787.00,0.0055
3786.00,0.0055
3785.00,0.0055
3784.00,0.0055
3783.00,0.0056
3782.00,0.0056
3781.00,0.0056
3780.00,0.0055
3779.00,0.0055
3778.00,0.0055
3777.00,0.0055
3776.00,0.0055
3775.00,0.0055
3774.00,0.0055
3773.00,0.0055
3772.00,0.0055
3771.00,0.0055
3770.00,0.0055
3769.00,0.0055
3768.00,0.0055
3767.00,0.0055
3766.00,0.0056
3765.00,0.0056
3764.00,0.0056
3763.00,0.0056
3762.00,0.0056
3761.00,0.0056
3760.00,0.0056
3759.00,0.0056
3758.00,0.0056
3757.00,0.0056
3756.00,0.0056
3755.00,0.0056
3754.00,0.0057
3753.00,0.0057
3752.00,0.0058
3751.00,0.0058
3750.00,0.0059
3749.00,0.0059
3748.00,0.0059
3747.00,0.0060
3746.00,0.0059
3745.00,0.0059
3744.00,0.0058
3743.00,0.0058
3742.00,0.0058
3741.00,0.0058
3740.00,0.0057
3739.00,0.0057
3738.00,0.0057
3737.00,0.0057
3736.00,0.0057
3735.00,0.0057
3734.00,0.0056
3733.00,0.0056
3732.00,0.0056
3731.00,0.0055
3730.00,0.0055
3729.00,0.0054
3728.00,0.0054
3727.00,0.0054
3726.00,0.0055
3725.00,0.0055
3724.00,0.0055
3723.00,0.0054
3722.00,0.0054
3721.00,0.0054
3720.00,0.0054
3719.00,0.0054
3718.00,0.0054
3717.00,0.0054
3716.00,0.0054
3715.00,0.0055
3714.00,0.0055
3713.00,0.0056
3712.00,0.0056
3711.00,0.0055
3710.00,0.0055
3709.00,0.0055
3708.00,0.0055
3707.00,0.0054
3706.00,0.0054
3705.00,0.0054
3704.00,0.0053
3703.00,0.0053
3702.00,0.0053
3701.00,0.0053
3700.00,0.0053
3699.00,0.0053
3698.00,0.0053
3697.00,0.0054
3696.00,0.0053
3695.00,0.0053
3694.00,0.0054
3693.00,0.0054
3692.00,0.0054
3691.00,0.0054
3690.00,0.0054
3689.00,0.0054
3688.00,0.0054
3687.00,0.0055
3686.00,0.0055
3685.00,0.0055
3684.00,0.0055
3683.00,0.0055
3682.00,0.0055
3681.00,0.0055
3680.00,0.0055
3679.00,0.0056
3678.00,0.0057
3677.00,0.0057
3676.00,0.0057
3675.00,0.0058
3674.00,0.0058
3673.00,0.0058
3672.00,0.0058
3671.00,0.0059
3670.00,0.0058
3669.00,0.0058
3668.00,0.0058
3667.00,0.0058
3666.00,0.0058
3665.00,0.0057
3664.00,0.0058
3663.00,0.0058
3662.00,0.0058
3661.00,0.0058
3660.00,0.0059
3659.00,0.0059
3658.00,0.0059
3657.00,0.0059
3656.00,0.0060
3655.00,0.0060
3654.00,0.0060
3653.00,0.0061
3652.00,0.0061
3651.00,0.0062
3650.00,0.0062
3649.00,0.0063
3648.00,0.0063
3647.00,0.0064
3646.00,0.0064
3645.00,0.0064
3644.00,0.0064
3643.00,0.0063
3642.00,0.0063
3641.00,0.0063
3640.00,0.0064
3639.00,0.0064
3638.00,0.0064
3637.00,0.0064
3636.00,0.0064
3635.00,0.0065
3634.00,0.0065
3633.00,0.0066
3632.00,0.0067
3631.00,0.0068
3630.00,0.0068
3629.00,0.0069
3628.00,0.0069
3627.00,0.0070
3626.00,0.0070
3625.00,0.0071
3624.00,0.0071
3623.00,0.0071
3622.00,0.0072
3621.00,0.0073
3620.00,0.0074
3619.00,0.0075
3618.00,0.0076
3617.00,0.0076
3616.00,0.0077
3615.00,0.0077
3614.00,0.0077
3613.00,0.0078
3612.00,0.0078
3611.00,0.0078
3610.00,0.0079
3609.00,0.0079
3608.00,0.0080
3607.00,0.0080
3606.00,0.0081
3605.00,0.0081
3604.00,0.0082
3603.00,0.0082
3602.00,0.0082
3601.00,0.0083
3600.00,0.0083
3599.00,0.0084
3598.00,0.0084
3597.00,0.0085
3596.00,0.0086
3595.00,0.0087
3594.00,0.0088
3593.00,0.0089
3592.00,0.0089
3591.00,0.0090
3590.00,0.0091
3589.00,0.0092
3588.00,0.0093
3587.00,0.0094
3586.00,0.0095
3585.00,0.0096
3584.00,0.0097
3583.00,0.0098
3582.00,0.0099
3581.00,0.0099
3580.00,0.0100
3579.00,0.0101
3578.00,0.0102
3577.00,0.0103
3576.00,0.0104
3575.00,0.0105
3574.00,0.0106
3573.00,0.0107
3572.00,0.0109
3571.00,0.0110
3570.00,0.0111
3569.00,0.0112
3568.00,0.0113
3567.00,0.0114
3566.00,0.0116
3565.00,0.0117
3564.00,0.0118
3563.00,0.0119
3562.00,0.0121
3561.00,0.0122
3560.00,0.0123
3559.00,0.0124
3558.00,0.0125
3557.00,0.0126
3556.00,0.0127
3555.00,0.0128
3554.00,0.0129
3553.00,0.0130
3552.00,0.0131
3551.00,0.0132
3550.00,0.0133
3549.00,0.0135
3548.00,0.0136
3547.00,0.0137
3546.00,0.0139
3545.00,0.0140
3544.00,0.0142
3543.00,0.0143
3542.00,0.0144
3541.00,0.0145
3540.00,0.0146
3539.00,0.0147
3538.00,0.0148
3537.00,0.0149
3536.00,0.0150
3535.00,0.0151
3534.00,0.0152
3533.00,0.0153
3532.00,0.0155
3531.00,0.0156
3530.00,0.0158
3529.00,0.0159
3528.00,0.0160
3527.00,0.0162
3526.00,0.0163
3525.00,0.0165
3524.00,0.0166
3523.00,0.0167
3522.00,0.0168
3521.00,0.0170
3520.00,0.0171
3519.00,0.0172
3518.00,0.0174
3517.00,0.0175
3516.00,0.0176
3515.00,0.0178
3514.00,0.0179
3513.00,0.0180
3512.00,0.0181
3511.00,0.0183
3510.00,0.0184
3509.00,0.0186
3508.00,0.0187
3507.00,0.0189
3506.00,0.0191
3505.00,0.0192
3504.00,0.0194
3503.00,0.0196
3502.00,0.0197
3501.00,0.0199
3500.00,0.0200
3499.00,0.0202
3498.00,0.0204
3497.00,0.0205
3496.00,0.0207
3495.00,0.0209
3494.00,0.0211
3493.00,0.0212
3492.00,0.0214
3491.00,0.0217
3490.00,0.0219
3489.00,0.0222
3488.00,0.0224
3487.00,0.0227
3486.00,0.0229
3485.00,0.0232
3484.00,0.0236
3483.00,0.0239
3482.00,0.0243
3481.00,0.0247
3480.00,0.0251
3479.00,0.0255
3478.00,0.0259
3477.00,0.0264
3476.00,0.0269
3475.00,0.0274
3474.00,0.0280
3473.00,0.0286
3472.00,0.0292
3471.00,0.0299
3470.00,0.0306
3469.00,0.0313
3468.00,0.0320
3467.00,0.0328
3466.00,0.0334
3465.00,0.0341
3464.00,0.0348
3463.00,0.0354
3462.00,0.0360
3461.00,0.0365
3460.00,0.0369
3459.00,0.0373
3458.00,0.0374
3457.00,0.0375
3456.00,0.0375
3455.00,0.0374
3454.00,0.0371
3453.00,0.0369
3452.00,0.0365
3451.00,0.0361
3450.00,0.0357
3449.00,0.0353
3448.00,0.0348
3447.00,0.0344
3446.00,0.0340
3445.00,0.0337
3444.00,0.0334
3443.00,0.0331
3442.00,0.0329
3441.00,0.0327
3440.00,0.0325
3439.00,0.0324
3438.00,0.0324
3437.00,0.0324
3436.00,0.0324
3435.00,0.0325
3434.00,0.0325
3433.00,0.0326
3432.00,0.0327
3431.00,0.0328
3430.00,0.0328
3429.00,0.0329
3428.00,0.0330
3427.00,0.0330
3426.00,0.0331
3425.00,0.0331
3424.00,0.0331
3423.00,0.0331
3422.00,0.0330
3421.00,0.0329
3420.00,0.0328
3419.00,0.0326
3418.00,0.0324
3417.00,0.0322
3416.00,0.0320
3415.00,0.0318
3414.00,0.0316
3413.00,0.0313
3412.00,0.0311
3411.00,0.0308
3410.00,0.0306
3409.00,0.0304
3408.00,0.0301
3407.00,0.0299
3406.00,0.0297
3405.00,0.0295
3404.00,0.0293
3403.00,0.0291
3402.00,0.0290
3401.00,0.0288
3400.00,0.0287
3399.00,0.0285
3398.00,0.0284
3397.00,0.0283
3396.00,0.0282
3395.00,0.0281
3394.00,0.0280
3393.00,0.0279
3392.00,0.0278
3391.00,0.0277
3390.00,0.0277
3389.00,0.0276
3388.00,0.0276
3387.00,0.0275
3386.00,0.0275
3385.00,0.0274
3384.00,0.0274
3383.00,0.0273
3382.00,0.0273
3381.00,0.0272
3380.00,0.0272
3379.00,0.0272
3378.00,0.0272
3377.00,0.0272
3376.00,0.0271
3375.00,0.0271
3374.00,0.0271
3373.00,0.0271
3372.00,0.0271
3371.00,0.0271
3370.00,0.0271
3369.00,0.0271
3368.00,0.0271
3367.00,0.0271
3366.00,0.0271
3365.00,0.0270
3364.00,0.0270
3363.00,0.0270
3362.00,0.0270
3361.00,0.0270
3360.00,0.0269
3359.00,0.0269
3358.00,0.0269
3357.00,0.0269
3356.00,0.0269
3355.00,0.0269
3354.00,0.0270
3353.00,0.0270
3352.00,0.0270
3351.00,0.0270
3350.00,0.0270
3349.00,0.0270
3348.00,0.0270
3347.00,0.0270
3346.00,0.0270
3345.00,0.0270
3344.00,0.0270
3343.00,0.0270
3342.00,0.0271
3341.00,0.0271
3340.00,0.0271
3339.00,0.0271
3338.00,0.0272
3337.00,0.0272
3336.00,0.0273
3335.00,0.0274
3334.00,0.0274
3333.00,0.0275
3332.00,0.0275
3331.00,0.0276
3330.00,0.0277
3329.00,0.0277
3328.00,0.0278
3327.00,0.0278
3326.00,0.0279
3325.00,0.0280
3324.00,0.0281
3323.00,0.0282
3322.00,0.0283
3321.00,0.0285
3320.00,0.0286
3319.00,0.0288
3318.00,0.0289
3317.00,0.0291
3316.00,0.0292
3315.00,0.0293
3314.00,0.0294
3313.00,0.0296
3312.00,0.0297
3311.00,0.0298
3310.00,0.0300
3309.00,0.0302
3308.00,0.0304
3307.00,0.0305
3306.00,0.0307
3305.00,0.0310
3304.00,0.0312
3303.00,0.0314
3302.00,0.0316
3301.00,0.0318
3300.00,0.0321
3299.00,0.0323
3298.00,0.0325
3297.00,0.0327
3296.00,0.0330
3295.00,0.0332
3294.00,0.0335
3293.00,0.0337
3292.00,0.0340
3291.00,0.0343
3290.00,0.0346
3289.00,0.0349
3288.00,0.0351
3287.00,0.0354
3286.00,0.0357
3285.00,0.0360
3284.00,0.0362
3283.00,0.0365
3282.00,0.0368
3281.00,0.0371
3280.00,0.0374
3279.00,0.0377
3278.00,0.0379
3277.00,0.0382
3276.00,0.0384
3275.00,0.0386
3274.00,0.0388
3273.00,0.0390
3272.00,0.0392
3271.00,0.0394
3270.00,0.0396
3269.00,0.0397
3268.00,0.0399
3267.00,0.0400
3266.00,0.0401
3265.00,0.0401
3264.00,0.0401
3263.00,0.0401
3262.00,0.0401
3261.00,0.0401
3260.00,0.0401
3259.00,0.0400
3258.00,0.0399
3257.00,0.0398
3256.00,0.0397
3255.00,0.0396
3254.00,0.0395
3253.00,0.0394
3252.00,0.0392
3251.00,0.0390
3250.00,0.0387
3249.00,0.0385
3248.00,0.0383
3247.00,0.0380
3246.00,0.0377
3245.00,0.0374
3244.00,0.0371
3243.00,0.0368
3242.00,0.0365
3241.00,0.0361
3240.00,0.0358
3239.00,0.0354
3238.00,0.0351
3237.00,0.0348
3236.00,0.0345
3235.00,0.0342
3234.00,0.0338
3233.00,0.0335
3232.00,0.0332
3231.00,0.0329
3230.00,0.0327
3229.00,0.0324
3228.00,0.0321
3227.00,0.0319
3226.00,0.0316
3225.00,0.0314
3224.00,0.0312
3223.00,0.0309
3222.00,0.0307
3221.00,0.0305
3220.00,0.0303
3219.00,0.0301
3218.00,0.0300
3217.00,0.0298
3216.00,0.0297
3215.00,0.0296
3214.00,0.0294
3213.00,0.0293
3212.00,0.0291
3211.00,0.0290
3210.00,0.0289
3209.00,0.0287
3208.00,0.0286
3207.00,0.0285
3206.00,0.0283
3205.00,0.0282
3204.00,0.0281
3203.00,0.0279
3202.00,0.0278
3201.00,0.0277
3200.00,0.0276
3199.00,0.0275
3198.00,0.0274
3197.00,0.0273
3196.00,0.0272
3195.00,0.0271
3194.00,0.0270
3193.00,0.0269
3192.00,0.0268
3191.00,0.0268
3190.00,0.0267
3189.00,0.0266
3188.00,0.0265
3187.00,0.0264
3186.00,0.0264
3185.00,0.0263
3184.00,0.0262
3183.00,0.0261
3182.00,0.0260
3181.00,0.0259
3180.00,0.0258
3179.00,0.0257
3178.00,0.0257
3177.00,0.0256
3176.00,0.0255
3175.00,0.0254
3174.00,0.0253
3173.00,0.0252
3172.00,0.0251
3171.00,0.0250
3170.00,0.0249
3169.00,0.0248
3168.00,0.0246
3167.00,0.0245
3166.00,0.0244
3165.00,0.0242
3164.00,0.0241
3163.00,0.0239
3162.00,0.0237
3161.00,0.0236
3160.00,0.0234
3159.00,0.0233
3158.00,0.0231
3157.00,0.0229
3156.00,0.0228
3155.00,0.0226
3154.00,0.0225
3153.00,0.0223
3152.00,0.0222
3151.00,0.0221
3150.00,0.0220
3149.00,0.0219
3148.00,0.0218
3147.00,0.0217
3146.00,0.0216
3145.00,0.0215
3144.00,0.0214
3143.00,0.0213
3142.00,0.0212
3141.00,0.0211
3140.00,0.0210
3139.00,0.0209
3138.00,0.0207
3137.00,0.0206
3136.00,0.0205
3135.00,0.0204
3134.00,0.0203
3133.00,0.0201
3132.00,0.0200
3131.00,0.0199
3130.00,0.0197
3129.00,0.0196
3128.00,0.0194
3127.00,0.0193
3126.00,0.0192
3125.00,0.0190
3124.00,0.0189
3123.00,0.0188
3122.00,0.0187
3121.00,0.0185
3120.00,0.0184
3119.00,0.0183
3118.00,0.0182
3117.00,0.0181
3116.00,0.0180
3115.00,0.0179
3114.00,0.0178
3113.00,0.0177
3112.00,0.0176
3111.00,0.0175
3110.00,0.0174
3109.00,0.0174
3108.00,0.0173
3107.00,0.0172
3106.00,0.0171
3105.00,0.0170
3104.00,0.0170
3103.00,0.0169
3102.00,0.0168
3101.00,0.0167
3100.00,0.0167
3099.00,0.0166
3098.00,0.0165
3097.00,0.0164
3096.00,0.0163
3095.00,0.0162
3094.00,0.0161
3093.00,0.0160
3092.00,0.0159
3091.00,0.0158
3090.00,0.0157
3089.00,0.0156
3088.00,0.0156
3087.00,0.0155
3086.00,0.0154
3085.00,0.0153
3084.00,0.0152
3083.00,0.0152
3082.00,0.0151
3081.00,0.0151
3080.00,0.0150
3079.00,0.0150
3078.00,0.0150
3077.00,0.0150
3076.00,0.0150
3075.00,0.0149
3074.00,0.0149
3073.00,0.0149
3072.00,0.0148
3071.00,0.0147
3070.00,0.0146
3069.00,0.0146
3068.00,0.0145
3067.00,0.0144
3066.00,0.0143
3065.00,0.0143
3064.00,0.0142
3063.00,0.0142
3062.00,0.0142
3061.00,0.0142
3060.00,0.0142
3059.00,0.0142
3058.00,0.0142
3057.00,0.0142
3056.00,0.0142
3055.00,0.0142
3054.00,0.0143
3053.00,0.0143
3052.00,0.0143
3051.00,0.0143
3050.00,0.0143
3049.00,0.0143
3048.00,0.0143
3047.00,0.0142
3046.00,0.0142
3045.00,0.0141
3044.00,0.0141
3043.00,0.0142
3042.00,0.0142
3041.00,0.0143
3040.00,0.0144
3039.00,0.0145
3038.00,0.0146
3037.00,0.0147
3036.00,0.0148
3035.00,0.0148
3034.00,0.0148
3033.00,0.0149
3032.00,0.0149
3031.00,0.0149
3030.00,0.0149
3029.00,0.0149
3028.00,0.0149
3027.00,0.0149
3026.00,0.0148
3025.00,0.0148
3024.00,0.0148
3023.00,0.0148
3022.00,0.0148
3021.00,0.0148
3020.00,0.0148
3019.00,0.0147
3018.00,0.0147
3017.00,0.0148
3016.00,0.0148
3015.00,0.0149
3014.00,0.0150
3013.00,0.0152
3012.00,0.0154
3011.00,0.0156
3010.00,0.0158
3009.00,0.0160
3008.00,0.0163
3007.00,0.0165
3006.00,0.0168
3005.00,0.0171
3004.00,0.0174
3003.00,0.0177
3002.00,0.0179
3001.00,0.0182
3000.00,0.0184
2999.00,0.0186
2998.00,0.0189
2997.00,0.0191
2996.00,0.0193
2995.00,0.0196
2994.00,0.0199
2993.00,0.0203
2992.00,0.0207
2991.00,0.0212
2990.00,0.0218
2989.00,0.0224
2988.00,0.0230
2987.00,0.0237
2986.00,0.0244
2985.00,0.0250
2984.00,0.0256
2983.00,0.0261
2982.00,0.0265
2981.00,0.0268
2980.00,0.0270
2979.00,0.0272
2978.00,0.0274
2977.00,0.0276
2976.00,0.0279
2975.00,0.0283
2974.00,0.0290
2973.00,0.0300
2972.00,0.0317
2971.00,0.0340
2970.00,0.0371
2969.00,0.0409
2968.00,0.0452
2967.00,0.0496
2966.00,0.0535
2965.00,0.0564
2964.00,0.0577
2963.00,0.0574
2962.00,0.0557
2961.00,0.0532
2960.00,0.0505
2959.00,0.0481
2958.00,0.0465
2957.00,0.0456
2956.00,0.0456
2955.00,0.0463
2954.00,0.0474
2953.00,0.0485
2952.00,0.0491
2951.00,0.0488
2950.00,0.0476
2949.00,0.0457
2948.00,0.0437
2947.00,0.0419
2946.00,0.0407
2945.00,0.0403
2944.00,0.0405
2943.00,0.0415
2942.00,0.0432
2941.00,0.0454
2940.00,0.0481
2939.00,0.0511
2938.00,0.0540
2937.00,0.0566
2936.00,0.0586
2935.00,0.0600
2934.00,0.0608
2933.00,0.0614
2932.00,0.0621
2931.00,0.0631
2930.00,0.0648
2929.00,0.0673
2928.00,0.0707
2927.00,0.0747
2926.00,0.0789
2925.00,0.0825
2924.00,0.0848
2923.00,0.0855
2922.00,0.0847
2921.00,0.0829
2920.00,0.0807
2919.00,0.0784
2918.00,0.0762
2917.00,0.0743
2916.00,0.0728
2915.00,0.0716
2914.00,0.0707
2913.00,0.0700
2912.00,0.0692
2911.00,0.0682
2910.00,0.0670
2909.00,0.0656
2908.00,0.0639
2907.00,0.0621
2906.00,0.0602
2905.00,0.0582
2904.00,0.0562
2903.00,0.0543
2902.00,0.0525
2901.00,0.0509
2900.00,0.0495
2899.00,0.0482
2898.00,0.0471
2897.00,0.0462
2896.00,0.0455
2895.00,0.0450
2894.00,0.0445
2893.00,0.0439
2892.00,0.0433
2891.00,0.0425
2890.00,0.0418
2889.00,0.0410
2888.00,0.0404
2887.00,0.0398
2886.00,0.0392
2885.00,0.0388
2884.00,0.0384
2883.00,0.0381
2882.00,0.0378
2881.00,0.0377
2880.00,0.0376
2879.00,0.0376
2878.00,0.0377
2877.00,0.0380
2876.00,0.0384
2875.00,0.0390
2874.00,0.0399
2873.00,0.0408
2872.00,0.0417
2871.00,0.0421
2870.00,0.0422
2869.00,0.0419
2868.00,0.0414
2867.00,0.0411
2866.00,0.0410
2865.00,0.0415
2864.00,0.0427
2863.00,0.0444
2862.00,0.0469
2861.00,0.0498
2860.00,0.0529
2859.00,0.0559
2858.00,0.0581
2857.00,0.0595
2856.00,0.0598
2855.00,0.0593
2854.00,0.0581
2853.00,0.0567
2852.00,0.0552
2851.00,0.0536
2850.00,0.0522
2849.00,0.0507
2848.00,0.0492
2847.00,0.0474
2846.00,0.0454
2845.00,0.0430
2844.00,0.0405
2843.00,0.0379
2842.00,0.0355
2841.00,0.0333
2840.00,0.0314
2839.00,0.0297
2838.00,0.0283
2837.00,0.0271
2836.00,0.0260
2835.00,0.0250
2834.00,0.0242
2833.00,0.0235
2832.00,0.0229
2831.00,0.0223
2830.00,0.0218
2829.00,0.0213
2828.00,0.0208
2827.00,0.0204
2826.00,0.0200
2825.00,0.0196
2824.00,0.0192
2823.00,0.0188
2822.00,0.0184
2821.00,0.0181
2820.00,0.0177
2819.00,0.0174
2818.00,0.0172
2817.00,0.0169
2816.00,0.0166
2815.00,0.0164
2814.00,0.0162
2813.00,0.0160
2812.00,0.0158
2811.00,0.0157
2810.00,0.0155
2809.00,0.0154
2808.00,0.0153
2807.00,0.0151
2806.00,0.0150
2805.00,0.0149
2804.00,0.0148
2803.00,0.0147
2802.00,0.0146
2801.00,0.0145
2800.00,0.0144
2799.00,0.0143
2798.00,0.0142
2797.00,0.0141
2796.00,0.0140
2795.00,0.0139
2794.00,0.0138
2793.00,0.0137
2792.00,0.0136
2791.00,0.0135
2790.00,0.0134
2789.00,0.0133
2788.00,0.0133
2787.00,0.0132
2786.00,0.0132
2785.00,0.0131
2784.00,0.0131
2783.00,0.0130
2782.00,0.0130
2781.00,0.0129
2780.00,0.0128
2779.00,0.0128
2778.00,0.0127
2777.00,0.0127
2776.00,0.0126
2775.00,0.0126
2774.00,0.0126
2773.00,0.0125
2772.00,0.0125
2771.00,0.0125
2770.00,0.0124
2769.00,0.0124
2768.00,0.0124
2767.00,0.0124
2766.00,0.0123
2765.00,0.0123
2764.00,0.0123
2763.00,0.0123
2762.00,0.0123
2761.00,0.0123
2760.00,0.0123
2759.00,0.0123
2758.00,0.0123
2757.00,0.0123
2756.00,0.0123
2755.00,0.0123
2754.00,0.0123
2753.00,0.0123
2752.00,0.0123
2751.00,0.0123
2750.00,0.0124
2749.00,0.0124
2748.00,0.0124
2747.00,0.0124
2746.00,0.0124
2745.00,0.0125
2744.00,0.0125
2743.00,0.0125
2742.00,0.0125
2741.00,0.0125
2740.00,0.0126
2739.00,0.0126
2738.00,0.0126
2737.00,0.0127
2736.00,0.0128
2735.00,0.0130
2734.00,0.0132
2733.00,0.0134
2732.00,0.0136
2731.00,0.0137
2730.00,0.0136
2729.00,0.0136
2728.00,0.0135
2727.00,0.0134
2726.00,0.0133
2725.00,0.0132
2724.00,0.0132
2723.00,0.0131
2722.00,0.0130
2721.00,0.0129
2720.00,0.0127
2719.00,0.0126
2718.00,0.0125
2717.00,0.0124
2716.00,0.0123
2715.00,0.0122
2714.00,0.0121
2713.00,0.0120
2712.00,0.0120
2711.00,0.0119
2710.00,0.0119
2709.00,0.0118
2708.00,0.0118
2707.00,0.0117
2706.00,0.0117
2705.00,0.0117
2704.00,0.0117
2703.00,0.0116
2702.00,0.0116
2701.00,0.0116
2700.00,0.0116
2699.00,0.0116
2698.00,0.0116
2697.00,0.0116
2696.00,0.0116
2695.00,0.0116
2694.00,0.0116
2693.00,0.0116
2692.00,0.0116
2691.00,0.0116
2690.00,0.0116
2689.00,0.0117
2688.00,0.0117
2687.00,0.0117
2686.00,0.0117
2685.00,0.0117
2684.00,0.0117
2683.00,0.0117
2682.00,0.0117
2681.00,0.0116
2680.00,0.0116
2679.00,0.0116
2678.00,0.0115
2677.00,0.0115
2676.00,0.0114
2675.00,0.0114
2674.00,0.0114
2673.00,0.0113
2672.00,0.0113
2671.00,0.0113
2670.00,0.0113
2669.00,0.0112
2668.00,0.0112
2667.00,0.0112
2666.00,0.0112
2665.00,0.0112
2664.00,0.0112
2663.00,0.0112
2662.00,0.0113
2661.00,0.0113
2660.00,0.0113
2659.00,0.0113
2658.00,0.0113
2657.00,0.0113
2656.00,0.0112
2655.00,0.0112
2654.00,0.0112
2653.00,0.0111
2652.00,0.0111
2651.00,0.0111
2650.00,0.0110
2649.00,0.0110
2648.00,0.0110
2647.00,0.0109
2646.00,0.0109
2645.00,0.0109
2644.00,0.0109
2643.00,0.0109
2642.00,0.0108
2641.00,0.0108
2640.00,0.0108
2639.00,0.0108
2638.00,0.0108
2637.00,0.0107
2636.00,0.0107
2635.00,0.0107
2634.00,0.0107
2633.00,0.0107
2632.00,0.0107
2631.00,0.0106
2630.00,0.0106
2629.00,0.0106
2628.00,0.0105
2627.00,0.0105
2626.00,0.0105
2625.00,0.0105
2624.00,0.0104
2623.00,0.0104
2622.00,0.0104
2621.00,0.0103
2620.00,0.0103
2619.00,0.0103
2618.00,0.0103
2617.00,0.0102
2616.00,0.0102
2615.00,0.0102
2614.00,0.0102
2613.00,0.0102
2612.00,0.0101
2611.00,0.0101
2610.00,0.0101
2609.00,0.0100
2608.00,0.0100
2607.00,0.0100
2606.00,0.0099
2605.00,0.0099
2604.00,0.0099
2603.00,0.0099
2602.00,0.0098
2601.00,0.0098
2600.00,0.0098
2599.00,0.0097
2598.00,0.0097
2597.00,0.0097
2596.00,0.0097
2595.00,0.0097
2594.00,0.0096
2593.00,0.0096
2592.00,0.0096
2591.00,0.0096
2590.00,0.0095
2589.00,0.0095
2588.00,0.0095
2587.00,0.0095
2586.00,0.0095
2585.00,0.0095
2584.00,0.0095
2583.00,0.0095
2582.00,0.0095
2581.00,0.0095
2580.00,0.0095
2579.00,0.0095
2578.00,0.0095
2577.00,0.0095
2576.00,0.0095
2575.00,0.0094
2574.00,0.0094
2573.00,0.0094
2572.00,0.0094
2571.00,0.0094
2570.00,0.0094
2569.00,0.0094
2568.00,0.0094
2567.00,0.0093
2566.00,0.0093
2565.00,0.0093
2564.00,0.0093
2563.00,0.0093
2562.00,0.0092
2561.00,0.0092
2560.00,0.0092
2559.00,0.0091
2558.00,0.0090
2557.00,0.0090
2556.00,0.0090
2555.00,0.0090
2554.00,0.0090
2553.00,0.0090
2552.00,0.0090
2551.00,0.0090
2550.00,0.0090
2549.00,0.0090
2548.00,0.0089
2547.00,0.0089
2546.00,0.0089
2545.00,0.0089
2544.00,0.0089
2543.00,0.0089
2542.00,0.0089
2541.00,0.0089
2540.00,0.0088
2539.00,0.0088
2538.00,0.0088
2537.00,0.0088
2536.00,0.0088
2535.00,0.0088
2534.00,0.0088
2533.00,0.0088
2532.00,0.0088
2531.00,0.0088
2530.00,0.0089
2529.00,0.0089
2528.00,0.0088
2527.00,0.0088
2526.00,0.0087
2525.00,0.0087
2524.00,0.0086
2523.00,0.0087
2522.00,0.0086
2521.00,0.0086
2520.00,0.0086
2519.00,0.0086
2518.00,0.0085
2517.00,0.0085
2516.00,0.0085
2515.00,0.0086
2514.00,0.0086
2513.00,0.0086
2512.00,0.0086
2511.00,0.0086
2510.00,0.0085
2509.00,0.0085
2508.00,0.0084
2507.00,0.0084
2506.00,0.0084
2505.00,0.0084
2504.00,0.0084
2503.00,0.0084
2502.00,0.0084
2501.00,0.0084
2500.00,0.0084
2499.00,0.0084
2498.00,0.0084
2497.00,0.0084
2496.00,0.0084
2495.00,0.0084
2494.00,0.0084
2493.00,0.0084
2492.00,0.0084
2491.00,0.0083
2490.00,0.0083
2489.00,0.0083
2488.00,0.0083
2487.00,0.0083
2486.00,0.0083
2485.00,0.0082
2484.00,0.0082
2483.00,0.0082
2482.00,0.0081
2481.00,0.0081
2480.00,0.0081
2479.00,0.0081
2478.00,0.0081
2477.00,0.0082
2476.00,0.0082
2475.00,0.0082
2474.00,0.0082
2473.00,0.0082
2472.00,0.0082
2471.00,0.0081
2470.00,0.0081
2469.00,0.0081
2468.00,0.0081
2467.00,0.0081
2466.00,0.0081
2465.00,0.0081
2464.00,0.0081
2463.00,0.0081
2462.00,0.0081
2461.00,0.0081
2460.00,0.0082
2459.00,0.0082
2458.00,0.0082
2457.00,0.0082
2456.00,0.0082
2455.00,0.0082
2454.00,0.0082
2453.00,0.0081
2452.00,0.0081
2451.00,0.0081
2450.00,0.0081
2449.00,0.0081
2448.00,0.0081
2447.00,0.0081
2446.00,0.0080
2445.00,0.0080
2444.00,0.0080
2443.00,0.0080
2442.00,0.0080
2441.00,0.0080
2440.00,0.0080
2439.00,0.0079
2438.00,0.0079
2437.00,0.0078
2436.00,0.0078
2435.00,0.0079
2434.00,0.0079
2433.00,0.0079
2432.00,0.0079
2431.00,0.0078
2430.00,0.0078
2429.00,0.0078
2428.00,0.0078
2427.00,0.0078
2426.00,0.0078
2425.00,0.0078
2424.00,0.0078
2423.00,0.0078
2422.00,0.0077
2421.00,0.0077
2420.00,0.0077
2419.00,0.0077
2418.00,0.0077
2417.00,0.0077
2416.00,0.0077
2415.00,0.0077
2414.00,0.0077
2413.00,0.0077
2412.00,0.0077
2411.00,0.0077
2410.00,0.0077
2409.00,0.0077
2408.00,0.0077
2407.00,0.0076
2406.00,0.0076
2405.00,0.0076
2404.00,0.0076
2403.00,0.0076
2402.00,0.0076
2401.00,0.0075
2400.00,0.0075
2399.00,0.0075
2398.00,0.0075
2397.00,0.0075
2396.00,0.0075
2395.00,0.0075
2394.00,0.0075
2393.00,0.0075
2392.00,0.0075
2391.00,0.0075
2390.00,0.0075
2389.00,0.0075
2388.00,0.0075
2387.00,0.0075
2386.00,0.0075
2385.00,0.0074
2384.00,0.0073
2383.00,0.0072
2382.00,0.0071
2381.00,0.0070
2380.00,0.0069
2379.00,0.0068
2378.00,0.0068
2377.00,0.0068
2376.00,0.0068
2375.00,0.0068
2374.00,0.0068
2373.00,0.0068
2372.00,0.0068
2371.00,0.0067
2370.00,0.0066
2369.00,0.0066
2368.00,0.0066
2367.00,0.0067
2366.00,0.0067
2365.00,0.0067
2364.00,0.0068
2363.00,0.0068
2362.00,0.0067
2361.00,0.0067
2360.00,0.0067
2359.00,0.0067
2358.00,0.0067
2357.00,0.0067
2356.00,0.0067
2355.00,0.0067
2354.00,0.0068
2353.00,0.0068
2352.00,0.0068
2351.00,0.0068
2350.00,0.0068
2349.00,0.0068
2348.00,0.0068
2347.00,0.0069
2346.00,0.0070
2345.00,0.0070
2344.00,0.0070
2343.00,0.0069
2342.00,0.0069
2341.00,0.0069
2340.00,0.0070
2339.00,0.0070
2338.00,0.0071
2337.00,0.0071
2336.00,0.0072
2335.00,0.0072
2334.00,0.0072
2333.00,0.0072
2332.00,0.0072
2331.00,0.0072
2330.00,0.0072
2329.00,0.0074
2328.00,0.0077
2327.00,0.0080
2326.00,0.0083
2325.00,0.0084
2324.00,0.0084
2323.00,0.0082
2322.00,0.0080
2321.00,0.0078
2320.00,0.0077
2319.00,0.0076
2318.00,0.0075
2317.00,0.0075
2316.00,0.0075
2315.00,0.0075
2314.00,0.0074
2313.00,0.0074
2312.00,0.0073
2311.00,0.0073
2310.00,0.0072
2309.00,0.0071
2308.00,0.0071
2307.00,0.0071
2306.00,0.0072
2305.00,0.0072
2304.00,0.0073
2303.00,0.0073
2302.00,0.0074
2301.00,0.0074
2300.00,0.0074
2299.00,0.0075
2298.00,0.0075
2297.00,0.0075
2296.00,0.0076
2295.00,0.0077
2294.00,0.0078
2293.00,0.0079
2292.00,0.0080
2291.00,0.0080
2290.00,0.0081
2289.00,0.0082
2288.00,0.0082
2287.00,0.0082
2286.00,0.0082
2285.00,0.0081
2284.00,0.0080
2283.00,0.0080
2282.00,0.0079
2281.00,0.0079
2280.00,0.0079
2279.00,0.0078
2278.00,0.0077
2277.00,0.0077
2276.00,0.0077
2275.00,0.0077
2274.00,0.0077
2273.00,0.0077
2272.00,0.0077
2271.00,0.0077
2270.00,0.0077
2269.00,0.0076
2268.00,0.0076
2267.00,0.0075
2266.00,0.0075
2265.00,0.0074
2264.00,0.0074
2263.00,0.0074
2262.00,0.0074
2261.00,0.0074
2260.00,0.0075
2259.00,0.0075
2258.00,0.0074
2257.00,0.0073
2256.00,0.0072
2255.00,0.0072
2254.00,0.0072
2253.00,0.0072
2252.00,0.0073
2251.00,0.0074
2250.00,0.0074
2249.00,0.0074
2248.00,0.0075
2247.00,0.0075
2246.00,0.0075
2245.00,0.0075
2244.00,0.0075
2243.00,0.0075
2242.00,0.0075
2241.00,0.0075
2240.00,0.0075
2239.00,0.0074
2238.00,0.0074
2237.00,0.0074
2236.00,0.0074
2235.00,0.0075
2234.00,0.0075
2233.00,0.0075
2232.00,0.0075
2231.00,0.0075
2230.00,0.0074
2229.00,0.0075
2228.00,0.0075
2227.00,0.0075
2226.00,0.0076
2225.00,0.0076
2224.00,0.0076
2223.00,0.0076
2222.00,0.0075
2221.00,0.0075
2220.00,0.0075
2219.00,0.0076
2218.00,0.0077
2217.00,0.0077
2216.00,0.0078
2215.00,0.0077
2214.00,0.0076
2213.00,0.0074
2212.00,0.0073
2211.00,0.0073
2210.00,0.0073
2209.00,0.0074
2208.00,0.0075
2207.00,0.0076
2206.00,0.0076
2205.00,0.0077
2204.00,0.0077
2203.00,0.0077
2202.00,0.0078
2201.00,0.0078
2200.00,0.0079
2199.00,0.0078
2198.00,0.0077
2197.00,0.0076
2196.00,0.0076
2195.00,0.0075
2194.00,0.0075
2193.00,0.0075
2192.00,0.0076
2191.00,0.0076
2190.00,0.0077
2189.00,0.0077
2188.00,0.0078
2187.00,0.0078
2186.00,0.0077
2185.00,0.0075
2184.00,0.0074
2183.00,0.0073
2182.00,0.0072
2181.00,0.0073
2180.00,0.0074
2179.00,0.0074
2178.00,0.0073
2177.00,0.0073
2176.00,0.0072
2175.00,0.0072
2174.00,0.0074
2173.00,0.0077
2172.00,0.0080
2171.00,0.0083
2170.00,0.0084
2169.00,0.0085
2168.00,0.0086
2167.00,0.0086
2166.00,0.0088
2165.00,0.0091
2164.00,0.0093
2163.00,0.0093
2162.00,0.0087
2161.00,0.0076
2160.00,0.0061
2159.00,0.0049
2158.00,0.0043
2157.00,0.0044
2156.00,0.0048
2155.00,0.0051
2154.00,0.0054
2153.00,0.0056
2152.00,0.0058
2151.00,0.0058
2150.00,0.0058
2149.00,0.0058
2148.00,0.0058
2147.00,0.0058
2146.00,0.0058
2145.00,0.0058
2144.00,0.0058
2143.00,0.0058
2142.00,0.0059
2141.00,0.0059
2140.00,0.0060
2139.00,0.0060
2138.00,0.0059
2137.00,0.0058
2136.00,0.0056
2135.00,0.0055
2134.00,0.0055
2133.00,0.0056
2132.00,0.0057
2131.00,0.0059
2130.00,0.0061
2129.00,0.0063
2128.00,0.0064
2127.00,0.0064
2126.00,0.0064
2125.00,0.0064
2124.00,0.0065
2123.00,0.0066
2122.00,0.0067
2121.00,0.0068
2120.00,0.0069
2119.00,0.0070
2118.00,0.0071
2117.00,0.0073
2116.00,0.0075
2115.00,0.0076
2114.00,0.0076
2113.00,0.0076
2112.00,0.0076
2111.00,0.0075
2110.00,0.0075
2109.00,0.0075
2108.00,0.0075
2107.00,0.0074
2106.00,0.0073
2105.00,0.0073
2104.00,0.0072
2103.00,0.0072
2102.00,0.0072
2101.00,0.0072
2100.00,0.0072
2099.00,0.0071
2098.00,0.0070
2097.00,0.0068
2096.00,0.0066
2095.00,0.0065
2094.00,0.0065
2093.00,0.0065
2092.00,0.0067
2091.00,0.0067
2090.00,0.0068
2089.00,0.0069
2088.00,0.0069
2087.00,0.0070
2086.00,0.0070
2085.00,0.0069
2084.00,0.0069
2083.00,0.0070
2082.00,0.0070
2081.00,0.0071
2080.00,0.0072
2079.00,0.0072
2078.00,0.0071
2077.00,0.0070
2076.00,0.0070
2075.00,0.0070
2074.00,0.0069
2073.00,0.0069
2072.00,0.0070
2071.00,0.0070
2070.00,0.0069
2069.00,0.0069
2068.00,0.0070
2067.00,0.0070
2066.00,0.0070
2065.00,0.0070
2064.00,0.0070
2063.00,0.0070
2062.00,0.0070
2061.00,0.0070
2060.00,0.0071
2059.00,0.0071
2058.00,0.0070
2057.00,0.0070
2056.00,0.0069
2055.00,0.0070
2054.00,0.0072
2053.00,0.0075
2052.00,0.0079
2051.00,0.0079
2050.00,0.0076
2049.00,0.0073
2048.00,0.0070
2047.00,0.0068
2046.00,0.0067
2045.00,0.0066
2044.00,0.0067
2043.00,0.0067
2042.00,0.0066
2041.00,0.0066
2040.00,0.0067
2039.00,0.0068
2038.00,0.0069
2037.00,0.0070
2036.00,0.0070
2035.00,0.0068
2034.00,0.0065
2033.00,0.0063
2032.00,0.0061
2031.00,0.0059
2030.00,0.0057
2029.00,0.0055
2028.00,0.0055
2027.00,0.0054
2026.00,0.0052
2025.00,0.0052
2024.00,0.0054
2023.00,0.0056
2022.00,0.0057
2021.00,0.0058
2020.00,0.0058
2019.00,0.0057
2018.00,0.0055
2017.00,0.0055
2016.00,0.0056
2015.00,0.0057
2014.00,0.0057
2013.00,0.0058
2012.00,0.0060
2011.00,0.0062
2010.00,0.0062
2009.00,0.0060
2008.00,0.0057
2007.00,0.0053
2006.00,0.0051
2005.00,0.0051
2004.00,0.0053
2003.00,0.0054
2002.00,0.0054
2001.00,0.0055
2000.00,0.0057
1999.00,0.0058
1998.00,0.0060
1997.00,0.0062
1996.00,0.0064
1995.00,0.0065
1994.00,0.0065
1993.00,0.0066
1992.00,0.0066
1991.00,0.0067
1990.00,0.0067
1989.00,0.0068
1988.00,0.0069
1987.00,0.0069
1986.00,0.0070
1985.00,0.0071
1984.00,0.0073
1983.00,0.0075
1982.00,0.0076
1981.00,0.0075
1980.00,0.0073
1979.00,0.0068
1978.00,0.0062
1977.00,0.0059
1976.00,0.0057
1975.00,0.0056
1974.00,0.0055
1973.00,0.0054
1972.00,0.0054
1971.00,0.0054
1970.00,0.0054
1969.00,0.0055
1968.00,0.0056
1967.00,0.0058
1966.00,0.0059
1965.00,0.0059
1964.00,0.0059
1963.00,0.0058
1962.00,0.0056
1961.00,0.0054
1960.00,0.0053
1959.00,0.0053
1958.00,0.0054
1957.00,0.0056
1956.00,0.0059
1955.00,0.0060
1954.00,0.0060
1953.00,0.0059
1952.00,0.0060
1951.00,0.0061
1950.00,0.0061
1949.00,0.0061
1948.00,0.0060
1947.00,0.0059
1946.00,0.0057
1945.00,0.0057
1944.00,0.0058
1943.00,0.0058
1942.00,0.0058
1941.00,0.0059
1940.00,0.0059
1939.00,0.0059
1938.00,0.0059
1937.00,0.0059
1936.00,0.0059
1935.00,0.0060
1934.00,0.0060
1933.00,0.0059
1932.00,0.0060
1931.00,0.0060
1930.00,0.0060
1929.00,0.0060
1928.00,0.0060
1927.00,0.0061
1926.00,0.0061
1925.00,0.0062
1924.00,0.0063
1923.00,0.0064
1922.00,0.0065
1921.00,0.0065
1920.00,0.0066
1919.00,0.0066
1918.00,0.0066
1917.00,0.0066
1916.00,0.0066
1915.00,0.0066
1914.00,0.0066
1913.00,0.0066
1912.00,0.0066
1911.00,0.0067
1910.00,0.0067
1909.00,0.0067
1908.00,0.0067
1907.00,0.0066
1906.00,0.0066
1905.00,0.0066
1904.00,0.0067
1903.00,0.0067
1902.00,0.0067
1901.00,0.0066
1900.00,0.0067
1899.00,0.0067
1898.00,0.0067
1897.00,0.0067
1896.00,0.0067
1895.00,0.0067
1894.00,0.0067
1893.00,0.0067
1892.00,0.0067
1891.00,0.0067
1890.00,0.0067
1889.00,0.0068
1888.00,0.0068
1887.00,0.0069
1886.00,0.0069
1885.00,0.0068
1884.00,0.0068
1883.00,0.0068
1882.00,0.0068
1881.00,0.0067
1880.00,0.0068
1879.00,0.0068
1878.00,0.0068
1877.00,0.0068
1876.00,0.0068
1875.00,0.0069
1874.00,0.0068
1873.00,0.0068
1872.00,0.0069
1871.00,0.0069
1870.00,0.0069
1869.00,0.0070
1868.00,0.0070
1867.00,0.0069
1866.00,0.0068
1865.00,0.0069
1864.00,0.0069
1863.00,0.0069
1862.00,0.0069
1861.00,0.0069
1860.00,0.0069
1859.00,0.0069
1858.00,0.0069
1857.00,0.0068
1856.00,0.0069
1855.00,0.0069
1854.00,0.0069
1853.00,0.0070
1852.00,0.0070
1851.00,0.0070
1850.00,0.0070
1849.00,0.0070
1848.00,0.0070
1847.00,0.0070
1846.00,0.0070
1845.00,0.0070
1844.00,0.0071
1843.00,0.0072
1842.00,0.0073
1841.00,0.0073
1840.00,0.0072
1839.00,0.0072
1838.00,0.0071
1837.00,0.0071
1836.00,0.0071
1835.00,0.0071
1834.00,0.0071
1833.00,0.0072
1832.00,0.0073
1831.00,0.0074
1830.00,0.0074
1829.00,0.0074
1828.00,0.0074
1827.00,0.0074
1826.00,0.0074
1825.00,0.0075
1824.00,0.0076
1823.00,0.0076
1822.00,0.0076
1821.00,0.0075
1820.00,0.0074
1819.00,0.0072
1818.00,0.0072
1817.00,0.0071
1816.00,0.0072
1815.00,0.0073
1814.00,0.0073
1813.00,0.0073
1812.00,0.0074
1811.00,0.0073
1810.00,0.0073
1809.00,0.0073
1808.00,0.0074
1807.00,0.0074
1806.00,0.0075
1805.00,0.0075
1804.00,0.0076
1803.00,0.0076
1802.00,0.0077
1801.00,0.0077
1800.00,0.0078
1799.00,0.0077
1798.00,0.0077
1797.00,0.0077
1796.00,0.0076
1795.00,0.0076
1794.00,0.0075
1793.00,0.0076
1792.00,0.0078
1791.00,0.0079
1790.00,0.0080
1789.00,0.0081
1788.00,0.0080
1787.00,0.0080
1786.00,0.0080
1785.00,0.0080
1784.00,0.0081
1783.00,0.0082
1782.00,0.0081
1781.00,0.0080
1780.00,0.0080
1779.00,0.0080
1778.00,0.0080
1777.00,0.0080
1776.00,0.0081
1775.00,0.0081
1774.00,0.0080
1773.00,0.0079
1772.00,0.0079
1771.00,0.0080
1770.00,0.0081
1769.00,0.0084
1768.00,0.0086
1767.00,0.0088
1766.00,0.0088
1765.00,0.0088
1764.00,0.0087
1763.00,0.0087
1762.00,0.0088
1761.00,0.0089
1760.00,0.0090
1759.00,0.0090
1758.00,0.0090
1757.00,0.0090
1756.00,0.0091
1755.00,0.0091
1754.00,0.0091
1753.00,0.0091
1752.00,0.0091
1751.00,0.0092
1750.00,0.0092
1749.00,0.0093
1748.00,0.0093
1747.00,0.0094
1746.00,0.0094
1745.00,0.0095
1744.00,0.0096
1743.00,0.0097
1742.00,0.0098
1741.00,0.0100
1740.00,0.0102
1739.00,0.0103
1738.00,0.0103
1737.00,0.0103
1736.00,0.0103
1735.00,0.0103
1734.00,0.0103
1733.00,0.0102
1732.00,0.0102
1731.00,0.0102
1730.00,0.0103
1729.00,0.0104
1728.00,0.0105
1727.00,0.0107
1726.00,0.0107
1725.00,0.0108
1724.00,0.0110
1723.00,0.0111
1722.00,0.0113
1721.00,0.0115
1720.00,0.0118
1719.00,0.0121
1718.00,0.0123
1717.00,0.0123
1716.00,0.0123
1715.00,0.0126
1714.00,0.0129
1713.00,0.0132
1712.00,0.0135
1711.00,0.0137
1710.00,0.0139
1709.00,0.0141
1708.00,0.0144
1707.00,0.0148
1706.00,0.0152
1705.00,0.0157
1704.00,0.0163
1703.00,0.0167
1702.00,0.0173
1701.00,0.0181
1700.00,0.0193
1699.00,0.0203
1698.00,0.0206
1697.00,0.0208
1696.00,0.0213
1695.00,0.0222
1694.00,0.0233
1693.00,0.0244
1692.00,0.0256
1691.00,0.0267
1690.00,0.0279
1689.00,0.0292
1688.00,0.0304
1687.00,0.0315
1686.00,0.0326
1685.00,0.0341
1684.00,0.0361
1683.00,0.0381
1682.00,0.0400
1681.00,0.0418
1680.00,0.0435
1679.00,0.0451
1678.00,0.0467
1677.00,0.0486
1676.00,0.0508
1675.00,0.0532
1674.00,0.0552
1673.00,0.0567
1672.00,0.0580
1671.00,0.0594
1670.00,0.0609
1669.00,0.0624
1668.00,0.0637
1667.00,0.0649
1666.00,0.0658
1665.00,0.0667
1664.00,0.0678
1663.00,0.0690
1662.00,0.0700
1661.00,0.0709
1660.00,0.0717
1659.00,0.0725
1658.00,0.0731
1657.00,0.0737
1656.00,0.0744
1655.00,0.0752
1654.00,0.0758
1653.00,0.0760
1652.00,0.0760
1651.00,0.0763
1650.00,0.0766
1649.00,0.0772
1648.00,0.0779
1647.00,0.0783
1646.00,0.0784
1645.00,0.0788
1644.00,0.0797
1643.00,0.0808
1642.00,0.0821
1641.00,0.0838
1640.00,0.0860
1639.00,0.0884
1638.00,0.0909
1637.00,0.0936
1636.00,0.0960
1635.00,0.0974
1634.00,0.0975
1633.00,0.0967
1632.00,0.0952
1631.00,0.0932
1630.00,0.0908
1629.00,0.0879
1628.00,0.0848
1627.00,0.0816
1626.00,0.0785
1625.00,0.0754
1624.00,0.0718
1623.00,0.0679
1622.00,0.0642
1621.00,0.0609
1620.00,0.0581
1619.00,0.0554
1618.00,0.0525
1617.00,0.0493
1616.00,0.0463
1615.00,0.0441
1614.00,0.0426
1613.00,0.0413
1612.00,0.0400
1611.00,0.0386
1610.00,0.0373
1609.00,0.0361
1608.00,0.0351
1607.00,0.0343
1606.00,0.0337
1605.00,0.0334
1604.00,0.0333
1603.00,0.0333
1602.00,0.0335
1601.00,0.0339
1600.00,0.0343
1599.00,0.0349
1598.00,0.0355
1597.00,0.0363
1596.00,0.0373
1595.00,0.0384
1594.00,0.0398
1593.00,0.0414
1592.00,0.0433
1591.00,0.0458
1590.00,0.0491
1589.00,0.0532
1588.00,0.0584
1587.00,0.0641
1586.00,0.0695
1585.00,0.0737
1584.00,0.0756
1583.00,0.0748
1582.00,0.0715
1581.00,0.0666
1580.00,0.0613
1579.00,0.0563
1578.00,0.0515
1577.00,0.0464
1576.00,0.0415
1575.00,0.0376
1574.00,0.0352
1573.00,0.0336
1572.00,0.0321
1571.00,0.0306
1570.00,0.0289
1569.00,0.0273
1568.00,0.0261
1567.00,0.0251
1566.00,0.0242
1565.00,0.0233
1564.00,0.0224
1563.00,0.0217
1562.00,0.0212
1561.00,0.0207
1560.00,0.0203
1559.00,0.0198
1558.00,0.0192
1557.00,0.0190
1556.00,0.0190
1555.00,0.0187
1554.00,0.0183
1553.00,0.0181
1552.00,0.0180
1551.00,0.0179
1550.00,0.0178
1549.00,0.0178
1548.00,0.0178
1547.00,0.0177
1546.00,0.0177
1545.00,0.0178
1544.00,0.0179
1543.00,0.0179
1542.00,0.0179
1541.00,0.0180
1540.00,0.0181
1539.00,0.0182
1538.00,0.0187
1537.00,0.0193
1536.00,0.0199
1535.00,0.0206
1534.00,0.0216
1533.00,0.0229
1532.00,0.0242
1531.00,0.0255
1530.00,0.0269
1529.00,0.0288
1528.00,0.0314
1527.00,0.0345
1526.00,0.0380
1525.00,0.0411
1524.00,0.0434
1523.00,0.0446
1522.00,0.0445
1521.00,0.0436
1520.00,0.0424
1519.00,0.0415
1518.00,0.0411
1517.00,0.0410
1516.00,0.0411
1515.00,0.0410
1514.00,0.0406
1513.00,0.0396
1512.00,0.0380
1511.00,0.0361
1510.00,0.0344
1509.00,0.0328
1508.00,0.0314
1507.00,0.0299
1506.00,0.0289
1505.00,0.0287
1504.00,0.0288
1503.00,0.0287
1502.00,0.0287
1501.00,0.0288
1500.00,0.0291
1499.00,0.0294
1498.00,0.0297
1497.00,0.0299
1496.00,0.0299
1495.00,0.0298
1494.00,0.0295
1493.00,0.0292
1492.00,0.0288
1491.00,0.0281
1490.00,0.0271
1489.00,0.0259
1488.00,0.0249
1487.00,0.0239
1486.00,0.0231
1485.00,0.0224
1484.00,0.0218
1483.00,0.0213
1482.00,0.0209
1481.00,0.0208
1480.00,0.0209
1479.00,0.0211
1478.00,0.0214
1477.00,0.0221
1476.00,0.0231
1475.00,0.0241
1474.00,0.0254
1473.00,0.0277
1472.00,0.0313
1471.00,0.0361
1470.00,0.0418
1469.00,0.0483
1468.00,0.0546
1467.00,0.0595
1466.00,0.0618
1465.00,0.0618
1464.00,0.0611
1463.00,0.0612
1462.00,0.0621
1461.00,0.0637
1460.00,0.0660
1459.00,0.0687
1458.00,0.0722
1457.00,0.0763
1456.00,0.0801
1455.00,0.0829
1454.00,0.0853
1453.00,0.0881
1452.00,0.0918
1451.00,0.0963
1450.00,0.1018
1449.00,0.1087
1448.00,0.1165
1447.00,0.1238
1446.00,0.1292
1445.00,0.1324
1444.00,0.1334
1443.00,0.1325
1442.00,0.1301
1441.00,0.1270
1440.00,0.1235
1439.00,0.1197
1438.00,0.1155
1437.00,0.1108
1436.00,0.1058
1435.00,0.1012
1434.00,0.0973
1433.00,0.0937
1432.00,0.0903
1431.00,0.0871
1430.00,0.0845
1429.00,0.0823
1428.00,0.0805
1427.00,0.0790
1426.00,0.0777
1425.00,0.0764
1424.00,0.0749
1423.00,0.0733
1422.00,0.0716
1421.00,0.0698
1420.00,0.0672
1419.00,0.0640
1418.00,0.0605
1417.00,0.0572
1416.00,0.0542
1415.00,0.0513
1414.00,0.0487
1413.00,0.0463
1412.00,0.0443
1411.00,0.0426
1410.00,0.0413
1409.00,0.0403
1408.00,0.0396
1407.00,0.0392
1406.00,0.0390
1405.00,0.0389
1404.00,0.0388
1403.00,0.0386
1402.00,0.0385
1401.00,0.0383
1400.00,0.0380
1399.00,0.0379
1398.00,0.0379
1397.00,0.0378
1396.00,0.0379
1395.00,0.0383
1394.00,0.0391
1393.00,0.0399
1392.00,0.0406
1391.00,0.0411
1390.00,0.0413
1389.00,0.0411
1388.00,0.0407
1387.00,0.0401
1386.00,0.0396
1385.00,0.0394
1384.00,0.0396
1383.00,0.0399
1382.00,0.0402
1381.00,0.0404
1380.00,0.0406
1379.00,0.0410
1378.00,0.0420
1377.00,0.0434
1376.00,0.0448
1375.00,0.0459
1374.00,0.0461
1373.00,0.0453
1372.00,0.0438
1371.00,0.0424
1370.00,0.0415
1369.00,0.0411
1368.00,0.0410
1367.00,0.0406
1366.00,0.0396
1365.00,0.0382
1364.00,0.0364
1363.00,0.0347
1362.00,0.0332
1361.00,0.0320
1360.00,0.0312
1359.00,0.0308
1358.00,0.0306
1357.00,0.0309
1356.00,0.0315
1355.00,0.0325
1354.00,0.0341
1353.00,0.0361
1352.00,0.0386
1351.00,0.0414
1350.00,0.0446
1349.00,0.0485
1348.00,0.0535
1347.00,0.0598
1346.00,0.0670
1345.00,0.0735
1344.00,0.0778
1343.00,0.0786
1342.00,0.0763
1341.00,0.0720
1340.00,0.0673
1339.00,0.0638
1338.00,0.0623
1337.00,0.0624
1336.00,0.0632
1335.00,0.0632
1334.00,0.0617
1333.00,0.0589
1332.00,0.0554
1331.00,0.0524
1330.00,0.0502
1329.00,0.0489
1328.00,0.0484
1327.00,0.0486
1326.00,0.0496
1325.00,0.0514
1324.00,0.0542
1323.00,0.0578
1322.00,0.0619
1321.00,0.0658
1320.00,0.0692
1319.00,0.0715
1318.00,0.0727
1317.00,0.0730
1316.00,0.0728
1315.00,0.0726
1314.00,0.0730
1313.00,0.0739
1312.00,0.0751
1311.00,0.0758
1310.00,0.0751
1309.00,0.0727
1308.00,0.0687
1307.00,0.0640
1306.00,0.0596
1305.00,0.0560
1304.00,0.0534
1303.00,0.0517
1302.00,0.0508
1301.00,0.0505
1300.00,0.0507
1299.00,0.0515
1298.00,0.0527
1297.00,0.0544
1296.00,0.0564
1295.00,0.0587
1294.00,0.0611
1293.00,0.0634
1292.00,0.0657
1291.00,0.0677
1290.00,0.0695
1289.00,0.0711
1288.00,0.0726
1287.00,0.0739
1286.00,0.0749
1285.00,0.0754
1284.00,0.0752
1283.00,0.0743
1282.00,0.0732
1281.00,0.0722
1280.00,0.0714
1279.00,0.0712
1278.00,0.0715
1277.00,0.0723
1276.00,0.0735
1275.00,0.0751
1274.00,0.0768
1273.00,0.0784
1272.00,0.0796
1271.00,0.0801
1270.00,0.0796
1269.00,0.0786
1268.00,0.0776
1267.00,0.0770
1266.00,0.0773
1265.00,0.0784
1264.00,0.0802
1263.00,0.0823
1262.00,0.0843
1261.00,0.0858
1260.00,0.0862
1259.00,0.0853
1258.00,0.0831
1257.00,0.0798
1256.00,0.0758
1255.00,0.0715
1254.00,0.0674
1253.00,0.0637
1252.00,0.0604
1251.00,0.0575
1250.00,0.0550
1249.00,0.0527
1248.00,0.0507
1247.00,0.0489
1246.00,0.0474
1245.00,0.0461
1244.00,0.0448
1243.00,0.0436
1242.00,0.0425
1241.00,0.0414
1240.00,0.0404
1239.00,0.0396
1238.00,0.0391
1237.00,0.0388
1236.00,0.0387
1235.00,0.0388
1234.00,0.0391
1233.00,0.0396
1232.00,0.0402
1231.00,0.0410
1230.00,0.0420
1229.00,0.0433
1228.00,0.0446
1227.00,0.0458
1226.00,0.0466
1225.00,0.0470
1224.00,0.0472
1223.00,0.0478
1222.00,0.0491
1221.00,0.0512
1220.00,0.0538
1219.00,0.0561
1218.00,0.0573
1217.00,0.0569
1216.00,0.0550
1215.00,0.0521
1214.00,0.0492
1213.00,0.0467
1212.00,0.0447
1211.00,0.0435
1210.00,0.0428
1209.00,0.0426
1208.00,0.0428
1207.00,0.0436
1206.00,0.0449
1205.00,0.0468
1204.00,0.0492
1203.00,0.0522
1202.00,0.0556
1201.00,0.0593
1200.00,0.0626
1199.00,0.0652
1198.00,0.0663
1197.00,0.0655
1196.00,0.0629
1195.00,0.0588
1194.00,0.0541
1193.00,0.0494
1192.00,0.0452
1191.00,0.0419
1190.00,0.0395
1189.00,0.0380
1188.00,0.0376
1187.00,0.0381
1186.00,0.0393
1185.00,0.0407
1184.00,0.0417
1183.00,0.0418
1182.00,0.0411
1181.00,0.0401
1180.00,0.0393
1179.00,0.0391
1178.00,0.0396
1177.00,0.0408
1176.00,0.0427
1175.00,0.0452
1174.00,0.0480
1173.00,0.0508
1172.00,0.0532
1171.00,0.0548
1170.00,0.0556
1169.00,0.0559
1168.00,0.0560
1167.00,0.0563
1166.00,0.0570
1165.00,0.0578
1164.00,0.0586
1163.00,0.0597
1162.00,0.0614
1161.00,0.0643
1160.00,0.0688
1159.00,0.0750
1158.00,0.0825
1157.00,0.0903
1156.00,0.0967
1155.00,0.1005
1154.00,0.1011
1153.00,0.0995
1152.00,0.0978
1151.00,0.0978
1150.00,0.1005
1149.00,0.1059
1148.00,0.1126
1147.00,0.1187
1146.00,0.1225
1145.00,0.1228
1144.00,0.1195
1143.00,0.1133
1142.00,0.1056
1141.00,0.0981
1140.00,0.0921
1139.00,0.0884
1138.00,0.0865
1137.00,0.0852
1136.00,0.0830
1135.00,0.0795
1134.00,0.0750
1133.00,0.0700
1132.00,0.0653
1131.00,0.0612
1130.00,0.0577
1129.00,0.0546
1128.00,0.0520
1127.00,0.0496
1126.00,0.0474
1125.00,0.0455
1124.00,0.0438
1123.00,0.0423
1122.00,0.0411
1121.00,0.0402
1120.00,0.0396
1119.00,0.0393
1118.00,0.0393
1117.00,0.0398
1116.00,0.0407
1115.00,0.0421
1114.00,0.0440
1113.00,0.0461
1112.00,0.0480
1111.00,0.0493
1110.00,0.0497
1109.00,0.0493
1108.00,0.0480
1107.00,0.0464
1106.00,0.0447
1105.00,0.0431
1104.00,0.0416
1103.00,0.0406
1102.00,0.0401
1101.00,0.0405
1100.00,0.0420
1099.00,0.0444
1098.00,0.0470
1097.00,0.0485
1096.00,0.0482
1095.00,0.0461
1094.00,0.0432
1093.00,0.0402
1092.00,0.0377
1091.00,0.0359
1090.00,0.0347
1089.00,0.0340
1088.00,0.0337
1087.00,0.0338
1086.00,0.0345
1085.00,0.0358
1084.00,0.0377
1083.00,0.0404
1082.00,0.0436
1081.00,0.0468
1080.00,0.0495
1079.00,0.0510
1078.00,0.0508
1077.00,0.0492
1076.00,0.0467
1075.00,0.0438
1074.00,0.0412
1073.00,0.0389
1072.00,0.0370
1071.00,0.0355
1070.00,0.0343
1069.00,0.0333
1068.00,0.0326
1067.00,0.0321
1066.00,0.0319
1065.00,0.0320
1064.00,0.0324
1063.00,0.0330
1062.00,0.0337
1061.00,0.0342
1060.00,0.0345
1059.00,0.0346
1058.00,0.0348
1057.00,0.0352
1056.00,0.0361
1055.00,0.0376
1054.00,0.0397
1053.00,0.0428
1052.00,0.0469
1051.00,0.0525
1050.00,0.0600
1049.00,0.0696
1048.00,0.0810
1047.00,0.0928
1046.00,0.1030
1045.00,0.1095
1044.00,0.1112
1043.00,0.1085
1042.00,0.1026
1041.00,0.0955
1040.00,0.0885
1039.00,0.0824
1038.00,0.0774
1037.00,0.0731
1036.00,0.0694
1035.00,0.0659
1034.00,0.0626
1033.00,0.0594
1032.00,0.0565
1031.00,0.0539
1030.00,0.0518
1029.00,0.0502
1028.00,0.0489
1027.00,0.0479
1026.00,0.0473
1025.00,0.0471
1024.00,0.0473
1023.00,0.0481
1022.00,0.0497
1021.00,0.0521
1020.00,0.0557
1019.00,0.0606
1018.00,0.0671
1017.00,0.0750
1016.00,0.0837
1015.00,0.0918
1014.00,0.0975
1013.00,0.0994
1012.00,0.0970
1011.00,0.0909
1010.00,0.0828
1009.00,0.0743
1008.00,0.0666
1007.00,0.0603
1006.00,0.0558
1005.00,0.0531
1004.00,0.0522
1003.00,0.0528
1002.00,0.0542
1001.00,0.0551
1000.00,0.0547
999.00,0.0528
998.00,0.0500
997.00,0.0469
996.00,0.0442
995.00,0.0418
994.00,0.0400
993.00,0.0387
992.00,0.0379
991.00,0.0375
990.00,0.0375
989.00,0.0379
988.00,0.0385
987.00,0.0394
986.00,0.0405
985.00,0.0418
984.00,0.0430
983.00,0.0442
982.00,0.0451
981.00,0.0456
980.00,0.0455
979.00,0.0447
978.00,0.0435
977.00,0.0420
976.00,0.0407
975.00,0.0397
974.00,0.0391
973.00,0.0391
972.00,0.0397
971.00,0.0409
970.00,0.0425
969.00,0.0441
968.00,0.0449
967.00,0.0443
966.00,0.0424
965.00,0.0396
964.00,0.0364
963.00,0.0334
962.00,0.0308
961.00,0.0285
960.00,0.0265
959.00,0.0247
958.00,0.0231
957.00,0.0216
956.00,0.0203
955.00,0.0191
954.00,0.0182
953.00,0.0175
952.00,0.0170
951.00,0.0168
950.00,0.0167
949.00,0.0168
948.00,0.0171
947.00,0.0174
946.00,0.0178
945.00,0.0182
944.00,0.0185
943.00,0.0189
942.00,0.0193
941.00,0.0197
940.00,0.0200
939.00,0.0204
938.00,0.0209
937.00,0.0213
936.00,0.0218
935.00,0.0221
934.00,0.0224
933.00,0.0225
932.00,0.0225
931.00,0.0225
930.00,0.0225
929.00,0.0227
928.00,0.0231
927.00,0.0237
926.00,0.0246
925.00,0.0259
924.00,0.0277
923.00,0.0305
922.00,0.0343
921.00,0.0389
920.00,0.0437
919.00,0.0472
918.00,0.0485
917.00,0.0472
916.00,0.0442
915.00,0.0407
914.00,0.0377
913.00,0.0358
912.00,0.0348
911.00,0.0346
910.00,0.0348
909.00,0.0351
908.00,0.0353
907.00,0.0357
906.00,0.0365
905.00,0.0381
904.00,0.0403
903.00,0.0423
902.00,0.0433
901.00,0.0428
900.00,0.0407
899.00,0.0377
898.00,0.0348
897.00,0.0322
896.00,0.0303
895.00,0.0288
894.00,0.0277
893.00,0.0269
892.00,0.0263
891.00,0.0259
890.00,0.0256
889.00,0.0254
888.00,0.0254
887.00,0.0254
886.00,0.0257
885.00,0.0262
884.00,0.0268
883.00,0.0276
882.00,0.0283
881.00,0.0287
880.00,0.0286
879.00,0.0281
878.00,0.0273
877.00,0.0265
876.00,0.0257
875.00,0.0252
874.00,0.0249
873.00,0.0247
872.00,0.0247
871.00,0.0248
870.00,0.0252
869.00,0.0258
868.00,0.0266
867.00,0.0279
866.00,0.0298
865.00,0.0330
864.00,0.0385
863.00,0.0470
862.00,0.0587
861.00,0.0708
860.00,0.0793
859.00,0.0805
858.00,0.0746
857.00,0.0652
856.00,0.0563
855.00,0.0501
854.00,0.0471
853.00,0.0469
852.00,0.0484
851.00,0.0506
850.00,0.0521
849.00,0.0526
848.00,0.0521
847.00,0.0516
846.00,0.0515
845.00,0.0525
844.00,0.0549
843.00,0.0589
842.00,0.0648
841.00,0.0721
840.00,0.0793
839.00,0.0847
838.00,0.0868
837.00,0.0851
836.00,0.0805
835.00,0.0742
834.00,0.0673
833.00,0.0607
832.00,0.0549
831.00,0.0502
830.00,0.0465
829.00,0.0437
828.00,0.0416
827.00,0.0400
826.00,0.0386
825.00,0.0376
824.00,0.0366
823.00,0.0357
822.00,0.0349
821.00,0.0341
820.00,0.0333
819.00,0.0326
818.00,0.0321
817.00,0.0318
816.00,0.0317
815.00,0.0318
814.00,0.0320
813.00,0.0323
812.00,0.0325
811.00,0.0328
810.00,0.0331
809.00,0.0333
808.00,0.0336
807.00,0.0342
806.00,0.0351
805.00,0.0364
804.00,0.0383
803.00,0.0407
802.00,0.0432
801.00,0.0451
800.00,0.0459
799.00,0.0454
798.00,0.0440
797.00,0.0425
796.00,0.0414
795.00,0.0406
794.00,0.0400
793.00,0.0395
792.00,0.0389
791.00,0.0384
790.00,0.0380
789.00,0.0380
788.00,0.0382
787.00,0.0387
786.00,0.0393
785.00,0.0403
784.00,0.0416
783.00,0.0431
782.00,0.0445
781.00,0.0455
780.00,0.0459
779.00,0.0455
778.00,0.0447
777.00,0.0438
776.00,0.0429
775.00,0.0424
774.00,0.0421
773.00,0.0422
772.00,0.0425
771.00,0.0433
770.00,0.0444
769.00,0.0457
768.00,0.0468
767.00,0.0473
766.00,0.0470
765.00,0.0462
764.00,0.0452
763.00,0.0443
762.00,0.0437
761.00,0.0433
760.00,0.0431
759.00,0.0431
758.00,0.0432
757.00,0.0434
756.00,0.0438
755.00,0.0442
754.00,0.0448
753.00,0.0455
752.00,0.0463
751.00,0.0472
750.00,0.0482
749.00,0.0494
748.00,0.0505
747.00,0.0514
746.00,0.0519
745.00,0.0521
744.00,0.0521
743.00,0.0520
742.00,0.0521
741.00,0.0524
740.00,0.0528
739.00,0.0535
738.00,0.0543
737.00,0.0555
736.00,0.0572
735.00,0.0594
734.00,0.0627
733.00,0.0667
732.00,0.0707
731.00,0.0732
730.00,0.0733
729.00,0.0713
728.00,0.0688
727.00,0.0664
726.00,0.0643
725.00,0.0616
724.00,0.0581
723.00,0.0541
722.00,0.0504
721.00,0.0475
720.00,0.0454
719.00,0.0441
718.00,0.0434
717.00,0.0430
716.00,0.0427
715.00,0.0424
714.00,0.0423
713.00,0.0421
712.00,0.0420
711.00,0.0420
710.00,0.0420
709.00,0.0420
708.00,0.0421
707.00,0.0422
706.00,0.0422
705.00,0.0422
704.00,0.0423
703.00,0.0424
702.00,0.0425
701.00,0.0426
700.00,0.0427
699.00,0.0430
698.00,0.0432
697.00,0.0435
696.00,0.0436
695.00,0.0438
694.00,0.0439
693.00,0.0441
692.00,0.0444
691.00,0.0447
690.00,0.0450
689.00,0.0454
688.00,0.0457
687.00,0.0461
686.00,0.0464
685.00,0.0467
684.00,0.0470
683.00,0.0474
682.00,0.0478
681.00,0.0482
680.00,0.0487
679.00,0.0491
678.00,0.0494
677.00,0.0497
676.00,0.0500
675.00,0.0504
674.00,0.0509
673.00,0.0513
672.00,0.0516
671.00,0.0519
670.00,0.0523
669.00,0.0528
668.00,0.0534
667.00,0.0540
666.00,0.0543
665.00,0.0544
664.00,0.0547
663.00,0.0552
662.00,0.0562
661.00,0.0579
660.00,0.0610
659.00,0.0657
658.00,0.0716
657.00,0.0774
656.00,0.0814
655.00,0.0826
654.00,0.0814
653.00,0.0792
652.00,0.0773
651.00,0.0763
650.00,0.0757
649.00,0.0755
648.00,0.0756
647.00,0.0759
646.00,0.0761
645.00,0.0763
644.00,0.0764
643.00,0.0766
642.00,0.0767
641.00,0.0768
640.00,0.0768
639.00,0.0768
638.00,0.0768
637.00,0.0768
636.00,0.0770
635.00,0.0771
634.00,0.0771
633.00,0.0772
632.00,0.0772
631.00,0.0772
630.00,0.0772
629.00,0.0773
628.00,0.0774
627.00,0.0774
626.00,0.0774
625.00,0.0773
624.00,0.0773
623.00,0.0771
622.00,0.0768
621.00,0.0764
620.00,0.0759
619.00,0.0754
618.00,0.0747
617.00,0.0739
616.00,0.0729
615.00,0.0720
614.00,0.0713
613.00,0.0708
612.00,0.0705
611.00,0.0706
610.00,0.0709
609.00,0.0715
608.00,0.0724
607.00,0.0733
606.00,0.0742
605.00,0.0750
604.00,0.0759
603.00,0.0769
602.00,0.0781
601.00,0.0795
600.00,0.0811
599.00,0.0830
598.00,0.0853
597.00,0.0881
596.00,0.0912
595.00,0.0940
594.00,0.0960
593.00,0.0970
592.00,0.0973
591.00,0.0971
590.00,0.0962
589.00,0.0948
588.00,0.0928
587.00,0.0904
586.00,0.0880
585.00,0.0860
584.00,0.0849
583.00,0.0846
582.00,0.0851
581.00,0.0865
580.00,0.0889
579.00,0.0921
578.00,0.0954
577.00,0.0983
576.00,0.1001
575.00,0.1007
574.00,0.1005
573.00,0.1000
572.00,0.0993
571.00,0.0986
570.00,0.0979
569.00,0.0970
568.00,0.0960
567.00,0.0948
566.00,0.0934
565.00,0.0920
564.00,0.0907
563.00,0.0895
562.00,0.0883
561.00,0.0872
560.00,0.0861
559.00,0.0848
558.00,0.0833
557.00,0.0819
556.00,0.0807
555.00,0.0797
554.00,0.0787
553.00,0.0778
552.00,0.0770
551.00,0.0763
550.00,0.0757
549.00,0.0752
548.00,0.0749
547.00,0.0748
546.00,0.0749
545.00,0.0750
544.00,0.0754
543.00,0.0762
542.00,0.0776
541.00,0.0799
540.00,0.0830
539.00,0.0869
538.00,0.0912
537.00,0.0951
536.00,0.0980
535.00,0.0993
534.00,0.0990
533.00,0.0975
532.00,0.0953
531.00,0.0926
530.00,0.0897
529.00,0.0871
528.00,0.0851
527.00,0.0838
526.00,0.0832
525.00,0.0828
524.00,0.0825
523.00,0.0819
522.00,0.0809
521.00,0.0796
520.00,0.0782
519.00,0.0770
518.00,0.0759
517.00,0.0749
516.00,0.0740
515.00,0.0731
514.00,0.0723
513.00,0.0716
512.00,0.0710
511.00,0.0703
510.00,0.0696
509.00,0.0689
508.00,0.0684
507.00,0.0683
506.00,0.0683
505.00,0.0683
504.00,0.0682
503.00,0.0681
502.00,0.0681
501.00,0.0679
500.00,0.0675
499.00,0.0671
498.00,0.0670
497.00,0.0672
496.00,0.0675
495.00,0.0679
494.00,0.0685
493.00,0.0697
492.00,0.0713
491.00,0.0731
490.00,0.0749
489.00,0.0765
488.00,0.0776
487.00,0.0779
486.00,0.0774
485.00,0.0763
484.00,0.0749
483.00,0.0736
482.00,0.0723
481.00,0.0714
480.00,0.0708
479.00,0.0706
478.00,0.0702
477.00,0.0695
476.00,0.0689
475.00,0.0686
474.00,0.0686
473.00,0.0685
472.00,0.0681
471.00,0.0678
470.00,0.0678
469.00,0.0682
468.00,0.0684
467.00,0.0685
466.00,0.0683
465.00,0.0683
464.00,0.0685
463.00,0.0688
462.00,0.0693
461.00,0.0698
460.00,0.0702
459.00,0.0707
458.00,0.0719
457.00,0.0741
456.00,0.0767
455.00,0.0789
454.00,0.0802
453.00,0.0807
452.00,0.0804
451.00,0.0797
450.00,0.0786
449.00,0.0772
448.00,0.0760
447.00,0.0752
446.00,0.0749
445.00,0.0749
444.00,0.0752
443.00,0.0759
442.00,0.0773
441.00,0.0795
440.00,0.0821
439.00,0.0847
438.00,0.0869
437.00,0.0886
436.00,0.0899
435.00,0.0908
434.00,0.0912
433.00,0.0911
432.00,0.0902
431.00,0.0885
430.00,0.0867
429.00,0.0855
428.00,0.0849
427.00,0.0845
426.00,0.0838
425.00,0.0830
424.00,0.0824
423.00,0.0820
422.00,0.0813
421.00,0.0799
420.00,0.0779
419.00,0.0762
418.00,0.0756
417.00,0.0755
416.00,0.0753
415.00,0.0750
414.00,0.0750
413.00,0.0751
412.00,0.0752
411.00,0.0753
410.00,0.0755
409.00,0.0757
408.00,0.0753
407.00,0.0739
406.00,0.0718
405.00,0.0700
404.00,0.0687
403.00,0.0680
402.00,0.0680
401.00,0.0700
400.00,0.0742
