Created as New Dataset,Sample 1022 By YargerLab Date Friday, August 01 2025
cm-1,A
4000.00,0.0055
3999.00,0.0055
3998.00,0.0055
3997.00,0.0055
3996.00,0.0055
3995.00,0.0055
3994.00,0.0055
3993.00,0.0055
3992.00,0.0055
3991.00,0.0054
3990.00,0.0054
3989.00,0.0054
3988.00,0.0054
3987.00,0.0054
3986.00,0.0055
3985.00,0.0055
3984.00,0.0055
3983.00,0.0055
3982.00,0.0055
3981.00,0.0055
3980.00,0.0055
3979.00,0.0055
3978.00,0.0055
3977.00,0.0055
3976.00,0.0055
3975.00,0.0055
3974.00,0.0055
3973.00,0.0055
3972.00,0.0055
3971.00,0.0055
3970.00,0.0055
3969.00,0.0055
3968.00,0.0055
3967.00,0.0055
3966.00,0.0055
3965.00,0.0055
3964.00,0.0055
3963.00,0.0055
3962.00,0.0055
3961.00,0.0055
3960.00,0.0055
3959.00,0.0055
3958.00,0.0054
3957.00,0.0054
3956.00,0.0054
3955.00,0.0054
3954.00,0.0054
3953.00,0.0055
3952.00,0.0055
3951.00,0.0054
3950.00,0.0054
3949.00,0.0054
3948.00,0.0054
3947.00,0.0054
3946.00,0.0054
3945.00,0.0054
3944.00,0.0054
3943.00,0.0054
3942.00,0.0054
3941.00,0.0054
3940.00,0.0054
3939.00,0.0054
3938.00,0.0054
3937.00,0.0054
3936.00,0.0054
3935.00,0.0054
3934.00,0.0054
3933.00,0.0054
3932.00,0.0054
3931.00,0.0054
3930.00,0.0054
3929.00,0.0054
3928.00,0.0054
3927.00,0.0054
3926.00,0.0054
3925.00,0.0054
3924.00,0.0054
3923.00,0.0054
3922.00,0.0054
3921.00,0.0054
3920.00,0.0054
3919.00,0.0055
3918.00,0.0055
3917.00,0.0055
3916.00,0.0055
3915.00,0.0055
3914.00,0.0055
3913.00,0.0055
3912.00,0.0055
3911.00,0.0055
3910.00,0.0054
3909.00,0.0054
3908.00,0.0054
3907.00,0.0054
3906.00,0.0054
3905.00,0.0054
3904.00,0.0054
3903.00,0.0054
3902.00,0.0054
3901.00,0.0054
3900.00,0.0054
3899.00,0.0054
3898.00,0.0054
3897.00,0.0054
3896.00,0.0054
3895.00,0.0054
3894.00,0.0054
3893.00,0.0054
3892.00,0.0054
3891.00,0.0054
3890.00,0.0054
3889.00,0.0053
3888.00,0.0053
3887.00,0.0053
3886.00,0.0053
3885.00,0.0053
3884.00,0.0053
3883.00,0.0053
3882.00,0.0053
3881.00,0.0053
3880.00,0.0054
3879.00,0.0054
3878.00,0.0054
3877.00,0.0054
3876.00,0.0054
3875.00,0.0053
3874.00,0.0053
3873.00,0.0053
3872.00,0.0053
3871.00,0.0053
3870.00,0.0053
3869.00,0.0053
3868.00,0.0053
3867.00,0.0053
3866.00,0.0053
3865.00,0.0053
3864.00,0.0053
3863.00,0.0054
3862.00,0.0054
3861.00,0.0054
3860.00,0.0054
3859.00,0.0054
3858.00,0.0055
3857.00,0.0055
3856.00,0.0054
3855.00,0.0054
3854.00,0.0054
3853.00,0.0054
3852.00,0.0054
3851.00,0.0054
3850.00,0.0054
3849.00,0.0054
3848.00,0.0054
3847.00,0.0054
3846.00,0.0053
3845.00,0.0053
3844.00,0.0053
3843.00,0.0053
3842.00,0.0053
3841.00,0.0053
3840.00,0.0053
3839.00,0.0054
3838.00,0.0054
3837.00,0.0054
3836.00,0.0053
3835.00,0.0053
3834.00,0.0053
3833.00,0.0053
3832.00,0.0053
3831.00,0.0053
3830.00,0.0053
3829.00,0.0053
3828.00,0.0053
3827.00,0.0053
3826.00,0.0053
3825.00,0.0053
3824.00,0.0053
3823.00,0.0053
3822.00,0.0053
3821.00,0.0053
3820.00,0.0053
3819.00,0.0053
3818.00,0.0053
3817.00,0.0053
3816.00,0.0053
3815.00,0.0054
3814.00,0.0054
3813.00,0.0054
3812.00,0.0054
3811.00,0.0054
3810.00,0.0054
3809.00,0.0053
3808.00,0.0054
3807.00,0.0054
3806.00,0.0054
3805.00,0.0054
3804.00,0.0053
3803.00,0.0053
3802.00,0.0053
3801.00,0.0053
3800.00,0.0053
3799.00,0.0053
3798.00,0.0052
3797.00,0.0052
3796.00,0.0052
3795.00,0.0053
3794.00,0.0053
3793.00,0.0053
3792.00,0.0053
3791.00,0.0053
3790.00,0.0053
3789.00,0.0053
3788.00,0.0053
3787.00,0.0053
3786.00,0.0053
3785.00,0.0053
3784.00,0.0053
3783.00,0.0053
3782.00,0.0053
3781.00,0.0053
3780.00,0.0053
3779.00,0.0053
3778.00,0.0053
3777.00,0.0053
3776.00,0.0053
3775.00,0.0053
3774.00,0.0053
3773.00,0.0053
3772.00,0.0053
3771.00,0.0053
3770.00,0.0053
3769.00,0.0053
3768.00,0.0053
3767.00,0.0053
3766.00,0.0053
3765.00,0.0053
3764.00,0.0053
3763.00,0.0053
3762.00,0.0053
3761.00,0.0053
3760.00,0.0053
3759.00,0.0053
3758.00,0.0053
3757.00,0.0053
3756.00,0.0053
3755.00,0.0053
3754.00,0.0053
3753.00,0.0054
3752.00,0.0054
3751.00,0.0054
3750.00,0.0054
3749.00,0.0054
3748.00,0.0053
3747.00,0.0053
3746.00,0.0053
3745.00,0.0053
3744.00,0.0053
3743.00,0.0053
3742.00,0.0053
3741.00,0.0053
3740.00,0.0053
3739.00,0.0053
3738.00,0.0053
3737.00,0.0052
3736.00,0.0053
3735.00,0.0053
3734.00,0.0052
3733.00,0.0052
3732.00,0.0052
3731.00,0.0052
3730.00,0.0052
3729.00,0.0052
3728.00,0.0051
3727.00,0.0051
3726.00,0.0051
3725.00,0.0051
3724.00,0.0051
3723.00,0.0052
3722.00,0.0052
3721.00,0.0052
3720.00,0.0052
3719.00,0.0052
3718.00,0.0052
3717.00,0.0052
3716.00,0.0052
3715.00,0.0051
3714.00,0.0051
3713.00,0.0051
3712.00,0.0051
3711.00,0.0052
3710.00,0.0052
3709.00,0.0051
3708.00,0.0051
3707.00,0.0051
3706.00,0.0050
3705.00,0.0050
3704.00,0.0050
3703.00,0.0050
3702.00,0.0050
3701.00,0.0050
3700.00,0.0051
3699.00,0.0051
3698.00,0.0051
3697.00,0.0051
3696.00,0.0051
3695.00,0.0051
3694.00,0.0051
3693.00,0.0051
3692.00,0.0050
3691.00,0.0050
3690.00,0.0050
3689.00,0.0050
3688.00,0.0050
3687.00,0.0050
3686.00,0.0050
3685.00,0.0050
3684.00,0.0050
3683.00,0.0050
3682.00,0.0050
3681.00,0.0050
3680.00,0.0050
3679.00,0.0050
3678.00,0.0050
3677.00,0.0050
3676.00,0.0050
3675.00,0.0050
3674.00,0.0051
3673.00,0.0051
3672.00,0.0051
3671.00,0.0051
3670.00,0.0051
3669.00,0.0050
3668.00,0.0050
3667.00,0.0050
3666.00,0.0049
3665.00,0.0049
3664.00,0.0049
3663.00,0.0049
3662.00,0.0049
3661.00,0.0049
3660.00,0.0050
3659.00,0.0050
3658.00,0.0050
3657.00,0.0050
3656.00,0.0050
3655.00,0.0050
3654.00,0.0050
3653.00,0.0050
3652.00,0.0050
3651.00,0.0050
3650.00,0.0050
3649.00,0.0050
3648.00,0.0050
3647.00,0.0050
3646.00,0.0050
3645.00,0.0050
3644.00,0.0050
3643.00,0.0051
3642.00,0.0051
3641.00,0.0051
3640.00,0.0051
3639.00,0.0050
3638.00,0.0050
3637.00,0.0050
3636.00,0.0050
3635.00,0.0050
3634.00,0.0050
3633.00,0.0050
3632.00,0.0050
3631.00,0.0050
3630.00,0.0050
3629.00,0.0050
3628.00,0.0050
3627.00,0.0050
3626.00,0.0051
3625.00,0.0051
3624.00,0.0051
3623.00,0.0051
3622.00,0.0052
3621.00,0.0052
3620.00,0.0052
3619.00,0.0052
3618.00,0.0052
3617.00,0.0052
3616.00,0.0052
3615.00,0.0052
3614.00,0.0052
3613.00,0.0052
3612.00,0.0052
3611.00,0.0052
3610.00,0.0052
3609.00,0.0052
3608.00,0.0052
3607.00,0.0052
3606.00,0.0052
3605.00,0.0052
3604.00,0.0052
3603.00,0.0053
3602.00,0.0053
3601.00,0.0053
3600.00,0.0053
3599.00,0.0053
3598.00,0.0053
3597.00,0.0053
3596.00,0.0053
3595.00,0.0053
3594.00,0.0053
3593.00,0.0054
3592.00,0.0054
3591.00,0.0054
3590.00,0.0054
3589.00,0.0054
3588.00,0.0054
3587.00,0.0053
3586.00,0.0053
3585.00,0.0053
3584.00,0.0053
3583.00,0.0053
3582.00,0.0054
3581.00,0.0054
3580.00,0.0054
3579.00,0.0054
3578.00,0.0054
3577.00,0.0054
3576.00,0.0054
3575.00,0.0055
3574.00,0.0055
3573.00,0.0055
3572.00,0.0056
3571.00,0.0056
3570.00,0.0056
3569.00,0.0057
3568.00,0.0057
3567.00,0.0057
3566.00,0.0057
3565.00,0.0057
3564.00,0.0057
3563.00,0.0057
3562.00,0.0057
3561.00,0.0057
3560.00,0.0057
3559.00,0.0057
3558.00,0.0058
3557.00,0.0058
3556.00,0.0058
3555.00,0.0059
3554.00,0.0059
3553.00,0.0059
3552.00,0.0060
3551.00,0.0060
3550.00,0.0060
3549.00,0.0061
3548.00,0.0061
3547.00,0.0061
3546.00,0.0062
3545.00,0.0062
3544.00,0.0063
3543.00,0.0063
3542.00,0.0063
3541.00,0.0063
3540.00,0.0064
3539.00,0.0064
3538.00,0.0064
3537.00,0.0064
3536.00,0.0064
3535.00,0.0065
3534.00,0.0065
3533.00,0.0065
3532.00,0.0066
3531.00,0.0066
3530.00,0.0067
3529.00,0.0067
3528.00,0.0068
3527.00,0.0069
3526.00,0.0069
3525.00,0.0069
3524.00,0.0069
3523.00,0.0069
3522.00,0.0069
3521.00,0.0070
3520.00,0.0070
3519.00,0.0071
3518.00,0.0072
3517.00,0.0072
3516.00,0.0072
3515.00,0.0073
3514.00,0.0073
3513.00,0.0073
3512.00,0.0074
3511.00,0.0074
3510.00,0.0075
3509.00,0.0075
3508.00,0.0076
3507.00,0.0076
3506.00,0.0077
3505.00,0.0077
3504.00,0.0078
3503.00,0.0078
3502.00,0.0078
3501.00,0.0079
3500.00,0.0079
3499.00,0.0080
3498.00,0.0080
3497.00,0.0081
3496.00,0.0082
3495.00,0.0082
3494.00,0.0083
3493.00,0.0083
3492.00,0.0084
3491.00,0.0085
3490.00,0.0086
3489.00,0.0087
3488.00,0.0088
3487.00,0.0088
3486.00,0.0089
3485.00,0.0090
3484.00,0.0090
3483.00,0.0091
3482.00,0.0092
3481.00,0.0093
3480.00,0.0094
3479.00,0.0095
3478.00,0.0096
3477.00,0.0097
3476.00,0.0098
3475.00,0.0099
3474.00,0.0100
3473.00,0.0101
3472.00,0.0102
3471.00,0.0103
3470.00,0.0104
3469.00,0.0105
3468.00,0.0106
3467.00,0.0108
3466.00,0.0109
3465.00,0.0110
3464.00,0.0112
3463.00,0.0113
3462.00,0.0114
3461.00,0.0115
3460.00,0.0117
3459.00,0.0118
3458.00,0.0119
3457.00,0.0120
3456.00,0.0121
3455.00,0.0123
3454.00,0.0124
3453.00,0.0125
3452.00,0.0127
3451.00,0.0129
3450.00,0.0130
3449.00,0.0132
3448.00,0.0133
3447.00,0.0134
3446.00,0.0136
3445.00,0.0137
3444.00,0.0139
3443.00,0.0141
3442.00,0.0142
3441.00,0.0143
3440.00,0.0145
3439.00,0.0147
3438.00,0.0149
3437.00,0.0151
3436.00,0.0153
3435.00,0.0155
3434.00,0.0157
3433.00,0.0160
3432.00,0.0162
3431.00,0.0164
3430.00,0.0166
3429.00,0.0168
3428.00,0.0170
3427.00,0.0173
3426.00,0.0175
3425.00,0.0177
3424.00,0.0180
3423.00,0.0183
3422.00,0.0185
3421.00,0.0188
3420.00,0.0190
3419.00,0.0192
3418.00,0.0195
3417.00,0.0197
3416.00,0.0200
3415.00,0.0202
3414.00,0.0204
3413.00,0.0207
3412.00,0.0208
3411.00,0.0210
3410.00,0.0212
3409.00,0.0213
3408.00,0.0215
3407.00,0.0216
3406.00,0.0217
3405.00,0.0218
3404.00,0.0219
3403.00,0.0220
3402.00,0.0220
3401.00,0.0221
3400.00,0.0221
3399.00,0.0221
3398.00,0.0221
3397.00,0.0220
3396.00,0.0220
3395.00,0.0220
3394.00,0.0219
3393.00,0.0218
3392.00,0.0218
3391.00,0.0216
3390.00,0.0215
3389.00,0.0214
3388.00,0.0212
3387.00,0.0211
3386.00,0.0209
3385.00,0.0208
3384.00,0.0206
3383.00,0.0205
3382.00,0.0204
3381.00,0.0202
3380.00,0.0201
3379.00,0.0199
3378.00,0.0198
3377.00,0.0196
3376.00,0.0194
3375.00,0.0193
3374.00,0.0192
3373.00,0.0190
3372.00,0.0189
3371.00,0.0188
3370.00,0.0187
3369.00,0.0186
3368.00,0.0184
3367.00,0.0183
3366.00,0.0182
3365.00,0.0180
3364.00,0.0179
3363.00,0.0178
3362.00,0.0177
3361.00,0.0176
3360.00,0.0175
3359.00,0.0174
3358.00,0.0173
3357.00,0.0172
3356.00,0.0171
3355.00,0.0170
3354.00,0.0170
3353.00,0.0169
3352.00,0.0169
3351.00,0.0168
3350.00,0.0167
3349.00,0.0167
3348.00,0.0166
3347.00,0.0166
3346.00,0.0165
3345.00,0.0165
3344.00,0.0164
3343.00,0.0164
3342.00,0.0163
3341.00,0.0163
3340.00,0.0163
3339.00,0.0163
3338.00,0.0163
3337.00,0.0162
3336.00,0.0162
3335.00,0.0162
3334.00,0.0162
3333.00,0.0162
3332.00,0.0161
3331.00,0.0161
3330.00,0.0161
3329.00,0.0162
3328.00,0.0162
3327.00,0.0162
3326.00,0.0163
3325.00,0.0163
3324.00,0.0163
3323.00,0.0163
3322.00,0.0163
3321.00,0.0163
3320.00,0.0164
3319.00,0.0164
3318.00,0.0165
3317.00,0.0165
3316.00,0.0166
3315.00,0.0166
3314.00,0.0166
3313.00,0.0167
3312.00,0.0168
3311.00,0.0169
3310.00,0.0170
3309.00,0.0171
3308.00,0.0171
3307.00,0.0172
3306.00,0.0173
3305.00,0.0173
3304.00,0.0174
3303.00,0.0174
3302.00,0.0175
3301.00,0.0176
3300.00,0.0176
3299.00,0.0177
3298.00,0.0178
3297.00,0.0179
3296.00,0.0180
3295.00,0.0180
3294.00,0.0181
3293.00,0.0182
3292.00,0.0183
3291.00,0.0184
3290.00,0.0185
3289.00,0.0185
3288.00,0.0186
3287.00,0.0187
3286.00,0.0188
3285.00,0.0189
3284.00,0.0190
3283.00,0.0191
3282.00,0.0192
3281.00,0.0193
3280.00,0.0194
3279.00,0.0194
3278.00,0.0195
3277.00,0.0196
3276.00,0.0197
3275.00,0.0198
3274.00,0.0199
3273.00,0.0200
3272.00,0.0201
3271.00,0.0201
3270.00,0.0202
3269.00,0.0203
3268.00,0.0204
3267.00,0.0204
3266.00,0.0205
3265.00,0.0206
3264.00,0.0207
3263.00,0.0208
3262.00,0.0209
3261.00,0.0210
3260.00,0.0211
3259.00,0.0212
3258.00,0.0212
3257.00,0.0213
3256.00,0.0214
3255.00,0.0215
3254.00,0.0216
3253.00,0.0217
3252.00,0.0217
3251.00,0.0218
3250.00,0.0218
3249.00,0.0219
3248.00,0.0219
3247.00,0.0220
3246.00,0.0221
3245.00,0.0221
3244.00,0.0222
3243.00,0.0222
3242.00,0.0222
3241.00,0.0223
3240.00,0.0223
3239.00,0.0223
3238.00,0.0224
3237.00,0.0224
3236.00,0.0224
3235.00,0.0224
3234.00,0.0224
3233.00,0.0224
3232.00,0.0224
3231.00,0.0223
3230.00,0.0223
3229.00,0.0223
3228.00,0.0223
3227.00,0.0223
3226.00,0.0222
3225.00,0.0222
3224.00,0.0222
3223.00,0.0221
3222.00,0.0221
3221.00,0.0220
3220.00,0.0219
3219.00,0.0218
3218.00,0.0217
3217.00,0.0217
3216.00,0.0216
3215.00,0.0215
3214.00,0.0214
3213.00,0.0214
3212.00,0.0212
3211.00,0.0211
3210.00,0.0210
3209.00,0.0208
3208.00,0.0207
3207.00,0.0206
3206.00,0.0205
3205.00,0.0204
3204.00,0.0203
3203.00,0.0201
3202.00,0.0200
3201.00,0.0198
3200.00,0.0197
3199.00,0.0196
3198.00,0.0195
3197.00,0.0193
3196.00,0.0192
3195.00,0.0190
3194.00,0.0189
3193.00,0.0187
3192.00,0.0186
3191.00,0.0184
3190.00,0.0183
3189.00,0.0182
3188.00,0.0180
3187.00,0.0179
3186.00,0.0177
3185.00,0.0176
3184.00,0.0175
3183.00,0.0174
3182.00,0.0173
3181.00,0.0171
3180.00,0.0170
3179.00,0.0168
3178.00,0.0166
3177.00,0.0165
3176.00,0.0163
3175.00,0.0162
3174.00,0.0161
3173.00,0.0159
3172.00,0.0158
3171.00,0.0156
3170.00,0.0155
3169.00,0.0154
3168.00,0.0152
3167.00,0.0151
3166.00,0.0150
3165.00,0.0149
3164.00,0.0147
3163.00,0.0146
3162.00,0.0144
3161.00,0.0142
3160.00,0.0141
3159.00,0.0139
3158.00,0.0138
3157.00,0.0137
3156.00,0.0135
3155.00,0.0134
3154.00,0.0133
3153.00,0.0131
3152.00,0.0130
3151.00,0.0129
3150.00,0.0128
3149.00,0.0127
3148.00,0.0125
3147.00,0.0124
3146.00,0.0124
3145.00,0.0123
3144.00,0.0122
3143.00,0.0121
3142.00,0.0119
3141.00,0.0118
3140.00,0.0117
3139.00,0.0116
3138.00,0.0116
3137.00,0.0115
3136.00,0.0114
3135.00,0.0113
3134.00,0.0112
3133.00,0.0111
3132.00,0.0109
3131.00,0.0109
3130.00,0.0108
3129.00,0.0108
3128.00,0.0107
3127.00,0.0107
3126.00,0.0106
3125.00,0.0105
3124.00,0.0105
3123.00,0.0104
3122.00,0.0104
3121.00,0.0103
3120.00,0.0103
3119.00,0.0102
3118.00,0.0102
3117.00,0.0101
3116.00,0.0100
3115.00,0.0100
3114.00,0.0099
3113.00,0.0098
3112.00,0.0097
3111.00,0.0096
3110.00,0.0095
3109.00,0.0094
3108.00,0.0093
3107.00,0.0093
3106.00,0.0092
3105.00,0.0091
3104.00,0.0090
3103.00,0.0090
3102.00,0.0090
3101.00,0.0089
3100.00,0.0089
3099.00,0.0088
3098.00,0.0088
3097.00,0.0088
3096.00,0.0087
3095.00,0.0087
3094.00,0.0087
3093.00,0.0087
3092.00,0.0087
3091.00,0.0088
3090.00,0.0088
3089.00,0.0088
3088.00,0.0088
3087.00,0.0088
3086.00,0.0089
3085.00,0.0089
3084.00,0.0089
3083.00,0.0089
3082.00,0.0089
3081.00,0.0089
3080.00,0.0089
3079.00,0.0088
3078.00,0.0088
3077.00,0.0088
3076.00,0.0087
3075.00,0.0087
3074.00,0.0087
3073.00,0.0086
3072.00,0.0086
3071.00,0.0086
3070.00,0.0085
3069.00,0.0085
3068.00,0.0085
3067.00,0.0085
3066.00,0.0085
3065.00,0.0085
3064.00,0.0085
3063.00,0.0085
3062.00,0.0085
3061.00,0.0085
3060.00,0.0085
3059.00,0.0085
3058.00,0.0086
3057.00,0.0086
3056.00,0.0086
3055.00,0.0087
3054.00,0.0087
3053.00,0.0087
3052.00,0.0087
3051.00,0.0087
3050.00,0.0087
3049.00,0.0087
3048.00,0.0086
3047.00,0.0086
3046.00,0.0085
3045.00,0.0085
3044.00,0.0085
3043.00,0.0086
3042.00,0.0086
3041.00,0.0087
3040.00,0.0087
3039.00,0.0088
3038.00,0.0089
3037.00,0.0090
3036.00,0.0091
3035.00,0.0091
3034.00,0.0092
3033.00,0.0093
3032.00,0.0093
3031.00,0.0093
3030.00,0.0092
3029.00,0.0092
3028.00,0.0091
3027.00,0.0090
3026.00,0.0088
3025.00,0.0087
3024.00,0.0086
3023.00,0.0085
3022.00,0.0084
3021.00,0.0083
3020.00,0.0082
3019.00,0.0082
3018.00,0.0081
3017.00,0.0080
3016.00,0.0080
3015.00,0.0080
3014.00,0.0079
3013.00,0.0079
3012.00,0.0079
3011.00,0.0080
3010.00,0.0080
3009.00,0.0081
3008.00,0.0081
3007.00,0.0082
3006.00,0.0083
3005.00,0.0084
3004.00,0.0086
3003.00,0.0088
3002.00,0.0089
3001.00,0.0091
3000.00,0.0094
2999.00,0.0096
2998.00,0.0100
2997.00,0.0103
2996.00,0.0108
2995.00,0.0112
2994.00,0.0116
2993.00,0.0119
2992.00,0.0122
2991.00,0.0125
2990.00,0.0127
2989.00,0.0128
2988.00,0.0130
2987.00,0.0132
2986.00,0.0135
2985.00,0.0138
2984.00,0.0143
2983.00,0.0149
2982.00,0.0156
2981.00,0.0164
2980.00,0.0171
2979.00,0.0178
2978.00,0.0181
2977.00,0.0183
2976.00,0.0184
2975.00,0.0185
2974.00,0.0190
2973.00,0.0197
2972.00,0.0206
2971.00,0.0216
2970.00,0.0224
2969.00,0.0231
2968.00,0.0235
2967.00,0.0237
2966.00,0.0240
2965.00,0.0244
2964.00,0.0248
2963.00,0.0254
2962.00,0.0259
2961.00,0.0264
2960.00,0.0267
2959.00,0.0268
2958.00,0.0265
2957.00,0.0260
2956.00,0.0252
2955.00,0.0243
2954.00,0.0233
2953.00,0.0223
2952.00,0.0215
2951.00,0.0208
2950.00,0.0202
2949.00,0.0199
2948.00,0.0197
2947.00,0.0197
2946.00,0.0199
2945.00,0.0203
2944.00,0.0208
2943.00,0.0214
2942.00,0.0220
2941.00,0.0228
2940.00,0.0236
2939.00,0.0246
2938.00,0.0257
2937.00,0.0270
2936.00,0.0286
2935.00,0.0303
2934.00,0.0321
2933.00,0.0340
2932.00,0.0359
2931.00,0.0377
2930.00,0.0394
2929.00,0.0407
2928.00,0.0418
2927.00,0.0424
2926.00,0.0426
2925.00,0.0423
2924.00,0.0416
2923.00,0.0407
2922.00,0.0396
2921.00,0.0384
2920.00,0.0371
2919.00,0.0358
2918.00,0.0345
2917.00,0.0332
2916.00,0.0319
2915.00,0.0307
2914.00,0.0296
2913.00,0.0286
2912.00,0.0276
2911.00,0.0267
2910.00,0.0259
2909.00,0.0252
2908.00,0.0245
2907.00,0.0238
2906.00,0.0232
2905.00,0.0226
2904.00,0.0221
2903.00,0.0215
2902.00,0.0210
2901.00,0.0205
2900.00,0.0200
2899.00,0.0195
2898.00,0.0191
2897.00,0.0187
2896.00,0.0183
2895.00,0.0179
2894.00,0.0175
2893.00,0.0172
2892.00,0.0169
2891.00,0.0167
2890.00,0.0164
2889.00,0.0162
2888.00,0.0159
2887.00,0.0157
2886.00,0.0155
2885.00,0.0154
2884.00,0.0153
2883.00,0.0153
2882.00,0.0153
2881.00,0.0154
2880.00,0.0157
2879.00,0.0160
2878.00,0.0166
2877.00,0.0172
2876.00,0.0179
2875.00,0.0186
2874.00,0.0193
2873.00,0.0198
2872.00,0.0201
2871.00,0.0202
2870.00,0.0201
2869.00,0.0200
2868.00,0.0198
2867.00,0.0197
2866.00,0.0198
2865.00,0.0201
2864.00,0.0206
2863.00,0.0215
2862.00,0.0226
2861.00,0.0239
2860.00,0.0255
2859.00,0.0270
2858.00,0.0284
2857.00,0.0294
2856.00,0.0302
2855.00,0.0305
2854.00,0.0306
2853.00,0.0303
2852.00,0.0298
2851.00,0.0290
2850.00,0.0279
2849.00,0.0265
2848.00,0.0249
2847.00,0.0233
2846.00,0.0217
2845.00,0.0203
2844.00,0.0189
2843.00,0.0177
2842.00,0.0167
2841.00,0.0157
2840.00,0.0149
2839.00,0.0142
2838.00,0.0136
2837.00,0.0131
2836.00,0.0127
2835.00,0.0124
2834.00,0.0120
2833.00,0.0117
2832.00,0.0115
2831.00,0.0112
2830.00,0.0110
2829.00,0.0108
2828.00,0.0106
2827.00,0.0104
2826.00,0.0102
2825.00,0.0100
2824.00,0.0099
2823.00,0.0097
2822.00,0.0096
2821.00,0.0095
2820.00,0.0094
2819.00,0.0092
2818.00,0.0091
2817.00,0.0091
2816.00,0.0090
2815.00,0.0089
2814.00,0.0088
2813.00,0.0087
2812.00,0.0086
2811.00,0.0086
2810.00,0.0085
2809.00,0.0085
2808.00,0.0085
2807.00,0.0084
2806.00,0.0084
2805.00,0.0083
2804.00,0.0083
2803.00,0.0083
2802.00,0.0082
2801.00,0.0081
2800.00,0.0081
2799.00,0.0080
2798.00,0.0080
2797.00,0.0079
2796.00,0.0079
2795.00,0.0078
2794.00,0.0078
2793.00,0.0078
2792.00,0.0078
2791.00,0.0077
2790.00,0.0076
2789.00,0.0076
2788.00,0.0075
2787.00,0.0075
2786.00,0.0075
2785.00,0.0075
2784.00,0.0074
2783.00,0.0074
2782.00,0.0074
2781.00,0.0073
2780.00,0.0073
2779.00,0.0073
2778.00,0.0073
2777.00,0.0072
2776.00,0.0072
2775.00,0.0071
2774.00,0.0071
2773.00,0.0071
2772.00,0.0071
2771.00,0.0071
2770.00,0.0071
2769.00,0.0071
2768.00,0.0071
2767.00,0.0071
2766.00,0.0071
2765.00,0.0071
2764.00,0.0071
2763.00,0.0071
2762.00,0.0071
2761.00,0.0071
2760.00,0.0071
2759.00,0.0071
2758.00,0.0070
2757.00,0.0071
2756.00,0.0071
2755.00,0.0071
2754.00,0.0071
2753.00,0.0071
2752.00,0.0071
2751.00,0.0071
2750.00,0.0071
2749.00,0.0071
2748.00,0.0071
2747.00,0.0071
2746.00,0.0071
2745.00,0.0072
2744.00,0.0072
2743.00,0.0072
2742.00,0.0073
2741.00,0.0073
2740.00,0.0073
2739.00,0.0073
2738.00,0.0074
2737.00,0.0074
2736.00,0.0075
2735.00,0.0076
2734.00,0.0076
2733.00,0.0077
2732.00,0.0077
2731.00,0.0078
2730.00,0.0078
2729.00,0.0078
2728.00,0.0078
2727.00,0.0077
2726.00,0.0077
2725.00,0.0077
2724.00,0.0076
2723.00,0.0076
2722.00,0.0075
2721.00,0.0075
2720.00,0.0075
2719.00,0.0075
2718.00,0.0074
2717.00,0.0074
2716.00,0.0074
2715.00,0.0073
2714.00,0.0073
2713.00,0.0073
2712.00,0.0073
2711.00,0.0073
2710.00,0.0073
2709.00,0.0073
2708.00,0.0073
2707.00,0.0073
2706.00,0.0073
2705.00,0.0072
2704.00,0.0072
2703.00,0.0072
2702.00,0.0072
2701.00,0.0072
2700.00,0.0072
2699.00,0.0072
2698.00,0.0072
2697.00,0.0072
2696.00,0.0071
2695.00,0.0071
2694.00,0.0071
2693.00,0.0070
2692.00,0.0070
2691.00,0.0070
2690.00,0.0070
2689.00,0.0070
2688.00,0.0070
2687.00,0.0070
2686.00,0.0070
2685.00,0.0070
2684.00,0.0069
2683.00,0.0069
2682.00,0.0069
2681.00,0.0068
2680.00,0.0068
2679.00,0.0068
2678.00,0.0068
2677.00,0.0068
2676.00,0.0068
2675.00,0.0068
2674.00,0.0069
2673.00,0.0069
2672.00,0.0069
2671.00,0.0069
2670.00,0.0069
2669.00,0.0070
2668.00,0.0070
2667.00,0.0070
2666.00,0.0071
2665.00,0.0071
2664.00,0.0072
2663.00,0.0072
2662.00,0.0073
2661.00,0.0073
2660.00,0.0074
2659.00,0.0074
2658.00,0.0074
2657.00,0.0075
2656.00,0.0075
2655.00,0.0075
2654.00,0.0074
2653.00,0.0074
2652.00,0.0074
2651.00,0.0074
2650.00,0.0074
2649.00,0.0074
2648.00,0.0074
2647.00,0.0075
2646.00,0.0075
2645.00,0.0075
2644.00,0.0075
2643.00,0.0075
2642.00,0.0075
2641.00,0.0074
2640.00,0.0074
2639.00,0.0074
2638.00,0.0073
2637.00,0.0073
2636.00,0.0072
2635.00,0.0072
2634.00,0.0072
2633.00,0.0072
2632.00,0.0071
2631.00,0.0071
2630.00,0.0071
2629.00,0.0070
2628.00,0.0070
2627.00,0.0069
2626.00,0.0069
2625.00,0.0069
2624.00,0.0069
2623.00,0.0069
2622.00,0.0068
2621.00,0.0068
2620.00,0.0068
2619.00,0.0068
2618.00,0.0068
2617.00,0.0068
2616.00,0.0068
2615.00,0.0068
2614.00,0.0068
2613.00,0.0068
2612.00,0.0068
2611.00,0.0067
2610.00,0.0067
2609.00,0.0067
2608.00,0.0068
2607.00,0.0068
2606.00,0.0068
2605.00,0.0068
2604.00,0.0068
2603.00,0.0068
2602.00,0.0068
2601.00,0.0068
2600.00,0.0068
2599.00,0.0068
2598.00,0.0069
2597.00,0.0069
2596.00,0.0069
2595.00,0.0069
2594.00,0.0070
2593.00,0.0070
2592.00,0.0069
2591.00,0.0069
2590.00,0.0069
2589.00,0.0069
2588.00,0.0069
2587.00,0.0069
2586.00,0.0069
2585.00,0.0069
2584.00,0.0069
2583.00,0.0069
2582.00,0.0069
2581.00,0.0069
2580.00,0.0068
2579.00,0.0068
2578.00,0.0068
2577.00,0.0068
2576.00,0.0068
2575.00,0.0068
2574.00,0.0068
2573.00,0.0067
2572.00,0.0067
2571.00,0.0067
2570.00,0.0068
2569.00,0.0068
2568.00,0.0068
2567.00,0.0068
2566.00,0.0068
2565.00,0.0068
2564.00,0.0068
2563.00,0.0068
2562.00,0.0068
2561.00,0.0067
2560.00,0.0067
2559.00,0.0067
2558.00,0.0066
2557.00,0.0066
2556.00,0.0065
2555.00,0.0065
2554.00,0.0064
2553.00,0.0064
2552.00,0.0064
2551.00,0.0064
2550.00,0.0064
2549.00,0.0064
2548.00,0.0064
2547.00,0.0064
2546.00,0.0064
2545.00,0.0064
2544.00,0.0064
2543.00,0.0064
2542.00,0.0065
2541.00,0.0065
2540.00,0.0064
2539.00,0.0064
2538.00,0.0065
2537.00,0.0065
2536.00,0.0065
2535.00,0.0065
2534.00,0.0065
2533.00,0.0065
2532.00,0.0065
2531.00,0.0065
2530.00,0.0065
2529.00,0.0064
2528.00,0.0064
2527.00,0.0064
2526.00,0.0064
2525.00,0.0063
2524.00,0.0063
2523.00,0.0063
2522.00,0.0062
2521.00,0.0062
2520.00,0.0062
2519.00,0.0062
2518.00,0.0062
2517.00,0.0062
2516.00,0.0062
2515.00,0.0062
2514.00,0.0062
2513.00,0.0062
2512.00,0.0062
2511.00,0.0061
2510.00,0.0061
2509.00,0.0061
2508.00,0.0061
2507.00,0.0061
2506.00,0.0061
2505.00,0.0060
2504.00,0.0060
2503.00,0.0060
2502.00,0.0060
2501.00,0.0060
2500.00,0.0060
2499.00,0.0060
2498.00,0.0060
2497.00,0.0059
2496.00,0.0059
2495.00,0.0059
2494.00,0.0059
2493.00,0.0058
2492.00,0.0058
2491.00,0.0058
2490.00,0.0058
2489.00,0.0058
2488.00,0.0058
2487.00,0.0058
2486.00,0.0058
2485.00,0.0058
2484.00,0.0058
2483.00,0.0058
2482.00,0.0058
2481.00,0.0058
2480.00,0.0058
2479.00,0.0058
2478.00,0.0058
2477.00,0.0058
2476.00,0.0058
2475.00,0.0058
2474.00,0.0058
2473.00,0.0058
2472.00,0.0058
2471.00,0.0057
2470.00,0.0057
2469.00,0.0057
2468.00,0.0057
2467.00,0.0058
2466.00,0.0058
2465.00,0.0058
2464.00,0.0058
2463.00,0.0058
2462.00,0.0058
2461.00,0.0058
2460.00,0.0058
2459.00,0.0058
2458.00,0.0058
2457.00,0.0058
2456.00,0.0058
2455.00,0.0058
2454.00,0.0058
2453.00,0.0058
2452.00,0.0058
2451.00,0.0058
2450.00,0.0058
2449.00,0.0058
2448.00,0.0058
2447.00,0.0057
2446.00,0.0057
2445.00,0.0057
2444.00,0.0057
2443.00,0.0057
2442.00,0.0057
2441.00,0.0057
2440.00,0.0057
2439.00,0.0057
2438.00,0.0056
2437.00,0.0056
2436.00,0.0056
2435.00,0.0056
2434.00,0.0056
2433.00,0.0056
2432.00,0.0055
2431.00,0.0055
2430.00,0.0055
2429.00,0.0055
2428.00,0.0055
2427.00,0.0055
2426.00,0.0055
2425.00,0.0055
2424.00,0.0055
2423.00,0.0055
2422.00,0.0055
2421.00,0.0055
2420.00,0.0054
2419.00,0.0054
2418.00,0.0054
2417.00,0.0054
2416.00,0.0054
2415.00,0.0054
2414.00,0.0054
2413.00,0.0055
2412.00,0.0055
2411.00,0.0055
2410.00,0.0055
2409.00,0.0055
2408.00,0.0055
2407.00,0.0054
2406.00,0.0054
2405.00,0.0054
2404.00,0.0054
2403.00,0.0054
2402.00,0.0054
2401.00,0.0054
2400.00,0.0054
2399.00,0.0054
2398.00,0.0054
2397.00,0.0054
2396.00,0.0054
2395.00,0.0054
2394.00,0.0053
2393.00,0.0053
2392.00,0.0053
2391.00,0.0053
2390.00,0.0053
2389.00,0.0053
2388.00,0.0053
2387.00,0.0053
2386.00,0.0052
2385.00,0.0052
2384.00,0.0052
2383.00,0.0052
2382.00,0.0051
2381.00,0.0051
2380.00,0.0051
2379.00,0.0051
2378.00,0.0050
2377.00,0.0050
2376.00,0.0051
2375.00,0.0051
2374.00,0.0051
2373.00,0.0051
2372.00,0.0051
2371.00,0.0050
2370.00,0.0050
2369.00,0.0050
2368.00,0.0050
2367.00,0.0050
2366.00,0.0050
2365.00,0.0050
2364.00,0.0050
2363.00,0.0050
2362.00,0.0050
2361.00,0.0051
2360.00,0.0051
2359.00,0.0051
2358.00,0.0050
2357.00,0.0050
2356.00,0.0051
2355.00,0.0050
2354.00,0.0050
2353.00,0.0049
2352.00,0.0049
2351.00,0.0050
2350.00,0.0051
2349.00,0.0052
2348.00,0.0052
2347.00,0.0052
2346.00,0.0051
2345.00,0.0051
2344.00,0.0052
2343.00,0.0052
2342.00,0.0053
2341.00,0.0053
2340.00,0.0053
2339.00,0.0053
2338.00,0.0053
2337.00,0.0053
2336.00,0.0053
2335.00,0.0053
2334.00,0.0053
2333.00,0.0053
2332.00,0.0053
2331.00,0.0053
2330.00,0.0053
2329.00,0.0054
2328.00,0.0056
2327.00,0.0059
2326.00,0.0062
2325.00,0.0063
2324.00,0.0063
2323.00,0.0061
2322.00,0.0060
2321.00,0.0058
2320.00,0.0057
2319.00,0.0056
2318.00,0.0056
2317.00,0.0056
2316.00,0.0055
2315.00,0.0055
2314.00,0.0055
2313.00,0.0054
2312.00,0.0054
2311.00,0.0054
2310.00,0.0054
2309.00,0.0054
2308.00,0.0054
2307.00,0.0055
2306.00,0.0055
2305.00,0.0056
2304.00,0.0056
2303.00,0.0056
2302.00,0.0056
2301.00,0.0057
2300.00,0.0057
2299.00,0.0057
2298.00,0.0057
2297.00,0.0057
2296.00,0.0058
2295.00,0.0058
2294.00,0.0059
2293.00,0.0060
2292.00,0.0061
2291.00,0.0061
2290.00,0.0061
2289.00,0.0061
2288.00,0.0062
2287.00,0.0062
2286.00,0.0062
2285.00,0.0062
2284.00,0.0062
2283.00,0.0062
2282.00,0.0061
2281.00,0.0060
2280.00,0.0059
2279.00,0.0058
2278.00,0.0058
2277.00,0.0057
2276.00,0.0057
2275.00,0.0057
2274.00,0.0057
2273.00,0.0056
2272.00,0.0056
2271.00,0.0057
2270.00,0.0057
2269.00,0.0056
2268.00,0.0055
2267.00,0.0054
2266.00,0.0053
2265.00,0.0053
2264.00,0.0053
2263.00,0.0053
2262.00,0.0053
2261.00,0.0053
2260.00,0.0053
2259.00,0.0052
2258.00,0.0051
2257.00,0.0051
2256.00,0.0050
2255.00,0.0051
2254.00,0.0051
2253.00,0.0051
2252.00,0.0051
2251.00,0.0051
2250.00,0.0051
2249.00,0.0051
2248.00,0.0051
2247.00,0.0052
2246.00,0.0052
2245.00,0.0052
2244.00,0.0052
2243.00,0.0053
2242.00,0.0053
2241.00,0.0054
2240.00,0.0054
2239.00,0.0054
2238.00,0.0054
2237.00,0.0053
2236.00,0.0054
2235.00,0.0054
2234.00,0.0054
2233.00,0.0054
2232.00,0.0054
2231.00,0.0053
2230.00,0.0052
2229.00,0.0052
2228.00,0.0051
2227.00,0.0052
2226.00,0.0052
2225.00,0.0053
2224.00,0.0053
2223.00,0.0054
2222.00,0.0054
2221.00,0.0054
2220.00,0.0053
2219.00,0.0053
2218.00,0.0052
2217.00,0.0051
2216.00,0.0051
2215.00,0.0051
2214.00,0.0051
2213.00,0.0052
2212.00,0.0052
2211.00,0.0052
2210.00,0.0052
2209.00,0.0053
2208.00,0.0053
2207.00,0.0054
2206.00,0.0054
2205.00,0.0054
2204.00,0.0053
2203.00,0.0053
2202.00,0.0052
2201.00,0.0052
2200.00,0.0052
2199.00,0.0052
2198.00,0.0052
2197.00,0.0053
2196.00,0.0053
2195.00,0.0054
2194.00,0.0054
2193.00,0.0053
2192.00,0.0053
2191.00,0.0053
2190.00,0.0053
2189.00,0.0053
2188.00,0.0053
2187.00,0.0053
2186.00,0.0053
2185.00,0.0053
2184.00,0.0053
2183.00,0.0052
2182.00,0.0051
2181.00,0.0051
2180.00,0.0050
2179.00,0.0049
2178.00,0.0048
2177.00,0.0047
2176.00,0.0046
2175.00,0.0046
2174.00,0.0047
2173.00,0.0049
2172.00,0.0051
2171.00,0.0053
2170.00,0.0055
2169.00,0.0056
2168.00,0.0058
2167.00,0.0059
2166.00,0.0059
2165.00,0.0059
2164.00,0.0059
2163.00,0.0059
2162.00,0.0057
2161.00,0.0050
2160.00,0.0040
2159.00,0.0031
2158.00,0.0026
2157.00,0.0026
2156.00,0.0028
2155.00,0.0031
2154.00,0.0033
2153.00,0.0035
2152.00,0.0037
2151.00,0.0038
2150.00,0.0038
2149.00,0.0037
2148.00,0.0036
2147.00,0.0035
2146.00,0.0034
2145.00,0.0034
2144.00,0.0034
2143.00,0.0034
2142.00,0.0035
2141.00,0.0035
2140.00,0.0035
2139.00,0.0035
2138.00,0.0035
2137.00,0.0034
2136.00,0.0033
2135.00,0.0032
2134.00,0.0031
2133.00,0.0032
2132.00,0.0034
2131.00,0.0035
2130.00,0.0037
2129.00,0.0038
2128.00,0.0039
2127.00,0.0039
2126.00,0.0040
2125.00,0.0040
2124.00,0.0041
2123.00,0.0042
2122.00,0.0043
2121.00,0.0044
2120.00,0.0044
2119.00,0.0044
2118.00,0.0044
2117.00,0.0044
2116.00,0.0045
2115.00,0.0046
2114.00,0.0046
2113.00,0.0046
2112.00,0.0046
2111.00,0.0045
2110.00,0.0045
2109.00,0.0046
2108.00,0.0046
2107.00,0.0046
2106.00,0.0045
2105.00,0.0044
2104.00,0.0044
2103.00,0.0044
2102.00,0.0045
2101.00,0.0045
2100.00,0.0046
2099.00,0.0045
2098.00,0.0044
2097.00,0.0043
2096.00,0.0041
2095.00,0.0040
2094.00,0.0040
2093.00,0.0041
2092.00,0.0042
2091.00,0.0043
2090.00,0.0043
2089.00,0.0043
2088.00,0.0044
2087.00,0.0044
2086.00,0.0045
2085.00,0.0045
2084.00,0.0045
2083.00,0.0046
2082.00,0.0047
2081.00,0.0048
2080.00,0.0049
2079.00,0.0049
2078.00,0.0049
2077.00,0.0048
2076.00,0.0048
2075.00,0.0047
2074.00,0.0047
2073.00,0.0047
2072.00,0.0046
2071.00,0.0046
2070.00,0.0046
2069.00,0.0046
2068.00,0.0046
2067.00,0.0046
2066.00,0.0046
2065.00,0.0046
2064.00,0.0046
2063.00,0.0045
2062.00,0.0045
2061.00,0.0045
2060.00,0.0044
2059.00,0.0044
2058.00,0.0044
2057.00,0.0044
2056.00,0.0044
2055.00,0.0044
2054.00,0.0045
2053.00,0.0049
2052.00,0.0052
2051.00,0.0053
2050.00,0.0051
2049.00,0.0049
2048.00,0.0047
2047.00,0.0046
2046.00,0.0045
2045.00,0.0044
2044.00,0.0043
2043.00,0.0043
2042.00,0.0043
2041.00,0.0043
2040.00,0.0044
2039.00,0.0045
2038.00,0.0046
2037.00,0.0046
2036.00,0.0045
2035.00,0.0044
2034.00,0.0042
2033.00,0.0041
2032.00,0.0041
2031.00,0.0042
2030.00,0.0042
2029.00,0.0041
2028.00,0.0040
2027.00,0.0040
2026.00,0.0039
2025.00,0.0039
2024.00,0.0040
2023.00,0.0040
2022.00,0.0040
2021.00,0.0040
2020.00,0.0040
2019.00,0.0039
2018.00,0.0037
2017.00,0.0036
2016.00,0.0037
2015.00,0.0037
2014.00,0.0038
2013.00,0.0039
2012.00,0.0040
2011.00,0.0041
2010.00,0.0041
2009.00,0.0041
2008.00,0.0039
2007.00,0.0038
2006.00,0.0036
2005.00,0.0036
2004.00,0.0035
2003.00,0.0034
2002.00,0.0033
2001.00,0.0033
2000.00,0.0033
1999.00,0.0034
1998.00,0.0036
1997.00,0.0038
1996.00,0.0041
1995.00,0.0042
1994.00,0.0043
1993.00,0.0043
1992.00,0.0043
1991.00,0.0043
1990.00,0.0043
1989.00,0.0043
1988.00,0.0044
1987.00,0.0044
1986.00,0.0045
1985.00,0.0046
1984.00,0.0049
1983.00,0.0051
1982.00,0.0053
1981.00,0.0054
1980.00,0.0053
1979.00,0.0049
1978.00,0.0043
1977.00,0.0038
1976.00,0.0036
1975.00,0.0035
1974.00,0.0034
1973.00,0.0033
1972.00,0.0033
1971.00,0.0033
1970.00,0.0033
1969.00,0.0034
1968.00,0.0035
1967.00,0.0036
1966.00,0.0037
1965.00,0.0037
1964.00,0.0036
1963.00,0.0035
1962.00,0.0034
1961.00,0.0032
1960.00,0.0032
1959.00,0.0032
1958.00,0.0033
1957.00,0.0034
1956.00,0.0035
1955.00,0.0035
1954.00,0.0036
1953.00,0.0036
1952.00,0.0036
1951.00,0.0037
1950.00,0.0037
1949.00,0.0038
1948.00,0.0038
1947.00,0.0037
1946.00,0.0037
1945.00,0.0038
1944.00,0.0038
1943.00,0.0039
1942.00,0.0038
1941.00,0.0038
1940.00,0.0037
1939.00,0.0037
1938.00,0.0037
1937.00,0.0038
1936.00,0.0039
1935.00,0.0039
1934.00,0.0039
1933.00,0.0039
1932.00,0.0039
1931.00,0.0039
1930.00,0.0039
1929.00,0.0039
1928.00,0.0040
1927.00,0.0041
1926.00,0.0041
1925.00,0.0041
1924.00,0.0042
1923.00,0.0042
1922.00,0.0043
1921.00,0.0043
1920.00,0.0043
1919.00,0.0043
1918.00,0.0043
1917.00,0.0042
1916.00,0.0043
1915.00,0.0043
1914.00,0.0044
1913.00,0.0045
1912.00,0.0046
1911.00,0.0049
1910.00,0.0051
1909.00,0.0054
1908.00,0.0055
1907.00,0.0055
1906.00,0.0053
1905.00,0.0051
1904.00,0.0049
1903.00,0.0047
1902.00,0.0046
1901.00,0.0045
1900.00,0.0045
1899.00,0.0045
1898.00,0.0045
1897.00,0.0045
1896.00,0.0045
1895.00,0.0046
1894.00,0.0047
1893.00,0.0047
1892.00,0.0047
1891.00,0.0046
1890.00,0.0045
1889.00,0.0045
1888.00,0.0044
1887.00,0.0044
1886.00,0.0044
1885.00,0.0044
1884.00,0.0044
1883.00,0.0044
1882.00,0.0043
1881.00,0.0043
1880.00,0.0043
1879.00,0.0043
1878.00,0.0043
1877.00,0.0043
1876.00,0.0043
1875.00,0.0044
1874.00,0.0043
1873.00,0.0043
1872.00,0.0042
1871.00,0.0042
1870.00,0.0043
1869.00,0.0043
1868.00,0.0043
1867.00,0.0043
1866.00,0.0043
1865.00,0.0043
1864.00,0.0043
1863.00,0.0044
1862.00,0.0044
1861.00,0.0044
1860.00,0.0044
1859.00,0.0044
1858.00,0.0044
1857.00,0.0044
1856.00,0.0045
1855.00,0.0045
1854.00,0.0044
1853.00,0.0045
1852.00,0.0045
1851.00,0.0045
1850.00,0.0046
1849.00,0.0046
1848.00,0.0047
1847.00,0.0047
1846.00,0.0048
1845.00,0.0048
1844.00,0.0049
1843.00,0.0048
1842.00,0.0048
1841.00,0.0047
1840.00,0.0046
1839.00,0.0045
1838.00,0.0045
1837.00,0.0044
1836.00,0.0044
1835.00,0.0044
1834.00,0.0043
1833.00,0.0042
1832.00,0.0042
1831.00,0.0042
1830.00,0.0042
1829.00,0.0043
1828.00,0.0044
1827.00,0.0044
1826.00,0.0044
1825.00,0.0044
1824.00,0.0044
1823.00,0.0044
1822.00,0.0044
1821.00,0.0044
1820.00,0.0044
1819.00,0.0043
1818.00,0.0043
1817.00,0.0043
1816.00,0.0043
1815.00,0.0043
1814.00,0.0043
1813.00,0.0043
1812.00,0.0043
1811.00,0.0043
1810.00,0.0043
1809.00,0.0044
1808.00,0.0044
1807.00,0.0044
1806.00,0.0044
1805.00,0.0044
1804.00,0.0044
1803.00,0.0044
1802.00,0.0045
1801.00,0.0045
1800.00,0.0046
1799.00,0.0046
1798.00,0.0047
1797.00,0.0047
1796.00,0.0047
1795.00,0.0046
1794.00,0.0046
1793.00,0.0046
1792.00,0.0047
1791.00,0.0047
1790.00,0.0047
1789.00,0.0047
1788.00,0.0047
1787.00,0.0047
1786.00,0.0047
1785.00,0.0047
1784.00,0.0047
1783.00,0.0047
1782.00,0.0047
1781.00,0.0047
1780.00,0.0047
1779.00,0.0048
1778.00,0.0048
1777.00,0.0048
1776.00,0.0048
1775.00,0.0048
1774.00,0.0049
1773.00,0.0049
1772.00,0.0050
1771.00,0.0050
1770.00,0.0050
1769.00,0.0050
1768.00,0.0050
1767.00,0.0050
1766.00,0.0049
1765.00,0.0048
1764.00,0.0048
1763.00,0.0048
1762.00,0.0049
1761.00,0.0049
1760.00,0.0049
1759.00,0.0050
1758.00,0.0049
1757.00,0.0049
1756.00,0.0049
1755.00,0.0048
1754.00,0.0047
1753.00,0.0046
1752.00,0.0046
1751.00,0.0045
1750.00,0.0044
1749.00,0.0044
1748.00,0.0045
1747.00,0.0045
1746.00,0.0045
1745.00,0.0045
1744.00,0.0044
1743.00,0.0044
1742.00,0.0044
1741.00,0.0043
1740.00,0.0044
1739.00,0.0044
1738.00,0.0044
1737.00,0.0043
1736.00,0.0043
1735.00,0.0044
1734.00,0.0045
1733.00,0.0046
1732.00,0.0047
1731.00,0.0048
1730.00,0.0049
1729.00,0.0050
1728.00,0.0051
1727.00,0.0052
1726.00,0.0052
1725.00,0.0053
1724.00,0.0054
1723.00,0.0055
1722.00,0.0055
1721.00,0.0055
1720.00,0.0055
1719.00,0.0055
1718.00,0.0056
1717.00,0.0057
1716.00,0.0058
1715.00,0.0059
1714.00,0.0060
1713.00,0.0061
1712.00,0.0062
1711.00,0.0063
1710.00,0.0063
1709.00,0.0063
1708.00,0.0062
1707.00,0.0062
1706.00,0.0062
1705.00,0.0061
1704.00,0.0061
1703.00,0.0061
1702.00,0.0061
1701.00,0.0060
1700.00,0.0059
1699.00,0.0057
1698.00,0.0057
1697.00,0.0057
1696.00,0.0055
1695.00,0.0053
1694.00,0.0050
1693.00,0.0048
1692.00,0.0047
1691.00,0.0046
1690.00,0.0043
1689.00,0.0041
1688.00,0.0040
1687.00,0.0040
1686.00,0.0040
1685.00,0.0037
1684.00,0.0033
1683.00,0.0030
1682.00,0.0031
1681.00,0.0035
1680.00,0.0038
1679.00,0.0042
1678.00,0.0045
1677.00,0.0049
1676.00,0.0052
1675.00,0.0055
1674.00,0.0057
1673.00,0.0061
1672.00,0.0067
1671.00,0.0072
1670.00,0.0075
1669.00,0.0077
1668.00,0.0081
1667.00,0.0086
1666.00,0.0092
1665.00,0.0098
1664.00,0.0104
1663.00,0.0107
1662.00,0.0110
1661.00,0.0114
1660.00,0.0119
1659.00,0.0126
1658.00,0.0132
1657.00,0.0138
1656.00,0.0147
1655.00,0.0155
1654.00,0.0158
1653.00,0.0153
1652.00,0.0150
1651.00,0.0155
1650.00,0.0163
1649.00,0.0172
1648.00,0.0180
1647.00,0.0182
1646.00,0.0182
1645.00,0.0185
1644.00,0.0190
1643.00,0.0197
1642.00,0.0202
1641.00,0.0207
1640.00,0.0210
1639.00,0.0213
1638.00,0.0216
1637.00,0.0217
1636.00,0.0215
1635.00,0.0214
1634.00,0.0218
1633.00,0.0228
1632.00,0.0243
1631.00,0.0263
1630.00,0.0288
1629.00,0.0319
1628.00,0.0357
1627.00,0.0398
1626.00,0.0437
1625.00,0.0472
1624.00,0.0502
1623.00,0.0524
1622.00,0.0537
1621.00,0.0545
1620.00,0.0549
1619.00,0.0546
1618.00,0.0528
1617.00,0.0490
1616.00,0.0447
1615.00,0.0419
1614.00,0.0409
1613.00,0.0411
1612.00,0.0417
1611.00,0.0421
1610.00,0.0419
1609.00,0.0410
1608.00,0.0393
1607.00,0.0372
1606.00,0.0349
1605.00,0.0325
1604.00,0.0301
1603.00,0.0279
1602.00,0.0258
1601.00,0.0239
1600.00,0.0224
1599.00,0.0213
1598.00,0.0204
1597.00,0.0198
1596.00,0.0196
1595.00,0.0197
1594.00,0.0202
1593.00,0.0212
1592.00,0.0227
1591.00,0.0248
1590.00,0.0273
1589.00,0.0302
1588.00,0.0333
1587.00,0.0362
1586.00,0.0386
1585.00,0.0405
1584.00,0.0417
1583.00,0.0422
1582.00,0.0420
1581.00,0.0413
1580.00,0.0404
1579.00,0.0394
1578.00,0.0380
1577.00,0.0358
1576.00,0.0329
1575.00,0.0303
1574.00,0.0286
1573.00,0.0277
1572.00,0.0271
1571.00,0.0265
1570.00,0.0256
1569.00,0.0246
1568.00,0.0237
1567.00,0.0230
1566.00,0.0221
1565.00,0.0208
1564.00,0.0194
1563.00,0.0182
1562.00,0.0173
1561.00,0.0165
1560.00,0.0153
1559.00,0.0137
1558.00,0.0124
1557.00,0.0119
1556.00,0.0117
1555.00,0.0115
1554.00,0.0114
1553.00,0.0111
1552.00,0.0109
1551.00,0.0108
1550.00,0.0106
1549.00,0.0105
1548.00,0.0103
1547.00,0.0102
1546.00,0.0101
1545.00,0.0099
1544.00,0.0097
1543.00,0.0094
1542.00,0.0093
1541.00,0.0091
1540.00,0.0091
1539.00,0.0091
1538.00,0.0091
1537.00,0.0090
1536.00,0.0090
1535.00,0.0090
1534.00,0.0089
1533.00,0.0089
1532.00,0.0088
1531.00,0.0088
1530.00,0.0088
1529.00,0.0087
1528.00,0.0087
1527.00,0.0088
1526.00,0.0088
1525.00,0.0089
1524.00,0.0090
1523.00,0.0091
1522.00,0.0094
1521.00,0.0096
1520.00,0.0099
1519.00,0.0101
1518.00,0.0105
1517.00,0.0110
1516.00,0.0115
1515.00,0.0121
1514.00,0.0126
1513.00,0.0131
1512.00,0.0135
1511.00,0.0138
1510.00,0.0141
1509.00,0.0142
1508.00,0.0143
1507.00,0.0143
1506.00,0.0143
1505.00,0.0144
1504.00,0.0148
1503.00,0.0153
1502.00,0.0160
1501.00,0.0171
1500.00,0.0187
1499.00,0.0209
1498.00,0.0237
1497.00,0.0265
1496.00,0.0282
1495.00,0.0286
1494.00,0.0279
1493.00,0.0266
1492.00,0.0248
1491.00,0.0225
1490.00,0.0201
1489.00,0.0179
1488.00,0.0164
1487.00,0.0152
1486.00,0.0144
1485.00,0.0137
1484.00,0.0132
1483.00,0.0128
1482.00,0.0125
1481.00,0.0122
1480.00,0.0121
1479.00,0.0120
1478.00,0.0120
1477.00,0.0121
1476.00,0.0123
1475.00,0.0126
1474.00,0.0130
1473.00,0.0138
1472.00,0.0152
1471.00,0.0170
1470.00,0.0192
1469.00,0.0217
1468.00,0.0243
1467.00,0.0267
1466.00,0.0283
1465.00,0.0289
1464.00,0.0286
1463.00,0.0282
1462.00,0.0281
1461.00,0.0284
1460.00,0.0288
1459.00,0.0291
1458.00,0.0289
1457.00,0.0279
1456.00,0.0266
1455.00,0.0258
1454.00,0.0255
1453.00,0.0254
1452.00,0.0255
1451.00,0.0257
1450.00,0.0261
1449.00,0.0265
1448.00,0.0270
1447.00,0.0275
1446.00,0.0283
1445.00,0.0293
1444.00,0.0306
1443.00,0.0318
1442.00,0.0330
1441.00,0.0341
1440.00,0.0351
1439.00,0.0360
1438.00,0.0367
1437.00,0.0370
1436.00,0.0372
1435.00,0.0378
1434.00,0.0389
1433.00,0.0404
1432.00,0.0417
1431.00,0.0427
1430.00,0.0432
1429.00,0.0434
1428.00,0.0433
1427.00,0.0431
1426.00,0.0427
1425.00,0.0420
1424.00,0.0410
1423.00,0.0401
1422.00,0.0395
1421.00,0.0390
1420.00,0.0381
1419.00,0.0364
1418.00,0.0346
1417.00,0.0332
1416.00,0.0323
1415.00,0.0317
1414.00,0.0311
1413.00,0.0307
1412.00,0.0306
1411.00,0.0308
1410.00,0.0315
1409.00,0.0326
1408.00,0.0341
1407.00,0.0360
1406.00,0.0383
1405.00,0.0409
1404.00,0.0436
1403.00,0.0460
1402.00,0.0480
1401.00,0.0496
1400.00,0.0502
1399.00,0.0497
1398.00,0.0484
1397.00,0.0466
1396.00,0.0443
1395.00,0.0413
1394.00,0.0381
1393.00,0.0355
1392.00,0.0335
1391.00,0.0322
1390.00,0.0315
1389.00,0.0317
1388.00,0.0326
1387.00,0.0337
1386.00,0.0341
1385.00,0.0336
1384.00,0.0325
1383.00,0.0314
1382.00,0.0307
1381.00,0.0307
1380.00,0.0309
1379.00,0.0310
1378.00,0.0308
1377.00,0.0303
1376.00,0.0293
1375.00,0.0277
1374.00,0.0258
1373.00,0.0240
1372.00,0.0230
1371.00,0.0227
1370.00,0.0232
1369.00,0.0246
1368.00,0.0267
1367.00,0.0292
1366.00,0.0316
1365.00,0.0334
1364.00,0.0344
1363.00,0.0352
1362.00,0.0366
1361.00,0.0384
1360.00,0.0400
1359.00,0.0402
1358.00,0.0390
1357.00,0.0369
1356.00,0.0345
1355.00,0.0327
1354.00,0.0313
1353.00,0.0305
1352.00,0.0300
1351.00,0.0297
1350.00,0.0297
1349.00,0.0299
1348.00,0.0301
1347.00,0.0302
1346.00,0.0301
1345.00,0.0297
1344.00,0.0290
1343.00,0.0281
1342.00,0.0271
1341.00,0.0260
1340.00,0.0247
1339.00,0.0235
1338.00,0.0225
1337.00,0.0219
1336.00,0.0216
1335.00,0.0217
1334.00,0.0221
1333.00,0.0226
1332.00,0.0233
1331.00,0.0239
1330.00,0.0243
1329.00,0.0246
1328.00,0.0246
1327.00,0.0245
1326.00,0.0242
1325.00,0.0238
1324.00,0.0234
1323.00,0.0231
1322.00,0.0229
1321.00,0.0227
1320.00,0.0225
1319.00,0.0222
1318.00,0.0219
1317.00,0.0214
1316.00,0.0209
1315.00,0.0203
1314.00,0.0199
1313.00,0.0196
1312.00,0.0196
1311.00,0.0198
1310.00,0.0203
1309.00,0.0211
1308.00,0.0221
1307.00,0.0235
1306.00,0.0253
1305.00,0.0275
1304.00,0.0301
1303.00,0.0328
1302.00,0.0354
1301.00,0.0372
1300.00,0.0380
1299.00,0.0377
1298.00,0.0369
1297.00,0.0360
1296.00,0.0354
1295.00,0.0350
1294.00,0.0347
1293.00,0.0344
1292.00,0.0339
1291.00,0.0334
1290.00,0.0331
1289.00,0.0332
1288.00,0.0339
1287.00,0.0350
1286.00,0.0364
1285.00,0.0379
1284.00,0.0391
1283.00,0.0397
1282.00,0.0396
1281.00,0.0387
1280.00,0.0371
1279.00,0.0351
1278.00,0.0330
1277.00,0.0310
1276.00,0.0293
1275.00,0.0278
1274.00,0.0267
1273.00,0.0257
1272.00,0.0248
1271.00,0.0240
1270.00,0.0232
1269.00,0.0226
1268.00,0.0220
1267.00,0.0215
1266.00,0.0211
1265.00,0.0206
1264.00,0.0201
1263.00,0.0195
1262.00,0.0189
1261.00,0.0184
1260.00,0.0179
1259.00,0.0174
1258.00,0.0171
1257.00,0.0168
1256.00,0.0166
1255.00,0.0165
1254.00,0.0165
1253.00,0.0166
1252.00,0.0169
1251.00,0.0174
1250.00,0.0182
1249.00,0.0192
1248.00,0.0205
1247.00,0.0219
1246.00,0.0235
1245.00,0.0251
1244.00,0.0264
1243.00,0.0275
1242.00,0.0284
1241.00,0.0291
1240.00,0.0299
1239.00,0.0310
1238.00,0.0325
1237.00,0.0344
1236.00,0.0364
1235.00,0.0382
1234.00,0.0395
1233.00,0.0401
1232.00,0.0397
1231.00,0.0386
1230.00,0.0368
1229.00,0.0349
1228.00,0.0329
1227.00,0.0310
1226.00,0.0295
1225.00,0.0282
1224.00,0.0272
1223.00,0.0264
1222.00,0.0260
1221.00,0.0258
1220.00,0.0259
1219.00,0.0264
1218.00,0.0272
1217.00,0.0282
1216.00,0.0291
1215.00,0.0299
1214.00,0.0303
1213.00,0.0300
1212.00,0.0292
1211.00,0.0279
1210.00,0.0263
1209.00,0.0247
1208.00,0.0234
1207.00,0.0223
1206.00,0.0218
1205.00,0.0217
1204.00,0.0222
1203.00,0.0233
1202.00,0.0248
1201.00,0.0268
1200.00,0.0291
1199.00,0.0317
1198.00,0.0346
1197.00,0.0375
1196.00,0.0402
1195.00,0.0422
1194.00,0.0431
1193.00,0.0429
1192.00,0.0418
1191.00,0.0398
1190.00,0.0374
1189.00,0.0347
1188.00,0.0318
1187.00,0.0290
1186.00,0.0265
1185.00,0.0242
1184.00,0.0223
1183.00,0.0208
1182.00,0.0195
1181.00,0.0185
1180.00,0.0177
1179.00,0.0171
1178.00,0.0166
1177.00,0.0162
1176.00,0.0159
1175.00,0.0157
1174.00,0.0155
1173.00,0.0154
1172.00,0.0153
1171.00,0.0152
1170.00,0.0151
1169.00,0.0151
1168.00,0.0152
1167.00,0.0153
1166.00,0.0155
1165.00,0.0158
1164.00,0.0163
1163.00,0.0172
1162.00,0.0184
1161.00,0.0201
1160.00,0.0227
1159.00,0.0261
1158.00,0.0305
1157.00,0.0353
1156.00,0.0398
1155.00,0.0430
1154.00,0.0442
1153.00,0.0428
1152.00,0.0393
1151.00,0.0345
1150.00,0.0296
1149.00,0.0253
1148.00,0.0220
1147.00,0.0196
1146.00,0.0180
1145.00,0.0170
1144.00,0.0164
1143.00,0.0161
1142.00,0.0159
1141.00,0.0160
1140.00,0.0162
1139.00,0.0167
1138.00,0.0175
1137.00,0.0187
1136.00,0.0204
1135.00,0.0229
1134.00,0.0263
1133.00,0.0307
1132.00,0.0360
1131.00,0.0417
1130.00,0.0469
1129.00,0.0508
1128.00,0.0529
1127.00,0.0531
1126.00,0.0517
1125.00,0.0491
1124.00,0.0457
1123.00,0.0418
1122.00,0.0377
1121.00,0.0338
1120.00,0.0304
1119.00,0.0278
1118.00,0.0259
1117.00,0.0247
1116.00,0.0241
1115.00,0.0237
1114.00,0.0235
1113.00,0.0231
1112.00,0.0226
1111.00,0.0218
1110.00,0.0210
1109.00,0.0203
1108.00,0.0199
1107.00,0.0198
1106.00,0.0201
1105.00,0.0212
1104.00,0.0230
1103.00,0.0256
1102.00,0.0287
1101.00,0.0319
1100.00,0.0342
1099.00,0.0351
1098.00,0.0343
1097.00,0.0321
1096.00,0.0291
1095.00,0.0258
1094.00,0.0228
1093.00,0.0203
1092.00,0.0184
1091.00,0.0169
1090.00,0.0159
1089.00,0.0151
1088.00,0.0146
1087.00,0.0141
1086.00,0.0138
1085.00,0.0136
1084.00,0.0134
1083.00,0.0133
1082.00,0.0133
1081.00,0.0134
1080.00,0.0135
1079.00,0.0136
1078.00,0.0136
1077.00,0.0138
1076.00,0.0139
1075.00,0.0141
1074.00,0.0144
1073.00,0.0148
1072.00,0.0152
1071.00,0.0157
1070.00,0.0163
1069.00,0.0169
1068.00,0.0176
1067.00,0.0184
1066.00,0.0193
1065.00,0.0203
1064.00,0.0217
1063.00,0.0235
1062.00,0.0259
1061.00,0.0290
1060.00,0.0329
1059.00,0.0379
1058.00,0.0438
1057.00,0.0503
1056.00,0.0567
1055.00,0.0623
1054.00,0.0664
1053.00,0.0690
1052.00,0.0705
1051.00,0.0711
1050.00,0.0711
1049.00,0.0703
1048.00,0.0686
1047.00,0.0659
1046.00,0.0623
1045.00,0.0580
1044.00,0.0533
1043.00,0.0486
1042.00,0.0442
1041.00,0.0404
1040.00,0.0373
1039.00,0.0350
1038.00,0.0337
1037.00,0.0331
1036.00,0.0332
1035.00,0.0336
1034.00,0.0344
1033.00,0.0356
1032.00,0.0377
1031.00,0.0411
1030.00,0.0458
1029.00,0.0512
1028.00,0.0564
1027.00,0.0599
1026.00,0.0607
1025.00,0.0587
1024.00,0.0545
1023.00,0.0492
1022.00,0.0438
1021.00,0.0389
1020.00,0.0347
1019.00,0.0312
1018.00,0.0283
1017.00,0.0260
1016.00,0.0241
1015.00,0.0226
1014.00,0.0214
1013.00,0.0205
1012.00,0.0200
1011.00,0.0199
1010.00,0.0202
1009.00,0.0211
1008.00,0.0226
1007.00,0.0245
1006.00,0.0266
1005.00,0.0286
1004.00,0.0302
1003.00,0.0310
1002.00,0.0311
1001.00,0.0305
1000.00,0.0295
999.00,0.0285
998.00,0.0275
997.00,0.0266
996.00,0.0259
995.00,0.0254
994.00,0.0249
993.00,0.0242
992.00,0.0233
991.00,0.0222
990.00,0.0209
989.00,0.0196
988.00,0.0185
987.00,0.0175
986.00,0.0167
985.00,0.0161
984.00,0.0156
983.00,0.0152
982.00,0.0149
981.00,0.0146
980.00,0.0145
979.00,0.0145
978.00,0.0145
977.00,0.0145
976.00,0.0146
975.00,0.0146
974.00,0.0146
973.00,0.0145
972.00,0.0144
971.00,0.0143
970.00,0.0142
969.00,0.0141
968.00,0.0141
967.00,0.0141
966.00,0.0142
965.00,0.0144
964.00,0.0147
963.00,0.0149
962.00,0.0151
961.00,0.0149
960.00,0.0144
959.00,0.0137
958.00,0.0128
957.00,0.0121
956.00,0.0116
955.00,0.0111
954.00,0.0108
953.00,0.0105
952.00,0.0103
951.00,0.0104
950.00,0.0107
949.00,0.0111
948.00,0.0115
947.00,0.0116
946.00,0.0116
945.00,0.0114
944.00,0.0114
943.00,0.0117
942.00,0.0122
941.00,0.0128
940.00,0.0134
939.00,0.0140
938.00,0.0144
937.00,0.0148
936.00,0.0151
935.00,0.0155
934.00,0.0159
933.00,0.0163
932.00,0.0165
931.00,0.0164
930.00,0.0160
929.00,0.0156
928.00,0.0153
927.00,0.0151
926.00,0.0154
925.00,0.0159
924.00,0.0168
923.00,0.0178
922.00,0.0186
921.00,0.0189
920.00,0.0185
919.00,0.0175
918.00,0.0160
917.00,0.0146
916.00,0.0133
915.00,0.0124
914.00,0.0117
913.00,0.0112
912.00,0.0109
911.00,0.0106
910.00,0.0105
909.00,0.0105
908.00,0.0105
907.00,0.0107
906.00,0.0110
905.00,0.0116
904.00,0.0124
903.00,0.0136
902.00,0.0151
901.00,0.0168
900.00,0.0183
899.00,0.0192
898.00,0.0192
897.00,0.0184
896.00,0.0173
895.00,0.0162
894.00,0.0157
893.00,0.0161
892.00,0.0172
891.00,0.0188
890.00,0.0199
889.00,0.0198
888.00,0.0184
887.00,0.0163
886.00,0.0144
885.00,0.0132
884.00,0.0127
883.00,0.0126
882.00,0.0128
881.00,0.0132
880.00,0.0138
879.00,0.0149
878.00,0.0165
877.00,0.0187
876.00,0.0216
875.00,0.0251
874.00,0.0291
873.00,0.0334
872.00,0.0376
871.00,0.0413
870.00,0.0438
869.00,0.0446
868.00,0.0436
867.00,0.0414
866.00,0.0386
865.00,0.0356
864.00,0.0327
863.00,0.0299
862.00,0.0272
861.00,0.0248
860.00,0.0229
859.00,0.0217
858.00,0.0214
857.00,0.0222
856.00,0.0238
855.00,0.0259
854.00,0.0281
853.00,0.0300
852.00,0.0318
851.00,0.0336
850.00,0.0353
849.00,0.0364
848.00,0.0364
847.00,0.0352
846.00,0.0332
845.00,0.0309
844.00,0.0288
843.00,0.0269
842.00,0.0256
841.00,0.0249
840.00,0.0248
839.00,0.0255
838.00,0.0271
837.00,0.0295
836.00,0.0322
835.00,0.0347
834.00,0.0366
833.00,0.0375
832.00,0.0373
831.00,0.0360
830.00,0.0337
829.00,0.0306
828.00,0.0273
827.00,0.0243
826.00,0.0221
825.00,0.0214
824.00,0.0226
823.00,0.0264
822.00,0.0324
821.00,0.0391
820.00,0.0441
819.00,0.0466
818.00,0.0479
817.00,0.0496
816.00,0.0516
815.00,0.0515
814.00,0.0478
813.00,0.0411
812.00,0.0338
811.00,0.0278
810.00,0.0234
809.00,0.0204
808.00,0.0183
807.00,0.0169
806.00,0.0158
805.00,0.0150
804.00,0.0143
803.00,0.0138
802.00,0.0134
801.00,0.0131
800.00,0.0128
799.00,0.0127
798.00,0.0126
797.00,0.0125
796.00,0.0124
795.00,0.0123
794.00,0.0122
793.00,0.0121
792.00,0.0120
791.00,0.0119
790.00,0.0119
789.00,0.0119
788.00,0.0119
787.00,0.0120
786.00,0.0120
785.00,0.0120
784.00,0.0120
783.00,0.0121
782.00,0.0122
781.00,0.0123
780.00,0.0124
779.00,0.0128
778.00,0.0134
777.00,0.0144
776.00,0.0157
775.00,0.0170
774.00,0.0176
773.00,0.0175
772.00,0.0166
771.00,0.0155
770.00,0.0147
769.00,0.0141
768.00,0.0138
767.00,0.0136
766.00,0.0136
765.00,0.0137
764.00,0.0140
763.00,0.0144
762.00,0.0150
761.00,0.0156
760.00,0.0161
759.00,0.0164
758.00,0.0163
757.00,0.0160
756.00,0.0156
755.00,0.0153
754.00,0.0151
753.00,0.0150
752.00,0.0150
751.00,0.0151
750.00,0.0152
749.00,0.0153
748.00,0.0154
747.00,0.0156
746.00,0.0158
745.00,0.0161
744.00,0.0165
743.00,0.0169
742.00,0.0175
741.00,0.0184
740.00,0.0196
739.00,0.0213
738.00,0.0238
737.00,0.0269
736.00,0.0301
735.00,0.0326
734.00,0.0335
733.00,0.0329
732.00,0.0316
731.00,0.0305
730.00,0.0302
729.00,0.0304
728.00,0.0304
727.00,0.0297
726.00,0.0280
725.00,0.0259
724.00,0.0239
723.00,0.0222
722.00,0.0211
721.00,0.0205
720.00,0.0205
719.00,0.0209
718.00,0.0218
717.00,0.0230
716.00,0.0242
715.00,0.0251
714.00,0.0253
713.00,0.0250
712.00,0.0244
711.00,0.0237
710.00,0.0230
709.00,0.0223
708.00,0.0219
707.00,0.0216
706.00,0.0216
705.00,0.0217
704.00,0.0220
703.00,0.0224
702.00,0.0230
701.00,0.0236
700.00,0.0243
699.00,0.0249
698.00,0.0252
697.00,0.0253
696.00,0.0250
695.00,0.0244
694.00,0.0240
693.00,0.0238
692.00,0.0241
691.00,0.0249
690.00,0.0262
689.00,0.0275
688.00,0.0284
687.00,0.0285
686.00,0.0279
685.00,0.0268
684.00,0.0258
683.00,0.0252
682.00,0.0248
681.00,0.0248
680.00,0.0250
679.00,0.0254
678.00,0.0259
677.00,0.0265
676.00,0.0274
675.00,0.0285
674.00,0.0298
673.00,0.0310
672.00,0.0320
671.00,0.0328
670.00,0.0333
669.00,0.0331
668.00,0.0322
667.00,0.0313
666.00,0.0308
665.00,0.0309
664.00,0.0314
663.00,0.0320
662.00,0.0324
661.00,0.0325
660.00,0.0321
659.00,0.0314
658.00,0.0303
657.00,0.0292
656.00,0.0283
655.00,0.0276
654.00,0.0271
653.00,0.0267
652.00,0.0265
651.00,0.0263
650.00,0.0262
649.00,0.0261
648.00,0.0261
647.00,0.0260
646.00,0.0259
645.00,0.0258
644.00,0.0256
643.00,0.0254
642.00,0.0253
641.00,0.0252
640.00,0.0252
639.00,0.0251
638.00,0.0250
637.00,0.0250
636.00,0.0250
635.00,0.0250
634.00,0.0249
633.00,0.0249
632.00,0.0249
631.00,0.0249
630.00,0.0251
629.00,0.0253
628.00,0.0256
627.00,0.0259
626.00,0.0263
625.00,0.0269
624.00,0.0275
623.00,0.0283
622.00,0.0291
621.00,0.0298
620.00,0.0303
619.00,0.0304
618.00,0.0300
617.00,0.0292
616.00,0.0281
615.00,0.0269
614.00,0.0258
613.00,0.0250
612.00,0.0245
611.00,0.0245
610.00,0.0249
609.00,0.0258
608.00,0.0273
607.00,0.0293
606.00,0.0316
605.00,0.0339
604.00,0.0359
603.00,0.0373
602.00,0.0381
601.00,0.0385
600.00,0.0385
599.00,0.0384
598.00,0.0383
597.00,0.0381
596.00,0.0380
595.00,0.0378
594.00,0.0376
593.00,0.0374
592.00,0.0370
591.00,0.0365
590.00,0.0361
589.00,0.0358
588.00,0.0355
587.00,0.0352
586.00,0.0349
585.00,0.0347
584.00,0.0346
583.00,0.0348
582.00,0.0351
581.00,0.0356
580.00,0.0364
579.00,0.0376
578.00,0.0392
577.00,0.0407
576.00,0.0414
575.00,0.0410
574.00,0.0397
573.00,0.0379
572.00,0.0361
571.00,0.0345
570.00,0.0332
569.00,0.0322
568.00,0.0316
567.00,0.0316
566.00,0.0320
565.00,0.0327
564.00,0.0337
563.00,0.0350
562.00,0.0365
561.00,0.0380
560.00,0.0392
559.00,0.0397
558.00,0.0393
557.00,0.0383
556.00,0.0371
555.00,0.0360
554.00,0.0352
553.00,0.0347
552.00,0.0347
551.00,0.0353
550.00,0.0364
549.00,0.0380
548.00,0.0397
547.00,0.0411
546.00,0.0419
545.00,0.0419
544.00,0.0412
543.00,0.0402
542.00,0.0390
541.00,0.0379
540.00,0.0369
539.00,0.0360
538.00,0.0353
537.00,0.0348
536.00,0.0347
535.00,0.0352
534.00,0.0363
533.00,0.0378
532.00,0.0392
531.00,0.0399
530.00,0.0398
529.00,0.0389
528.00,0.0374
527.00,0.0357
526.00,0.0340
525.00,0.0324
524.00,0.0312
523.00,0.0302
522.00,0.0295
521.00,0.0290
520.00,0.0284
519.00,0.0279
518.00,0.0274
517.00,0.0271
516.00,0.0269
515.00,0.0267
514.00,0.0266
513.00,0.0266
512.00,0.0267
511.00,0.0268
510.00,0.0269
509.00,0.0271
508.00,0.0274
507.00,0.0278
506.00,0.0282
505.00,0.0284
504.00,0.0283
503.00,0.0278
502.00,0.0271
501.00,0.0264
500.00,0.0259
499.00,0.0256
498.00,0.0255
497.00,0.0256
496.00,0.0259
495.00,0.0263
494.00,0.0267
493.00,0.0271
492.00,0.0274
491.00,0.0276
490.00,0.0274
489.00,0.0270
488.00,0.0263
487.00,0.0257
486.00,0.0253
485.00,0.0249
484.00,0.0247
483.00,0.0244
482.00,0.0242
481.00,0.0240
480.00,0.0238
479.00,0.0236
478.00,0.0233
477.00,0.0232
476.00,0.0231
475.00,0.0231
474.00,0.0232
473.00,0.0232
472.00,0.0231
471.00,0.0230
470.00,0.0228
469.00,0.0226
468.00,0.0221
467.00,0.0217
466.00,0.0214
465.00,0.0213
464.00,0.0215
463.00,0.0217
462.00,0.0216
461.00,0.0214
460.00,0.0212
459.00,0.0211
458.00,0.0211
457.00,0.0213
456.00,0.0214
455.00,0.0215
454.00,0.0216
453.00,0.0215
452.00,0.0214
451.00,0.0213
450.00,0.0212
449.00,0.0213
448.00,0.0212
447.00,0.0211
446.00,0.0208
445.00,0.0206
444.00,0.0206
443.00,0.0208
442.00,0.0210
441.00,0.0212
440.00,0.0213
439.00,0.0212
438.00,0.0210
437.00,0.0207
436.00,0.0203
435.00,0.0199
434.00,0.0196
433.00,0.0194
432.00,0.0192
431.00,0.0190
430.00,0.0188
429.00,0.0186
428.00,0.0184
427.00,0.0184
426.00,0.0183
425.00,0.0182
424.00,0.0179
423.00,0.0176
422.00,0.0174
421.00,0.0173
420.00,0.0171
419.00,0.0169
418.00,0.0167
417.00,0.0166
416.00,0.0170
415.00,0.0177
414.00,0.0187
413.00,0.0199
412.00,0.0211
411.00,0.0223
410.00,0.0229
409.00,0.0227
408.00,0.0219
407.00,0.0207
406.00,0.0196
405.00,0.0185
404.00,0.0177
403.00,0.0173
402.00,0.0174
401.00,0.0173
400.00,0.0166
