Created as New Dataset,Sample 632 By YargerLab Date Friday, June 06 2025
cm-1,A
4000.00,0.0040
3999.00,0.0040
3998.00,0.0040
3997.00,0.0040
3996.00,0.0040
3995.00,0.0040
3994.00,0.0040
3993.00,0.0040
3992.00,0.0040
3991.00,0.0040
3990.00,0.0040
3989.00,0.0040
3988.00,0.0040
3987.00,0.0040
3986.00,0.0040
3985.00,0.0040
3984.00,0.0040
3983.00,0.0040
3982.00,0.0040
3981.00,0.0040
3980.00,0.0040
3979.00,0.0040
3978.00,0.0040
3977.00,0.0040
3976.00,0.0040
3975.00,0.0039
3974.00,0.0039
3973.00,0.0039
3972.00,0.0039
3971.00,0.0039
3970.00,0.0039
3969.00,0.0039
3968.00,0.0039
3967.00,0.0039
3966.00,0.0039
3965.00,0.0040
3964.00,0.0040
3963.00,0.0039
3962.00,0.0039
3961.00,0.0039
3960.00,0.0039
3959.00,0.0039
3958.00,0.0040
3957.00,0.0040
3956.00,0.0040
3955.00,0.0040
3954.00,0.0040
3953.00,0.0039
3952.00,0.0039
3951.00,0.0039
3950.00,0.0040
3949.00,0.0040
3948.00,0.0040
3947.00,0.0040
3946.00,0.0040
3945.00,0.0040
3944.00,0.0040
3943.00,0.0040
3942.00,0.0040
3941.00,0.0039
3940.00,0.0039
3939.00,0.0040
3938.00,0.0040
3937.00,0.0040
3936.00,0.0040
3935.00,0.0040
3934.00,0.0040
3933.00,0.0040
3932.00,0.0040
3931.00,0.0040
3930.00,0.0040
3929.00,0.0040
3928.00,0.0040
3927.00,0.0040
3926.00,0.0040
3925.00,0.0040
3924.00,0.0040
3923.00,0.0040
3922.00,0.0040
3921.00,0.0040
3920.00,0.0040
3919.00,0.0040
3918.00,0.0040
3917.00,0.0040
3916.00,0.0040
3915.00,0.0040
3914.00,0.0039
3913.00,0.0039
3912.00,0.0039
3911.00,0.0039
3910.00,0.0039
3909.00,0.0039
3908.00,0.0039
3907.00,0.0039
3906.00,0.0039
3905.00,0.0039
3904.00,0.0039
3903.00,0.0039
3902.00,0.0039
3901.00,0.0039
3900.00,0.0039
3899.00,0.0039
3898.00,0.0039
3897.00,0.0039
3896.00,0.0039
3895.00,0.0039
3894.00,0.0039
3893.00,0.0039
3892.00,0.0039
3891.00,0.0039
3890.00,0.0040
3889.00,0.0039
3888.00,0.0039
3887.00,0.0039
3886.00,0.0039
3885.00,0.0039
3884.00,0.0039
3883.00,0.0039
3882.00,0.0039
3881.00,0.0039
3880.00,0.0039
3879.00,0.0040
3878.00,0.0040
3877.00,0.0039
3876.00,0.0039
3875.00,0.0040
3874.00,0.0040
3873.00,0.0040
3872.00,0.0039
3871.00,0.0038
3870.00,0.0038
3869.00,0.0039
3868.00,0.0039
3867.00,0.0038
3866.00,0.0038
3865.00,0.0039
3864.00,0.0039
3863.00,0.0039
3862.00,0.0039
3861.00,0.0039
3860.00,0.0040
3859.00,0.0040
3858.00,0.0040
3857.00,0.0039
3856.00,0.0039
3855.00,0.0038
3854.00,0.0039
3853.00,0.0039
3852.00,0.0039
3851.00,0.0038
3850.00,0.0038
3849.00,0.0038
3848.00,0.0038
3847.00,0.0039
3846.00,0.0039
3845.00,0.0039
3844.00,0.0039
3843.00,0.0039
3842.00,0.0039
3841.00,0.0039
3840.00,0.0039
3839.00,0.0039
3838.00,0.0039
3837.00,0.0039
3836.00,0.0039
3835.00,0.0039
3834.00,0.0039
3833.00,0.0039
3832.00,0.0039
3831.00,0.0040
3830.00,0.0040
3829.00,0.0039
3828.00,0.0039
3827.00,0.0039
3826.00,0.0039
3825.00,0.0040
3824.00,0.0039
3823.00,0.0039
3822.00,0.0039
3821.00,0.0039
3820.00,0.0039
3819.00,0.0039
3818.00,0.0038
3817.00,0.0038
3816.00,0.0039
3815.00,0.0040
3814.00,0.0040
3813.00,0.0039
3812.00,0.0039
3811.00,0.0040
3810.00,0.0040
3809.00,0.0040
3808.00,0.0040
3807.00,0.0040
3806.00,0.0040
3805.00,0.0040
3804.00,0.0039
3803.00,0.0039
3802.00,0.0039
3801.00,0.0039
3800.00,0.0039
3799.00,0.0039
3798.00,0.0039
3797.00,0.0039
3796.00,0.0040
3795.00,0.0040
3794.00,0.0040
3793.00,0.0040
3792.00,0.0040
3791.00,0.0040
3790.00,0.0040
3789.00,0.0040
3788.00,0.0040
3787.00,0.0040
3786.00,0.0040
3785.00,0.0040
3784.00,0.0040
3783.00,0.0040
3782.00,0.0040
3781.00,0.0040
3780.00,0.0040
3779.00,0.0040
3778.00,0.0040
3777.00,0.0040
3776.00,0.0039
3775.00,0.0040
3774.00,0.0040
3773.00,0.0040
3772.00,0.0040
3771.00,0.0040
3770.00,0.0040
3769.00,0.0040
3768.00,0.0040
3767.00,0.0039
3766.00,0.0039
3765.00,0.0039
3764.00,0.0040
3763.00,0.0040
3762.00,0.0039
3761.00,0.0039
3760.00,0.0039
3759.00,0.0039
3758.00,0.0039
3757.00,0.0039
3756.00,0.0039
3755.00,0.0039
3754.00,0.0039
3753.00,0.0039
3752.00,0.0039
3751.00,0.0039
3750.00,0.0039
3749.00,0.0038
3748.00,0.0038
3747.00,0.0037
3746.00,0.0037
3745.00,0.0038
3744.00,0.0038
3743.00,0.0039
3742.00,0.0039
3741.00,0.0039
3740.00,0.0039
3739.00,0.0039
3738.00,0.0039
3737.00,0.0039
3736.00,0.0039
3735.00,0.0038
3734.00,0.0038
3733.00,0.0038
3732.00,0.0038
3731.00,0.0039
3730.00,0.0039
3729.00,0.0039
3728.00,0.0039
3727.00,0.0039
3726.00,0.0039
3725.00,0.0039
3724.00,0.0039
3723.00,0.0039
3722.00,0.0039
3721.00,0.0039
3720.00,0.0039
3719.00,0.0039
3718.00,0.0039
3717.00,0.0039
3716.00,0.0039
3715.00,0.0039
3714.00,0.0039
3713.00,0.0039
3712.00,0.0039
3711.00,0.0039
3710.00,0.0039
3709.00,0.0038
3708.00,0.0038
3707.00,0.0038
3706.00,0.0039
3705.00,0.0039
3704.00,0.0038
3703.00,0.0038
3702.00,0.0038
3701.00,0.0038
3700.00,0.0038
3699.00,0.0038
3698.00,0.0038
3697.00,0.0038
3696.00,0.0038
3695.00,0.0038
3694.00,0.0038
3693.00,0.0038
3692.00,0.0038
3691.00,0.0038
3690.00,0.0038
3689.00,0.0038
3688.00,0.0038
3687.00,0.0038
3686.00,0.0038
3685.00,0.0038
3684.00,0.0038
3683.00,0.0038
3682.00,0.0039
3681.00,0.0039
3680.00,0.0039
3679.00,0.0038
3678.00,0.0038
3677.00,0.0038
3676.00,0.0037
3675.00,0.0038
3674.00,0.0038
3673.00,0.0037
3672.00,0.0037
3671.00,0.0037
3670.00,0.0037
3669.00,0.0037
3668.00,0.0037
3667.00,0.0037
3666.00,0.0037
3665.00,0.0037
3664.00,0.0037
3663.00,0.0037
3662.00,0.0038
3661.00,0.0038
3660.00,0.0038
3659.00,0.0038
3658.00,0.0038
3657.00,0.0038
3656.00,0.0038
3655.00,0.0037
3654.00,0.0037
3653.00,0.0036
3652.00,0.0036
3651.00,0.0036
3650.00,0.0037
3649.00,0.0037
3648.00,0.0037
3647.00,0.0037
3646.00,0.0037
3645.00,0.0037
3644.00,0.0037
3643.00,0.0038
3642.00,0.0038
3641.00,0.0038
3640.00,0.0038
3639.00,0.0038
3638.00,0.0038
3637.00,0.0038
3636.00,0.0038
3635.00,0.0038
3634.00,0.0038
3633.00,0.0038
3632.00,0.0038
3631.00,0.0037
3630.00,0.0037
3629.00,0.0037
3628.00,0.0037
3627.00,0.0037
3626.00,0.0037
3625.00,0.0038
3624.00,0.0038
3623.00,0.0038
3622.00,0.0038
3621.00,0.0038
3620.00,0.0037
3619.00,0.0037
3618.00,0.0037
3617.00,0.0037
3616.00,0.0037
3615.00,0.0037
3614.00,0.0038
3613.00,0.0038
3612.00,0.0038
3611.00,0.0038
3610.00,0.0037
3609.00,0.0037
3608.00,0.0037
3607.00,0.0038
3606.00,0.0038
3605.00,0.0038
3604.00,0.0038
3603.00,0.0039
3602.00,0.0039
3601.00,0.0039
3600.00,0.0039
3599.00,0.0039
3598.00,0.0039
3597.00,0.0039
3596.00,0.0038
3595.00,0.0038
3594.00,0.0038
3593.00,0.0038
3592.00,0.0038
3591.00,0.0038
3590.00,0.0038
3589.00,0.0039
3588.00,0.0039
3587.00,0.0039
3586.00,0.0039
3585.00,0.0038
3584.00,0.0038
3583.00,0.0039
3582.00,0.0039
3581.00,0.0039
3580.00,0.0039
3579.00,0.0039
3578.00,0.0039
3577.00,0.0039
3576.00,0.0039
3575.00,0.0039
3574.00,0.0039
3573.00,0.0040
3572.00,0.0040
3571.00,0.0040
3570.00,0.0039
3569.00,0.0039
3568.00,0.0039
3567.00,0.0039
3566.00,0.0039
3565.00,0.0039
3564.00,0.0038
3563.00,0.0039
3562.00,0.0039
3561.00,0.0039
3560.00,0.0040
3559.00,0.0041
3558.00,0.0041
3557.00,0.0041
3556.00,0.0041
3555.00,0.0041
3554.00,0.0041
3553.00,0.0041
3552.00,0.0041
3551.00,0.0041
3550.00,0.0041
3549.00,0.0041
3548.00,0.0041
3547.00,0.0041
3546.00,0.0041
3545.00,0.0041
3544.00,0.0041
3543.00,0.0041
3542.00,0.0041
3541.00,0.0041
3540.00,0.0041
3539.00,0.0041
3538.00,0.0041
3537.00,0.0041
3536.00,0.0041
3535.00,0.0041
3534.00,0.0041
3533.00,0.0041
3532.00,0.0041
3531.00,0.0041
3530.00,0.0041
3529.00,0.0041
3528.00,0.0040
3527.00,0.0040
3526.00,0.0040
3525.00,0.0040
3524.00,0.0040
3523.00,0.0040
3522.00,0.0040
3521.00,0.0041
3520.00,0.0041
3519.00,0.0041
3518.00,0.0041
3517.00,0.0041
3516.00,0.0041
3515.00,0.0041
3514.00,0.0041
3513.00,0.0041
3512.00,0.0041
3511.00,0.0041
3510.00,0.0041
3509.00,0.0041
3508.00,0.0041
3507.00,0.0041
3506.00,0.0041
3505.00,0.0041
3504.00,0.0041
3503.00,0.0041
3502.00,0.0041
3501.00,0.0041
3500.00,0.0041
3499.00,0.0041
3498.00,0.0041
3497.00,0.0042
3496.00,0.0042
3495.00,0.0041
3494.00,0.0041
3493.00,0.0041
3492.00,0.0041
3491.00,0.0041
3490.00,0.0041
3489.00,0.0041
3488.00,0.0041
3487.00,0.0041
3486.00,0.0041
3485.00,0.0040
3484.00,0.0040
3483.00,0.0040
3482.00,0.0040
3481.00,0.0041
3480.00,0.0041
3479.00,0.0041
3478.00,0.0041
3477.00,0.0041
3476.00,0.0041
3475.00,0.0041
3474.00,0.0041
3473.00,0.0041
3472.00,0.0041
3471.00,0.0040
3470.00,0.0040
3469.00,0.0040
3468.00,0.0041
3467.00,0.0041
3466.00,0.0041
3465.00,0.0041
3464.00,0.0041
3463.00,0.0041
3462.00,0.0041
3461.00,0.0040
3460.00,0.0040
3459.00,0.0040
3458.00,0.0040
3457.00,0.0040
3456.00,0.0040
3455.00,0.0041
3454.00,0.0041
3453.00,0.0041
3452.00,0.0041
3451.00,0.0041
3450.00,0.0041
3449.00,0.0041
3448.00,0.0041
3447.00,0.0042
3446.00,0.0042
3445.00,0.0042
3444.00,0.0042
3443.00,0.0042
3442.00,0.0042
3441.00,0.0043
3440.00,0.0043
3439.00,0.0043
3438.00,0.0043
3437.00,0.0044
3436.00,0.0044
3435.00,0.0044
3434.00,0.0044
3433.00,0.0045
3432.00,0.0045
3431.00,0.0046
3430.00,0.0046
3429.00,0.0047
3428.00,0.0047
3427.00,0.0047
3426.00,0.0047
3425.00,0.0048
3424.00,0.0048
3423.00,0.0048
3422.00,0.0049
3421.00,0.0049
3420.00,0.0049
3419.00,0.0049
3418.00,0.0049
3417.00,0.0049
3416.00,0.0049
3415.00,0.0049
3414.00,0.0049
3413.00,0.0050
3412.00,0.0050
3411.00,0.0050
3410.00,0.0051
3409.00,0.0051
3408.00,0.0051
3407.00,0.0051
3406.00,0.0051
3405.00,0.0051
3404.00,0.0052
3403.00,0.0052
3402.00,0.0052
3401.00,0.0052
3400.00,0.0052
3399.00,0.0052
3398.00,0.0052
3397.00,0.0053
3396.00,0.0053
3395.00,0.0054
3394.00,0.0054
3393.00,0.0054
3392.00,0.0055
3391.00,0.0055
3390.00,0.0055
3389.00,0.0056
3388.00,0.0056
3387.00,0.0057
3386.00,0.0058
3385.00,0.0059
3384.00,0.0060
3383.00,0.0061
3382.00,0.0062
3381.00,0.0063
3380.00,0.0064
3379.00,0.0065
3378.00,0.0066
3377.00,0.0067
3376.00,0.0068
3375.00,0.0070
3374.00,0.0071
3373.00,0.0072
3372.00,0.0073
3371.00,0.0075
3370.00,0.0076
3369.00,0.0078
3368.00,0.0079
3367.00,0.0080
3366.00,0.0081
3365.00,0.0083
3364.00,0.0084
3363.00,0.0086
3362.00,0.0087
3361.00,0.0089
3360.00,0.0090
3359.00,0.0091
3358.00,0.0093
3357.00,0.0094
3356.00,0.0095
3355.00,0.0097
3354.00,0.0098
3353.00,0.0100
3352.00,0.0101
3351.00,0.0102
3350.00,0.0104
3349.00,0.0105
3348.00,0.0106
3347.00,0.0107
3346.00,0.0109
3345.00,0.0110
3344.00,0.0110
3343.00,0.0111
3342.00,0.0112
3341.00,0.0113
3340.00,0.0113
3339.00,0.0114
3338.00,0.0114
3337.00,0.0114
3336.00,0.0114
3335.00,0.0114
3334.00,0.0114
3333.00,0.0114
3332.00,0.0114
3331.00,0.0114
3330.00,0.0114
3329.00,0.0114
3328.00,0.0113
3327.00,0.0113
3326.00,0.0112
3325.00,0.0112
3324.00,0.0111
3323.00,0.0111
3322.00,0.0110
3321.00,0.0110
3320.00,0.0109
3319.00,0.0108
3318.00,0.0107
3317.00,0.0107
3316.00,0.0106
3315.00,0.0105
3314.00,0.0104
3313.00,0.0103
3312.00,0.0102
3311.00,0.0101
3310.00,0.0100
3309.00,0.0099
3308.00,0.0098
3307.00,0.0097
3306.00,0.0096
3305.00,0.0094
3304.00,0.0093
3303.00,0.0092
3302.00,0.0091
3301.00,0.0091
3300.00,0.0090
3299.00,0.0088
3298.00,0.0087
3297.00,0.0086
3296.00,0.0085
3295.00,0.0084
3294.00,0.0084
3293.00,0.0083
3292.00,0.0082
3291.00,0.0081
3290.00,0.0080
3289.00,0.0079
3288.00,0.0078
3287.00,0.0077
3286.00,0.0076
3285.00,0.0075
3284.00,0.0074
3283.00,0.0073
3282.00,0.0073
3281.00,0.0072
3280.00,0.0071
3279.00,0.0070
3278.00,0.0070
3277.00,0.0069
3276.00,0.0069
3275.00,0.0068
3274.00,0.0068
3273.00,0.0068
3272.00,0.0067
3271.00,0.0067
3270.00,0.0067
3269.00,0.0066
3268.00,0.0066
3267.00,0.0065
3266.00,0.0065
3265.00,0.0065
3264.00,0.0065
3263.00,0.0065
3262.00,0.0064
3261.00,0.0064
3260.00,0.0064
3259.00,0.0064
3258.00,0.0064
3257.00,0.0064
3256.00,0.0064
3255.00,0.0064
3254.00,0.0064
3253.00,0.0064
3252.00,0.0063
3251.00,0.0063
3250.00,0.0063
3249.00,0.0063
3248.00,0.0063
3247.00,0.0063
3246.00,0.0063
3245.00,0.0063
3244.00,0.0063
3243.00,0.0063
3242.00,0.0063
3241.00,0.0062
3240.00,0.0062
3239.00,0.0062
3238.00,0.0062
3237.00,0.0062
3236.00,0.0061
3235.00,0.0061
3234.00,0.0061
3233.00,0.0060
3232.00,0.0060
3231.00,0.0060
3230.00,0.0060
3229.00,0.0059
3228.00,0.0059
3227.00,0.0059
3226.00,0.0058
3225.00,0.0058
3224.00,0.0058
3223.00,0.0057
3222.00,0.0057
3221.00,0.0057
3220.00,0.0056
3219.00,0.0056
3218.00,0.0055
3217.00,0.0055
3216.00,0.0055
3215.00,0.0055
3214.00,0.0055
3213.00,0.0054
3212.00,0.0054
3211.00,0.0054
3210.00,0.0053
3209.00,0.0053
3208.00,0.0053
3207.00,0.0052
3206.00,0.0052
3205.00,0.0051
3204.00,0.0051
3203.00,0.0051
3202.00,0.0051
3201.00,0.0051
3200.00,0.0050
3199.00,0.0050
3198.00,0.0050
3197.00,0.0050
3196.00,0.0050
3195.00,0.0050
3194.00,0.0049
3193.00,0.0049
3192.00,0.0049
3191.00,0.0049
3190.00,0.0049
3189.00,0.0048
3188.00,0.0048
3187.00,0.0048
3186.00,0.0048
3185.00,0.0048
3184.00,0.0048
3183.00,0.0048
3182.00,0.0048
3181.00,0.0048
3180.00,0.0047
3179.00,0.0047
3178.00,0.0047
3177.00,0.0047
3176.00,0.0047
3175.00,0.0047
3174.00,0.0047
3173.00,0.0047
3172.00,0.0047
3171.00,0.0047
3170.00,0.0046
3169.00,0.0046
3168.00,0.0046
3167.00,0.0047
3166.00,0.0047
3165.00,0.0047
3164.00,0.0047
3163.00,0.0046
3162.00,0.0046
3161.00,0.0046
3160.00,0.0046
3159.00,0.0046
3158.00,0.0046
3157.00,0.0046
3156.00,0.0046
3155.00,0.0046
3154.00,0.0046
3153.00,0.0046
3152.00,0.0046
3151.00,0.0046
3150.00,0.0046
3149.00,0.0046
3148.00,0.0046
3147.00,0.0046
3146.00,0.0046
3145.00,0.0046
3144.00,0.0046
3143.00,0.0046
3142.00,0.0046
3141.00,0.0046
3140.00,0.0047
3139.00,0.0047
3138.00,0.0047
3137.00,0.0047
3136.00,0.0047
3135.00,0.0047
3134.00,0.0047
3133.00,0.0047
3132.00,0.0047
3131.00,0.0047
3130.00,0.0048
3129.00,0.0048
3128.00,0.0048
3127.00,0.0048
3126.00,0.0049
3125.00,0.0049
3124.00,0.0049
3123.00,0.0049
3122.00,0.0049
3121.00,0.0050
3120.00,0.0050
3119.00,0.0050
3118.00,0.0051
3117.00,0.0051
3116.00,0.0051
3115.00,0.0052
3114.00,0.0052
3113.00,0.0053
3112.00,0.0053
3111.00,0.0053
3110.00,0.0053
3109.00,0.0054
3108.00,0.0054
3107.00,0.0054
3106.00,0.0054
3105.00,0.0054
3104.00,0.0054
3103.00,0.0055
3102.00,0.0055
3101.00,0.0055
3100.00,0.0055
3099.00,0.0055
3098.00,0.0054
3097.00,0.0054
3096.00,0.0054
3095.00,0.0054
3094.00,0.0054
3093.00,0.0054
3092.00,0.0053
3091.00,0.0053
3090.00,0.0053
3089.00,0.0053
3088.00,0.0052
3087.00,0.0052
3086.00,0.0052
3085.00,0.0052
3084.00,0.0051
3083.00,0.0051
3082.00,0.0051
3081.00,0.0051
3080.00,0.0051
3079.00,0.0051
3078.00,0.0050
3077.00,0.0050
3076.00,0.0050
3075.00,0.0050
3074.00,0.0049
3073.00,0.0049
3072.00,0.0049
3071.00,0.0049
3070.00,0.0049
3069.00,0.0049
3068.00,0.0050
3067.00,0.0049
3066.00,0.0049
3065.00,0.0049
3064.00,0.0049
3063.00,0.0049
3062.00,0.0049
3061.00,0.0048
3060.00,0.0048
3059.00,0.0048
3058.00,0.0048
3057.00,0.0048
3056.00,0.0048
3055.00,0.0048
3054.00,0.0048
3053.00,0.0048
3052.00,0.0047
3051.00,0.0047
3050.00,0.0047
3049.00,0.0046
3048.00,0.0046
3047.00,0.0046
3046.00,0.0046
3045.00,0.0046
3044.00,0.0046
3043.00,0.0046
3042.00,0.0046
3041.00,0.0046
3040.00,0.0046
3039.00,0.0046
3038.00,0.0046
3037.00,0.0046
3036.00,0.0046
3035.00,0.0046
3034.00,0.0046
3033.00,0.0046
3032.00,0.0046
3031.00,0.0046
3030.00,0.0047
3029.00,0.0047
3028.00,0.0047
3027.00,0.0048
3026.00,0.0048
3025.00,0.0048
3024.00,0.0048
3023.00,0.0048
3022.00,0.0049
3021.00,0.0049
3020.00,0.0049
3019.00,0.0049
3018.00,0.0050
3017.00,0.0050
3016.00,0.0050
3015.00,0.0050
3014.00,0.0051
3013.00,0.0051
3012.00,0.0051
3011.00,0.0051
3010.00,0.0052
3009.00,0.0052
3008.00,0.0053
3007.00,0.0053
3006.00,0.0054
3005.00,0.0054
3004.00,0.0055
3003.00,0.0056
3002.00,0.0057
3001.00,0.0058
3000.00,0.0059
2999.00,0.0059
2998.00,0.0060
2997.00,0.0061
2996.00,0.0062
2995.00,0.0063
2994.00,0.0065
2993.00,0.0066
2992.00,0.0067
2991.00,0.0068
2990.00,0.0069
2989.00,0.0069
2988.00,0.0070
2987.00,0.0070
2986.00,0.0070
2985.00,0.0070
2984.00,0.0070
2983.00,0.0069
2982.00,0.0069
2981.00,0.0069
2980.00,0.0069
2979.00,0.0069
2978.00,0.0070
2977.00,0.0069
2976.00,0.0069
2975.00,0.0068
2974.00,0.0067
2973.00,0.0066
2972.00,0.0065
2971.00,0.0064
2970.00,0.0063
2969.00,0.0062
2968.00,0.0062
2967.00,0.0061
2966.00,0.0061
2965.00,0.0061
2964.00,0.0061
2963.00,0.0061
2962.00,0.0062
2961.00,0.0062
2960.00,0.0063
2959.00,0.0063
2958.00,0.0064
2957.00,0.0065
2956.00,0.0066
2955.00,0.0067
2954.00,0.0068
2953.00,0.0070
2952.00,0.0071
2951.00,0.0072
2950.00,0.0073
2949.00,0.0074
2948.00,0.0074
2947.00,0.0074
2946.00,0.0074
2945.00,0.0074
2944.00,0.0073
2943.00,0.0073
2942.00,0.0072
2941.00,0.0071
2940.00,0.0070
2939.00,0.0069
2938.00,0.0068
2937.00,0.0068
2936.00,0.0067
2935.00,0.0067
2934.00,0.0066
2933.00,0.0066
2932.00,0.0065
2931.00,0.0065
2930.00,0.0064
2929.00,0.0064
2928.00,0.0063
2927.00,0.0063
2926.00,0.0062
2925.00,0.0062
2924.00,0.0061
2923.00,0.0060
2922.00,0.0059
2921.00,0.0059
2920.00,0.0058
2919.00,0.0058
2918.00,0.0058
2917.00,0.0058
2916.00,0.0057
2915.00,0.0057
2914.00,0.0057
2913.00,0.0056
2912.00,0.0056
2911.00,0.0056
2910.00,0.0056
2909.00,0.0056
2908.00,0.0056
2907.00,0.0057
2906.00,0.0057
2905.00,0.0057
2904.00,0.0057
2903.00,0.0057
2902.00,0.0057
2901.00,0.0057
2900.00,0.0057
2899.00,0.0057
2898.00,0.0057
2897.00,0.0056
2896.00,0.0055
2895.00,0.0054
2894.00,0.0053
2893.00,0.0053
2892.00,0.0052
2891.00,0.0052
2890.00,0.0051
2889.00,0.0051
2888.00,0.0051
2887.00,0.0051
2886.00,0.0050
2885.00,0.0050
2884.00,0.0050
2883.00,0.0050
2882.00,0.0050
2881.00,0.0050
2880.00,0.0050
2879.00,0.0050
2878.00,0.0050
2877.00,0.0050
2876.00,0.0049
2875.00,0.0049
2874.00,0.0049
2873.00,0.0049
2872.00,0.0049
2871.00,0.0049
2870.00,0.0049
2869.00,0.0049
2868.00,0.0048
2867.00,0.0048
2866.00,0.0048
2865.00,0.0048
2864.00,0.0048
2863.00,0.0048
2862.00,0.0048
2861.00,0.0048
2860.00,0.0048
2859.00,0.0048
2858.00,0.0048
2857.00,0.0048
2856.00,0.0048
2855.00,0.0048
2854.00,0.0048
2853.00,0.0048
2852.00,0.0048
2851.00,0.0049
2850.00,0.0049
2849.00,0.0049
2848.00,0.0049
2847.00,0.0049
2846.00,0.0049
2845.00,0.0050
2844.00,0.0050
2843.00,0.0050
2842.00,0.0050
2841.00,0.0050
2840.00,0.0050
2839.00,0.0050
2838.00,0.0050
2837.00,0.0050
2836.00,0.0049
2835.00,0.0049
2834.00,0.0049
2833.00,0.0049
2832.00,0.0048
2831.00,0.0048
2830.00,0.0048
2829.00,0.0047
2828.00,0.0047
2827.00,0.0047
2826.00,0.0047
2825.00,0.0047
2824.00,0.0047
2823.00,0.0046
2822.00,0.0046
2821.00,0.0046
2820.00,0.0047
2819.00,0.0047
2818.00,0.0047
2817.00,0.0047
2816.00,0.0047
2815.00,0.0047
2814.00,0.0047
2813.00,0.0047
2812.00,0.0047
2811.00,0.0047
2810.00,0.0047
2809.00,0.0047
2808.00,0.0047
2807.00,0.0047
2806.00,0.0047
2805.00,0.0047
2804.00,0.0047
2803.00,0.0046
2802.00,0.0046
2801.00,0.0046
2800.00,0.0046
2799.00,0.0046
2798.00,0.0046
2797.00,0.0046
2796.00,0.0046
2795.00,0.0045
2794.00,0.0045
2793.00,0.0045
2792.00,0.0045
2791.00,0.0045
2790.00,0.0045
2789.00,0.0045
2788.00,0.0045
2787.00,0.0045
2786.00,0.0045
2785.00,0.0044
2784.00,0.0044
2783.00,0.0044
2782.00,0.0044
2781.00,0.0044
2780.00,0.0044
2779.00,0.0044
2778.00,0.0044
2777.00,0.0044
2776.00,0.0043
2775.00,0.0043
2774.00,0.0043
2773.00,0.0043
2772.00,0.0043
2771.00,0.0043
2770.00,0.0043
2769.00,0.0043
2768.00,0.0043
2767.00,0.0043
2766.00,0.0043
2765.00,0.0043
2764.00,0.0043
2763.00,0.0043
2762.00,0.0044
2761.00,0.0044
2760.00,0.0043
2759.00,0.0043
2758.00,0.0043
2757.00,0.0043
2756.00,0.0043
2755.00,0.0043
2754.00,0.0043
2753.00,0.0043
2752.00,0.0043
2751.00,0.0043
2750.00,0.0043
2749.00,0.0043
2748.00,0.0043
2747.00,0.0043
2746.00,0.0043
2745.00,0.0043
2744.00,0.0043
2743.00,0.0043
2742.00,0.0043
2741.00,0.0043
2740.00,0.0042
2739.00,0.0042
2738.00,0.0042
2737.00,0.0042
2736.00,0.0042
2735.00,0.0042
2734.00,0.0042
2733.00,0.0042
2732.00,0.0042
2731.00,0.0042
2730.00,0.0042
2729.00,0.0042
2728.00,0.0042
2727.00,0.0042
2726.00,0.0042
2725.00,0.0042
2724.00,0.0042
2723.00,0.0042
2722.00,0.0042
2721.00,0.0042
2720.00,0.0042
2719.00,0.0042
2718.00,0.0042
2717.00,0.0042
2716.00,0.0042
2715.00,0.0042
2714.00,0.0042
2713.00,0.0042
2712.00,0.0041
2711.00,0.0041
2710.00,0.0041
2709.00,0.0042
2708.00,0.0042
2707.00,0.0042
2706.00,0.0042
2705.00,0.0042
2704.00,0.0042
2703.00,0.0042
2702.00,0.0042
2701.00,0.0042
2700.00,0.0042
2699.00,0.0042
2698.00,0.0042
2697.00,0.0042
2696.00,0.0042
2695.00,0.0041
2694.00,0.0041
2693.00,0.0041
2692.00,0.0041
2691.00,0.0041
2690.00,0.0041
2689.00,0.0041
2688.00,0.0041
2687.00,0.0041
2686.00,0.0041
2685.00,0.0041
2684.00,0.0041
2683.00,0.0041
2682.00,0.0041
2681.00,0.0041
2680.00,0.0041
2679.00,0.0041
2678.00,0.0041
2677.00,0.0041
2676.00,0.0041
2675.00,0.0041
2674.00,0.0041
2673.00,0.0041
2672.00,0.0041
2671.00,0.0041
2670.00,0.0041
2669.00,0.0041
2668.00,0.0041
2667.00,0.0041
2666.00,0.0042
2665.00,0.0042
2664.00,0.0043
2663.00,0.0043
2662.00,0.0043
2661.00,0.0044
2660.00,0.0044
2659.00,0.0044
2658.00,0.0044
2657.00,0.0045
2656.00,0.0045
2655.00,0.0045
2654.00,0.0045
2653.00,0.0045
2652.00,0.0045
2651.00,0.0045
2650.00,0.0045
2649.00,0.0045
2648.00,0.0045
2647.00,0.0045
2646.00,0.0045
2645.00,0.0045
2644.00,0.0045
2643.00,0.0045
2642.00,0.0045
2641.00,0.0045
2640.00,0.0045
2639.00,0.0045
2638.00,0.0045
2637.00,0.0045
2636.00,0.0045
2635.00,0.0045
2634.00,0.0045
2633.00,0.0045
2632.00,0.0045
2631.00,0.0044
2630.00,0.0044
2629.00,0.0044
2628.00,0.0045
2627.00,0.0045
2626.00,0.0045
2625.00,0.0045
2624.00,0.0045
2623.00,0.0045
2622.00,0.0044
2621.00,0.0044
2620.00,0.0044
2619.00,0.0044
2618.00,0.0044
2617.00,0.0044
2616.00,0.0044
2615.00,0.0044
2614.00,0.0044
2613.00,0.0044
2612.00,0.0044
2611.00,0.0044
2610.00,0.0044
2609.00,0.0044
2608.00,0.0044
2607.00,0.0044
2606.00,0.0044
2605.00,0.0043
2604.00,0.0043
2603.00,0.0043
2602.00,0.0043
2601.00,0.0043
2600.00,0.0043
2599.00,0.0043
2598.00,0.0043
2597.00,0.0043
2596.00,0.0043
2595.00,0.0043
2594.00,0.0043
2593.00,0.0042
2592.00,0.0042
2591.00,0.0042
2590.00,0.0042
2589.00,0.0042
2588.00,0.0042
2587.00,0.0042
2586.00,0.0042
2585.00,0.0042
2584.00,0.0042
2583.00,0.0041
2582.00,0.0041
2581.00,0.0041
2580.00,0.0041
2579.00,0.0041
2578.00,0.0042
2577.00,0.0042
2576.00,0.0042
2575.00,0.0041
2574.00,0.0041
2573.00,0.0041
2572.00,0.0041
2571.00,0.0041
2570.00,0.0041
2569.00,0.0041
2568.00,0.0041
2567.00,0.0041
2566.00,0.0041
2565.00,0.0040
2564.00,0.0040
2563.00,0.0040
2562.00,0.0041
2561.00,0.0041
2560.00,0.0040
2559.00,0.0040
2558.00,0.0040
2557.00,0.0040
2556.00,0.0040
2555.00,0.0040
2554.00,0.0040
2553.00,0.0040
2552.00,0.0040
2551.00,0.0040
2550.00,0.0040
2549.00,0.0041
2548.00,0.0041
2547.00,0.0040
2546.00,0.0040
2545.00,0.0040
2544.00,0.0039
2543.00,0.0039
2542.00,0.0039
2541.00,0.0039
2540.00,0.0039
2539.00,0.0039
2538.00,0.0039
2537.00,0.0039
2536.00,0.0039
2535.00,0.0039
2534.00,0.0039
2533.00,0.0039
2532.00,0.0039
2531.00,0.0039
2530.00,0.0039
2529.00,0.0039
2528.00,0.0039
2527.00,0.0039
2526.00,0.0039
2525.00,0.0039
2524.00,0.0039
2523.00,0.0040
2522.00,0.0040
2521.00,0.0040
2520.00,0.0040
2519.00,0.0040
2518.00,0.0040
2517.00,0.0039
2516.00,0.0039
2515.00,0.0038
2514.00,0.0038
2513.00,0.0038
2512.00,0.0038
2511.00,0.0039
2510.00,0.0039
2509.00,0.0039
2508.00,0.0039
2507.00,0.0039
2506.00,0.0039
2505.00,0.0039
2504.00,0.0039
2503.00,0.0040
2502.00,0.0040
2501.00,0.0040
2500.00,0.0039
2499.00,0.0039
2498.00,0.0039
2497.00,0.0039
2496.00,0.0039
2495.00,0.0039
2494.00,0.0039
2493.00,0.0039
2492.00,0.0038
2491.00,0.0038
2490.00,0.0038
2489.00,0.0038
2488.00,0.0038
2487.00,0.0038
2486.00,0.0038
2485.00,0.0038
2484.00,0.0039
2483.00,0.0039
2482.00,0.0039
2481.00,0.0038
2480.00,0.0038
2479.00,0.0039
2478.00,0.0039
2477.00,0.0039
2476.00,0.0039
2475.00,0.0039
2474.00,0.0038
2473.00,0.0038
2472.00,0.0038
2471.00,0.0038
2470.00,0.0039
2469.00,0.0039
2468.00,0.0039
2467.00,0.0039
2466.00,0.0039
2465.00,0.0039
2464.00,0.0039
2463.00,0.0039
2462.00,0.0040
2461.00,0.0040
2460.00,0.0040
2459.00,0.0040
2458.00,0.0040
2457.00,0.0040
2456.00,0.0040
2455.00,0.0040
2454.00,0.0040
2453.00,0.0040
2452.00,0.0040
2451.00,0.0040
2450.00,0.0039
2449.00,0.0039
2448.00,0.0039
2447.00,0.0038
2446.00,0.0038
2445.00,0.0038
2444.00,0.0038
2443.00,0.0038
2442.00,0.0039
2441.00,0.0039
2440.00,0.0039
2439.00,0.0038
2438.00,0.0038
2437.00,0.0038
2436.00,0.0038
2435.00,0.0038
2434.00,0.0038
2433.00,0.0038
2432.00,0.0038
2431.00,0.0038
2430.00,0.0038
2429.00,0.0038
2428.00,0.0037
2427.00,0.0037
2426.00,0.0037
2425.00,0.0037
2424.00,0.0037
2423.00,0.0037
2422.00,0.0037
2421.00,0.0037
2420.00,0.0037
2419.00,0.0037
2418.00,0.0037
2417.00,0.0037
2416.00,0.0037
2415.00,0.0037
2414.00,0.0037
2413.00,0.0037
2412.00,0.0037
2411.00,0.0037
2410.00,0.0037
2409.00,0.0037
2408.00,0.0036
2407.00,0.0036
2406.00,0.0035
2405.00,0.0035
2404.00,0.0035
2403.00,0.0035
2402.00,0.0035
2401.00,0.0035
2400.00,0.0036
2399.00,0.0036
2398.00,0.0036
2397.00,0.0036
2396.00,0.0036
2395.00,0.0035
2394.00,0.0035
2393.00,0.0035
2392.00,0.0035
2391.00,0.0035
2390.00,0.0035
2389.00,0.0035
2388.00,0.0035
2387.00,0.0035
2386.00,0.0035
2385.00,0.0035
2384.00,0.0034
2383.00,0.0034
2382.00,0.0034
2381.00,0.0034
2380.00,0.0034
2379.00,0.0034
2378.00,0.0034
2377.00,0.0034
2376.00,0.0034
2375.00,0.0034
2374.00,0.0034
2373.00,0.0034
2372.00,0.0033
2371.00,0.0033
2370.00,0.0032
2369.00,0.0032
2368.00,0.0032
2367.00,0.0033
2366.00,0.0033
2365.00,0.0034
2364.00,0.0035
2363.00,0.0035
2362.00,0.0036
2361.00,0.0036
2360.00,0.0035
2359.00,0.0035
2358.00,0.0035
2357.00,0.0035
2356.00,0.0035
2355.00,0.0035
2354.00,0.0035
2353.00,0.0035
2352.00,0.0035
2351.00,0.0035
2350.00,0.0036
2349.00,0.0036
2348.00,0.0037
2347.00,0.0037
2346.00,0.0037
2345.00,0.0037
2344.00,0.0037
2343.00,0.0037
2342.00,0.0038
2341.00,0.0038
2340.00,0.0038
2339.00,0.0037
2338.00,0.0037
2337.00,0.0037
2336.00,0.0037
2335.00,0.0037
2334.00,0.0037
2333.00,0.0038
2332.00,0.0038
2331.00,0.0037
2330.00,0.0038
2329.00,0.0039
2328.00,0.0041
2327.00,0.0043
2326.00,0.0046
2325.00,0.0047
2324.00,0.0047
2323.00,0.0046
2322.00,0.0045
2321.00,0.0043
2320.00,0.0043
2319.00,0.0042
2318.00,0.0042
2317.00,0.0042
2316.00,0.0042
2315.00,0.0041
2314.00,0.0041
2313.00,0.0041
2312.00,0.0040
2311.00,0.0040
2310.00,0.0040
2309.00,0.0039
2308.00,0.0039
2307.00,0.0039
2306.00,0.0040
2305.00,0.0040
2304.00,0.0040
2303.00,0.0040
2302.00,0.0040
2301.00,0.0041
2300.00,0.0041
2299.00,0.0041
2298.00,0.0041
2297.00,0.0042
2296.00,0.0042
2295.00,0.0042
2294.00,0.0043
2293.00,0.0043
2292.00,0.0044
2291.00,0.0044
2290.00,0.0045
2289.00,0.0045
2288.00,0.0046
2287.00,0.0046
2286.00,0.0045
2285.00,0.0045
2284.00,0.0045
2283.00,0.0044
2282.00,0.0044
2281.00,0.0043
2280.00,0.0043
2279.00,0.0043
2278.00,0.0043
2277.00,0.0043
2276.00,0.0042
2275.00,0.0042
2274.00,0.0042
2273.00,0.0042
2272.00,0.0042
2271.00,0.0041
2270.00,0.0040
2269.00,0.0040
2268.00,0.0039
2267.00,0.0039
2266.00,0.0039
2265.00,0.0039
2264.00,0.0039
2263.00,0.0039
2262.00,0.0039
2261.00,0.0039
2260.00,0.0039
2259.00,0.0039
2258.00,0.0039
2257.00,0.0039
2256.00,0.0038
2255.00,0.0037
2254.00,0.0036
2253.00,0.0036
2252.00,0.0036
2251.00,0.0036
2250.00,0.0036
2249.00,0.0037
2248.00,0.0037
2247.00,0.0038
2246.00,0.0038
2245.00,0.0037
2244.00,0.0037
2243.00,0.0037
2242.00,0.0037
2241.00,0.0037
2240.00,0.0037
2239.00,0.0037
2238.00,0.0037
2237.00,0.0037
2236.00,0.0037
2235.00,0.0037
2234.00,0.0037
2233.00,0.0037
2232.00,0.0037
2231.00,0.0037
2230.00,0.0038
2229.00,0.0039
2228.00,0.0039
2227.00,0.0039
2226.00,0.0039
2225.00,0.0039
2224.00,0.0038
2223.00,0.0037
2222.00,0.0036
2221.00,0.0035
2220.00,0.0034
2219.00,0.0034
2218.00,0.0034
2217.00,0.0034
2216.00,0.0035
2215.00,0.0036
2214.00,0.0036
2213.00,0.0037
2212.00,0.0038
2211.00,0.0038
2210.00,0.0037
2209.00,0.0036
2208.00,0.0035
2207.00,0.0034
2206.00,0.0034
2205.00,0.0034
2204.00,0.0034
2203.00,0.0035
2202.00,0.0035
2201.00,0.0035
2200.00,0.0035
2199.00,0.0034
2198.00,0.0033
2197.00,0.0033
2196.00,0.0033
2195.00,0.0034
2194.00,0.0034
2193.00,0.0035
2192.00,0.0036
2191.00,0.0037
2190.00,0.0037
2189.00,0.0038
2188.00,0.0038
2187.00,0.0038
2186.00,0.0038
2185.00,0.0037
2184.00,0.0036
2183.00,0.0034
2182.00,0.0032
2181.00,0.0031
2180.00,0.0031
2179.00,0.0031
2178.00,0.0031
2177.00,0.0030
2176.00,0.0031
2175.00,0.0031
2174.00,0.0032
2173.00,0.0034
2172.00,0.0036
2171.00,0.0039
2170.00,0.0041
2169.00,0.0042
2168.00,0.0043
2167.00,0.0044
2166.00,0.0044
2165.00,0.0045
2164.00,0.0048
2163.00,0.0049
2162.00,0.0046
2161.00,0.0039
2160.00,0.0029
2159.00,0.0020
2158.00,0.0014
2157.00,0.0013
2156.00,0.0014
2155.00,0.0015
2154.00,0.0017
2153.00,0.0018
2152.00,0.0019
2151.00,0.0020
2150.00,0.0021
2149.00,0.0021
2148.00,0.0021
2147.00,0.0020
2146.00,0.0020
2145.00,0.0020
2144.00,0.0021
2143.00,0.0022
2142.00,0.0023
2141.00,0.0023
2140.00,0.0022
2139.00,0.0021
2138.00,0.0020
2137.00,0.0019
2136.00,0.0018
2135.00,0.0017
2134.00,0.0016
2133.00,0.0017
2132.00,0.0018
2131.00,0.0020
2130.00,0.0021
2129.00,0.0023
2128.00,0.0024
2127.00,0.0025
2126.00,0.0025
2125.00,0.0026
2124.00,0.0026
2123.00,0.0027
2122.00,0.0028
2121.00,0.0028
2120.00,0.0029
2119.00,0.0029
2118.00,0.0030
2117.00,0.0031
2116.00,0.0032
2115.00,0.0032
2114.00,0.0033
2113.00,0.0033
2112.00,0.0033
2111.00,0.0033
2110.00,0.0033
2109.00,0.0033
2108.00,0.0033
2107.00,0.0033
2106.00,0.0033
2105.00,0.0032
2104.00,0.0032
2103.00,0.0033
2102.00,0.0033
2101.00,0.0033
2100.00,0.0034
2099.00,0.0034
2098.00,0.0033
2097.00,0.0032
2096.00,0.0031
2095.00,0.0030
2094.00,0.0029
2093.00,0.0030
2092.00,0.0031
2091.00,0.0032
2090.00,0.0033
2089.00,0.0034
2088.00,0.0034
2087.00,0.0034
2086.00,0.0034
2085.00,0.0033
2084.00,0.0034
2083.00,0.0034
2082.00,0.0034
2081.00,0.0034
2080.00,0.0035
2079.00,0.0035
2078.00,0.0035
2077.00,0.0035
2076.00,0.0035
2075.00,0.0035
2074.00,0.0034
2073.00,0.0034
2072.00,0.0033
2071.00,0.0033
2070.00,0.0033
2069.00,0.0033
2068.00,0.0033
2067.00,0.0032
2066.00,0.0032
2065.00,0.0032
2064.00,0.0033
2063.00,0.0034
2062.00,0.0034
2061.00,0.0033
2060.00,0.0032
2059.00,0.0031
2058.00,0.0031
2057.00,0.0031
2056.00,0.0031
2055.00,0.0032
2054.00,0.0034
2053.00,0.0036
2052.00,0.0038
2051.00,0.0039
2050.00,0.0038
2049.00,0.0036
2048.00,0.0035
2047.00,0.0033
2046.00,0.0032
2045.00,0.0031
2044.00,0.0030
2043.00,0.0030
2042.00,0.0030
2041.00,0.0030
2040.00,0.0030
2039.00,0.0029
2038.00,0.0029
2037.00,0.0029
2036.00,0.0029
2035.00,0.0029
2034.00,0.0028
2033.00,0.0028
2032.00,0.0027
2031.00,0.0026
2030.00,0.0026
2029.00,0.0026
2028.00,0.0027
2027.00,0.0027
2026.00,0.0026
2025.00,0.0025
2024.00,0.0025
2023.00,0.0026
2022.00,0.0027
2021.00,0.0028
2020.00,0.0027
2019.00,0.0026
2018.00,0.0025
2017.00,0.0025
2016.00,0.0026
2015.00,0.0026
2014.00,0.0026
2013.00,0.0026
2012.00,0.0027
2011.00,0.0028
2010.00,0.0028
2009.00,0.0027
2008.00,0.0024
2007.00,0.0022
2006.00,0.0020
2005.00,0.0020
2004.00,0.0021
2003.00,0.0023
2002.00,0.0024
2001.00,0.0025
2000.00,0.0027
1999.00,0.0028
1998.00,0.0028
1997.00,0.0029
1996.00,0.0029
1995.00,0.0030
1994.00,0.0030
1993.00,0.0031
1992.00,0.0032
1991.00,0.0032
1990.00,0.0032
1989.00,0.0031
1988.00,0.0031
1987.00,0.0031
1986.00,0.0032
1985.00,0.0033
1984.00,0.0035
1983.00,0.0038
1982.00,0.0040
1981.00,0.0041
1980.00,0.0039
1979.00,0.0035
1978.00,0.0030
1977.00,0.0028
1976.00,0.0027
1975.00,0.0027
1974.00,0.0026
1973.00,0.0025
1972.00,0.0025
1971.00,0.0026
1970.00,0.0027
1969.00,0.0028
1968.00,0.0028
1967.00,0.0027
1966.00,0.0026
1965.00,0.0025
1964.00,0.0024
1963.00,0.0023
1962.00,0.0022
1961.00,0.0021
1960.00,0.0020
1959.00,0.0020
1958.00,0.0021
1957.00,0.0021
1956.00,0.0022
1955.00,0.0022
1954.00,0.0021
1953.00,0.0021
1952.00,0.0021
1951.00,0.0022
1950.00,0.0023
1949.00,0.0024
1948.00,0.0024
1947.00,0.0024
1946.00,0.0025
1945.00,0.0025
1944.00,0.0026
1943.00,0.0026
1942.00,0.0027
1941.00,0.0027
1940.00,0.0026
1939.00,0.0026
1938.00,0.0025
1937.00,0.0025
1936.00,0.0025
1935.00,0.0025
1934.00,0.0025
1933.00,0.0026
1932.00,0.0026
1931.00,0.0026
1930.00,0.0026
1929.00,0.0025
1928.00,0.0025
1927.00,0.0025
1926.00,0.0025
1925.00,0.0025
1924.00,0.0026
1923.00,0.0028
1922.00,0.0028
1921.00,0.0028
1920.00,0.0028
1919.00,0.0028
1918.00,0.0028
1917.00,0.0028
1916.00,0.0027
1915.00,0.0027
1914.00,0.0026
1913.00,0.0026
1912.00,0.0026
1911.00,0.0026
1910.00,0.0027
1909.00,0.0028
1908.00,0.0028
1907.00,0.0028
1906.00,0.0028
1905.00,0.0027
1904.00,0.0026
1903.00,0.0026
1902.00,0.0026
1901.00,0.0026
1900.00,0.0027
1899.00,0.0027
1898.00,0.0026
1897.00,0.0026
1896.00,0.0026
1895.00,0.0026
1894.00,0.0026
1893.00,0.0026
1892.00,0.0026
1891.00,0.0026
1890.00,0.0027
1889.00,0.0028
1888.00,0.0028
1887.00,0.0027
1886.00,0.0026
1885.00,0.0026
1884.00,0.0026
1883.00,0.0026
1882.00,0.0026
1881.00,0.0026
1880.00,0.0026
1879.00,0.0026
1878.00,0.0027
1877.00,0.0027
1876.00,0.0027
1875.00,0.0027
1874.00,0.0027
1873.00,0.0027
1872.00,0.0027
1871.00,0.0027
1870.00,0.0027
1869.00,0.0028
1868.00,0.0029
1867.00,0.0029
1866.00,0.0028
1865.00,0.0027
1864.00,0.0027
1863.00,0.0027
1862.00,0.0027
1861.00,0.0027
1860.00,0.0027
1859.00,0.0027
1858.00,0.0027
1857.00,0.0027
1856.00,0.0026
1855.00,0.0026
1854.00,0.0026
1853.00,0.0026
1852.00,0.0026
1851.00,0.0026
1850.00,0.0026
1849.00,0.0026
1848.00,0.0026
1847.00,0.0025
1846.00,0.0024
1845.00,0.0024
1844.00,0.0025
1843.00,0.0026
1842.00,0.0026
1841.00,0.0025
1840.00,0.0025
1839.00,0.0025
1838.00,0.0025
1837.00,0.0025
1836.00,0.0025
1835.00,0.0026
1834.00,0.0025
1833.00,0.0024
1832.00,0.0024
1831.00,0.0024
1830.00,0.0025
1829.00,0.0026
1828.00,0.0026
1827.00,0.0026
1826.00,0.0026
1825.00,0.0026
1824.00,0.0026
1823.00,0.0026
1822.00,0.0025
1821.00,0.0024
1820.00,0.0024
1819.00,0.0023
1818.00,0.0023
1817.00,0.0022
1816.00,0.0023
1815.00,0.0023
1814.00,0.0024
1813.00,0.0024
1812.00,0.0024
1811.00,0.0025
1810.00,0.0025
1809.00,0.0025
1808.00,0.0025
1807.00,0.0025
1806.00,0.0025
1805.00,0.0026
1804.00,0.0026
1803.00,0.0026
1802.00,0.0026
1801.00,0.0027
1800.00,0.0027
1799.00,0.0027
1798.00,0.0027
1797.00,0.0027
1796.00,0.0027
1795.00,0.0026
1794.00,0.0025
1793.00,0.0025
1792.00,0.0026
1791.00,0.0027
1790.00,0.0027
1789.00,0.0027
1788.00,0.0026
1787.00,0.0026
1786.00,0.0026
1785.00,0.0027
1784.00,0.0027
1783.00,0.0027
1782.00,0.0026
1781.00,0.0026
1780.00,0.0027
1779.00,0.0027
1778.00,0.0026
1777.00,0.0026
1776.00,0.0025
1775.00,0.0023
1774.00,0.0021
1773.00,0.0022
1772.00,0.0024
1771.00,0.0026
1770.00,0.0027
1769.00,0.0027
1768.00,0.0027
1767.00,0.0027
1766.00,0.0027
1765.00,0.0026
1764.00,0.0026
1763.00,0.0026
1762.00,0.0027
1761.00,0.0028
1760.00,0.0028
1759.00,0.0028
1758.00,0.0027
1757.00,0.0028
1756.00,0.0028
1755.00,0.0028
1754.00,0.0027
1753.00,0.0027
1752.00,0.0028
1751.00,0.0029
1750.00,0.0029
1749.00,0.0029
1748.00,0.0029
1747.00,0.0029
1746.00,0.0029
1745.00,0.0029
1744.00,0.0029
1743.00,0.0029
1742.00,0.0028
1741.00,0.0027
1740.00,0.0028
1739.00,0.0029
1738.00,0.0029
1737.00,0.0027
1736.00,0.0025
1735.00,0.0025
1734.00,0.0028
1733.00,0.0031
1732.00,0.0032
1731.00,0.0033
1730.00,0.0033
1729.00,0.0034
1728.00,0.0035
1727.00,0.0036
1726.00,0.0036
1725.00,0.0038
1724.00,0.0040
1723.00,0.0042
1722.00,0.0044
1721.00,0.0045
1720.00,0.0047
1719.00,0.0051
1718.00,0.0057
1717.00,0.0065
1716.00,0.0073
1715.00,0.0083
1714.00,0.0094
1713.00,0.0105
1712.00,0.0117
1711.00,0.0131
1710.00,0.0146
1709.00,0.0161
1708.00,0.0176
1707.00,0.0191
1706.00,0.0206
1705.00,0.0220
1704.00,0.0233
1703.00,0.0246
1702.00,0.0259
1701.00,0.0267
1700.00,0.0268
1699.00,0.0267
1698.00,0.0270
1697.00,0.0273
1696.00,0.0272
1695.00,0.0268
1694.00,0.0266
1693.00,0.0268
1692.00,0.0273
1691.00,0.0277
1690.00,0.0280
1689.00,0.0282
1688.00,0.0286
1687.00,0.0291
1686.00,0.0298
1685.00,0.0301
1684.00,0.0298
1683.00,0.0293
1682.00,0.0295
1681.00,0.0301
1680.00,0.0308
1679.00,0.0313
1678.00,0.0316
1677.00,0.0318
1676.00,0.0315
1675.00,0.0307
1674.00,0.0297
1673.00,0.0293
1672.00,0.0292
1671.00,0.0289
1670.00,0.0281
1669.00,0.0271
1668.00,0.0263
1667.00,0.0259
1666.00,0.0259
1665.00,0.0260
1664.00,0.0260
1663.00,0.0257
1662.00,0.0252
1661.00,0.0249
1660.00,0.0249
1659.00,0.0250
1658.00,0.0252
1657.00,0.0256
1656.00,0.0259
1655.00,0.0260
1654.00,0.0256
1653.00,0.0243
1652.00,0.0232
1651.00,0.0233
1650.00,0.0241
1649.00,0.0247
1648.00,0.0248
1647.00,0.0242
1646.00,0.0232
1645.00,0.0224
1644.00,0.0219
1643.00,0.0216
1642.00,0.0212
1641.00,0.0207
1640.00,0.0202
1639.00,0.0196
1638.00,0.0190
1637.00,0.0184
1636.00,0.0177
1635.00,0.0170
1634.00,0.0167
1633.00,0.0168
1632.00,0.0172
1631.00,0.0176
1630.00,0.0180
1629.00,0.0184
1628.00,0.0188
1627.00,0.0192
1626.00,0.0197
1625.00,0.0201
1624.00,0.0205
1623.00,0.0208
1622.00,0.0209
1621.00,0.0212
1620.00,0.0215
1619.00,0.0216
1618.00,0.0216
1617.00,0.0212
1616.00,0.0206
1615.00,0.0201
1614.00,0.0199
1613.00,0.0196
1612.00,0.0193
1611.00,0.0187
1610.00,0.0180
1609.00,0.0173
1608.00,0.0165
1607.00,0.0158
1606.00,0.0151
1605.00,0.0145
1604.00,0.0139
1603.00,0.0132
1602.00,0.0127
1601.00,0.0121
1600.00,0.0117
1599.00,0.0113
1598.00,0.0108
1597.00,0.0104
1596.00,0.0101
1595.00,0.0097
1594.00,0.0094
1593.00,0.0091
1592.00,0.0089
1591.00,0.0087
1590.00,0.0084
1589.00,0.0083
1588.00,0.0081
1587.00,0.0080
1586.00,0.0078
1585.00,0.0078
1584.00,0.0078
1583.00,0.0078
1582.00,0.0078
1581.00,0.0078
1580.00,0.0078
1579.00,0.0075
1578.00,0.0072
1577.00,0.0069
1576.00,0.0068
1575.00,0.0068
1574.00,0.0068
1573.00,0.0067
1572.00,0.0066
1571.00,0.0064
1570.00,0.0063
1569.00,0.0064
1568.00,0.0064
1567.00,0.0064
1566.00,0.0064
1565.00,0.0066
1564.00,0.0067
1563.00,0.0068
1562.00,0.0067
1561.00,0.0066
1560.00,0.0066
1559.00,0.0066
1558.00,0.0064
1557.00,0.0062
1556.00,0.0060
1555.00,0.0059
1554.00,0.0059
1553.00,0.0059
1552.00,0.0058
1551.00,0.0058
1550.00,0.0057
1549.00,0.0057
1548.00,0.0056
1547.00,0.0056
1546.00,0.0055
1545.00,0.0055
1544.00,0.0054
1543.00,0.0051
1542.00,0.0048
1541.00,0.0046
1540.00,0.0046
1539.00,0.0049
1538.00,0.0051
1537.00,0.0052
1536.00,0.0053
1535.00,0.0053
1534.00,0.0053
1533.00,0.0054
1532.00,0.0055
1531.00,0.0055
1530.00,0.0055
1529.00,0.0056
1528.00,0.0056
1527.00,0.0057
1526.00,0.0058
1525.00,0.0058
1524.00,0.0058
1523.00,0.0057
1522.00,0.0059
1521.00,0.0062
1520.00,0.0066
1519.00,0.0068
1518.00,0.0070
1517.00,0.0074
1516.00,0.0077
1515.00,0.0081
1514.00,0.0085
1513.00,0.0091
1512.00,0.0097
1511.00,0.0105
1510.00,0.0112
1509.00,0.0118
1508.00,0.0125
1507.00,0.0133
1506.00,0.0143
1505.00,0.0155
1504.00,0.0170
1503.00,0.0185
1502.00,0.0202
1501.00,0.0218
1500.00,0.0234
1499.00,0.0249
1498.00,0.0263
1497.00,0.0274
1496.00,0.0285
1495.00,0.0295
1494.00,0.0307
1493.00,0.0320
1492.00,0.0331
1491.00,0.0338
1490.00,0.0339
1489.00,0.0335
1488.00,0.0330
1487.00,0.0326
1486.00,0.0323
1485.00,0.0320
1484.00,0.0317
1483.00,0.0314
1482.00,0.0308
1481.00,0.0301
1480.00,0.0294
1479.00,0.0289
1478.00,0.0285
1477.00,0.0279
1476.00,0.0271
1475.00,0.0262
1474.00,0.0252
1473.00,0.0239
1472.00,0.0225
1471.00,0.0213
1470.00,0.0206
1469.00,0.0202
1468.00,0.0200
1467.00,0.0197
1466.00,0.0193
1465.00,0.0188
1464.00,0.0183
1463.00,0.0181
1462.00,0.0180
1461.00,0.0181
1460.00,0.0181
1459.00,0.0180
1458.00,0.0176
1457.00,0.0169
1456.00,0.0163
1455.00,0.0161
1454.00,0.0163
1453.00,0.0167
1452.00,0.0172
1451.00,0.0179
1450.00,0.0188
1449.00,0.0199
1448.00,0.0211
1447.00,0.0219
1446.00,0.0224
1445.00,0.0225
1444.00,0.0221
1443.00,0.0216
1442.00,0.0211
1441.00,0.0208
1440.00,0.0208
1439.00,0.0211
1438.00,0.0216
1437.00,0.0221
1436.00,0.0227
1435.00,0.0233
1434.00,0.0242
1433.00,0.0250
1432.00,0.0257
1431.00,0.0259
1430.00,0.0257
1429.00,0.0253
1428.00,0.0248
1427.00,0.0243
1426.00,0.0238
1425.00,0.0234
1424.00,0.0232
1423.00,0.0234
1422.00,0.0243
1421.00,0.0258
1420.00,0.0273
1419.00,0.0282
1418.00,0.0281
1417.00,0.0273
1416.00,0.0259
1415.00,0.0241
1414.00,0.0222
1413.00,0.0203
1412.00,0.0186
1411.00,0.0171
1410.00,0.0158
1409.00,0.0149
1408.00,0.0141
1407.00,0.0135
1406.00,0.0129
1405.00,0.0124
1404.00,0.0119
1403.00,0.0115
1402.00,0.0112
1401.00,0.0111
1400.00,0.0110
1399.00,0.0109
1398.00,0.0109
1397.00,0.0110
1396.00,0.0111
1395.00,0.0113
1394.00,0.0115
1393.00,0.0118
1392.00,0.0123
1391.00,0.0128
1390.00,0.0134
1389.00,0.0141
1388.00,0.0149
1387.00,0.0156
1386.00,0.0164
1385.00,0.0172
1384.00,0.0180
1383.00,0.0188
1382.00,0.0193
1381.00,0.0195
1380.00,0.0194
1379.00,0.0190
1378.00,0.0182
1377.00,0.0174
1376.00,0.0165
1375.00,0.0158
1374.00,0.0153
1373.00,0.0151
1372.00,0.0152
1371.00,0.0155
1370.00,0.0160
1369.00,0.0164
1368.00,0.0168
1367.00,0.0169
1366.00,0.0167
1365.00,0.0162
1364.00,0.0154
1363.00,0.0142
1362.00,0.0128
1361.00,0.0115
1360.00,0.0105
1359.00,0.0097
1358.00,0.0091
1357.00,0.0087
1356.00,0.0084
1355.00,0.0082
1354.00,0.0080
1353.00,0.0080
1352.00,0.0080
1351.00,0.0081
1350.00,0.0083
1349.00,0.0085
1348.00,0.0087
1347.00,0.0090
1346.00,0.0094
1345.00,0.0097
1344.00,0.0102
1343.00,0.0106
1342.00,0.0111
1341.00,0.0115
1340.00,0.0120
1339.00,0.0123
1338.00,0.0126
1337.00,0.0129
1336.00,0.0132
1335.00,0.0135
1334.00,0.0138
1333.00,0.0142
1332.00,0.0145
1331.00,0.0147
1330.00,0.0149
1329.00,0.0150
1328.00,0.0150
1327.00,0.0150
1326.00,0.0150
1325.00,0.0150
1324.00,0.0150
1323.00,0.0152
1322.00,0.0154
1321.00,0.0158
1320.00,0.0163
1319.00,0.0168
1318.00,0.0175
1317.00,0.0182
1316.00,0.0189
1315.00,0.0197
1314.00,0.0204
1313.00,0.0211
1312.00,0.0218
1311.00,0.0225
1310.00,0.0232
1309.00,0.0240
1308.00,0.0247
1307.00,0.0255
1306.00,0.0263
1305.00,0.0270
1304.00,0.0277
1303.00,0.0282
1302.00,0.0285
1301.00,0.0285
1300.00,0.0282
1299.00,0.0277
1298.00,0.0270
1297.00,0.0261
1296.00,0.0252
1295.00,0.0242
1294.00,0.0234
1293.00,0.0227
1292.00,0.0223
1291.00,0.0220
1290.00,0.0219
1289.00,0.0221
1288.00,0.0225
1287.00,0.0230
1286.00,0.0238
1285.00,0.0247
1284.00,0.0258
1283.00,0.0269
1282.00,0.0280
1281.00,0.0291
1280.00,0.0301
1279.00,0.0308
1278.00,0.0314
1277.00,0.0316
1276.00,0.0315
1275.00,0.0311
1274.00,0.0304
1273.00,0.0294
1272.00,0.0283
1271.00,0.0270
1270.00,0.0257
1269.00,0.0244
1268.00,0.0231
1267.00,0.0219
1266.00,0.0208
1265.00,0.0198
1264.00,0.0189
1263.00,0.0180
1262.00,0.0171
1261.00,0.0164
1260.00,0.0156
1259.00,0.0150
1258.00,0.0144
1257.00,0.0140
1256.00,0.0138
1255.00,0.0137
1254.00,0.0137
1253.00,0.0139
1252.00,0.0140
1251.00,0.0141
1250.00,0.0140
1249.00,0.0137
1248.00,0.0132
1247.00,0.0126
1246.00,0.0120
1245.00,0.0114
1244.00,0.0110
1243.00,0.0107
1242.00,0.0105
1241.00,0.0104
1240.00,0.0105
1239.00,0.0107
1238.00,0.0110
1237.00,0.0114
1236.00,0.0120
1235.00,0.0128
1234.00,0.0138
1233.00,0.0150
1232.00,0.0163
1231.00,0.0179
1230.00,0.0196
1229.00,0.0214
1228.00,0.0234
1227.00,0.0253
1226.00,0.0272
1225.00,0.0292
1224.00,0.0311
1223.00,0.0330
1222.00,0.0348
1221.00,0.0365
1220.00,0.0382
1219.00,0.0399
1218.00,0.0414
1217.00,0.0430
1216.00,0.0445
1215.00,0.0458
1214.00,0.0471
1213.00,0.0482
1212.00,0.0492
1211.00,0.0500
1210.00,0.0506
1209.00,0.0511
1208.00,0.0514
1207.00,0.0514
1206.00,0.0512
1205.00,0.0508
1204.00,0.0501
1203.00,0.0491
1202.00,0.0478
1201.00,0.0462
1200.00,0.0444
1199.00,0.0424
1198.00,0.0404
1197.00,0.0384
1196.00,0.0367
1195.00,0.0352
1194.00,0.0341
1193.00,0.0333
1192.00,0.0328
1191.00,0.0325
1190.00,0.0323
1189.00,0.0321
1188.00,0.0318
1187.00,0.0312
1186.00,0.0305
1185.00,0.0296
1184.00,0.0286
1183.00,0.0276
1182.00,0.0265
1181.00,0.0256
1180.00,0.0249
1179.00,0.0243
1178.00,0.0238
1177.00,0.0235
1176.00,0.0233
1175.00,0.0230
1174.00,0.0228
1173.00,0.0226
1172.00,0.0224
1171.00,0.0221
1170.00,0.0215
1169.00,0.0207
1168.00,0.0198
1167.00,0.0188
1166.00,0.0178
1165.00,0.0168
1164.00,0.0160
1163.00,0.0154
1162.00,0.0150
1161.00,0.0147
1160.00,0.0146
1159.00,0.0146
1158.00,0.0146
1157.00,0.0146
1156.00,0.0147
1155.00,0.0147
1154.00,0.0146
1153.00,0.0146
1152.00,0.0147
1151.00,0.0151
1150.00,0.0157
1149.00,0.0166
1148.00,0.0178
1147.00,0.0191
1146.00,0.0205
1145.00,0.0221
1144.00,0.0238
1143.00,0.0256
1142.00,0.0273
1141.00,0.0290
1140.00,0.0304
1139.00,0.0313
1138.00,0.0316
1137.00,0.0313
1136.00,0.0305
1135.00,0.0293
1134.00,0.0280
1133.00,0.0268
1132.00,0.0259
1131.00,0.0253
1130.00,0.0251
1129.00,0.0254
1128.00,0.0261
1127.00,0.0272
1126.00,0.0284
1125.00,0.0300
1124.00,0.0317
1123.00,0.0335
1122.00,0.0352
1121.00,0.0368
1120.00,0.0384
1119.00,0.0397
1118.00,0.0408
1117.00,0.0417
1116.00,0.0422
1115.00,0.0424
1114.00,0.0422
1113.00,0.0417
1112.00,0.0410
1111.00,0.0402
1110.00,0.0395
1109.00,0.0390
1108.00,0.0390
1107.00,0.0394
1106.00,0.0402
1105.00,0.0415
1104.00,0.0431
1103.00,0.0447
1102.00,0.0463
1101.00,0.0478
1100.00,0.0490
1099.00,0.0497
1098.00,0.0500
1097.00,0.0500
1096.00,0.0496
1095.00,0.0489
1094.00,0.0481
1093.00,0.0471
1092.00,0.0461
1091.00,0.0449
1090.00,0.0434
1089.00,0.0418
1088.00,0.0401
1087.00,0.0382
1086.00,0.0361
1085.00,0.0341
1084.00,0.0322
1083.00,0.0303
1082.00,0.0286
1081.00,0.0270
1080.00,0.0257
1079.00,0.0244
1078.00,0.0232
1077.00,0.0221
1076.00,0.0211
1075.00,0.0202
1074.00,0.0194
1073.00,0.0187
1072.00,0.0182
1071.00,0.0177
1070.00,0.0173
1069.00,0.0170
1068.00,0.0168
1067.00,0.0167
1066.00,0.0167
1065.00,0.0170
1064.00,0.0174
1063.00,0.0181
1062.00,0.0189
1061.00,0.0199
1060.00,0.0211
1059.00,0.0223
1058.00,0.0235
1057.00,0.0247
1056.00,0.0259
1055.00,0.0269
1054.00,0.0277
1053.00,0.0283
1052.00,0.0287
1051.00,0.0290
1050.00,0.0290
1049.00,0.0291
1048.00,0.0293
1047.00,0.0297
1046.00,0.0303
1045.00,0.0309
1044.00,0.0315
1043.00,0.0317
1042.00,0.0313
1041.00,0.0304
1040.00,0.0292
1039.00,0.0280
1038.00,0.0269
1037.00,0.0260
1036.00,0.0256
1035.00,0.0253
1034.00,0.0252
1033.00,0.0253
1032.00,0.0256
1031.00,0.0260
1030.00,0.0266
1029.00,0.0274
1028.00,0.0284
1027.00,0.0296
1026.00,0.0309
1025.00,0.0323
1024.00,0.0336
1023.00,0.0349
1022.00,0.0359
1021.00,0.0368
1020.00,0.0373
1019.00,0.0375
1018.00,0.0373
1017.00,0.0368
1016.00,0.0361
1015.00,0.0351
1014.00,0.0340
1013.00,0.0328
1012.00,0.0316
1011.00,0.0303
1010.00,0.0290
1009.00,0.0277
1008.00,0.0265
1007.00,0.0253
1006.00,0.0243
1005.00,0.0233
1004.00,0.0224
1003.00,0.0216
1002.00,0.0208
1001.00,0.0200
1000.00,0.0193
999.00,0.0186
998.00,0.0179
997.00,0.0173
996.00,0.0168
995.00,0.0163
994.00,0.0158
993.00,0.0154
992.00,0.0151
991.00,0.0148
990.00,0.0144
989.00,0.0142
988.00,0.0140
987.00,0.0138
986.00,0.0137
985.00,0.0135
984.00,0.0135
983.00,0.0135
982.00,0.0135
981.00,0.0136
980.00,0.0136
979.00,0.0136
978.00,0.0136
977.00,0.0136
976.00,0.0136
975.00,0.0136
974.00,0.0135
973.00,0.0134
972.00,0.0133
971.00,0.0132
970.00,0.0131
969.00,0.0130
968.00,0.0129
967.00,0.0128
966.00,0.0126
965.00,0.0126
964.00,0.0126
963.00,0.0126
962.00,0.0125
961.00,0.0125
960.00,0.0126
959.00,0.0127
958.00,0.0127
957.00,0.0128
956.00,0.0129
955.00,0.0130
954.00,0.0129
953.00,0.0127
952.00,0.0126
951.00,0.0124
950.00,0.0121
949.00,0.0118
948.00,0.0115
947.00,0.0112
946.00,0.0109
945.00,0.0106
944.00,0.0103
943.00,0.0101
942.00,0.0099
941.00,0.0098
940.00,0.0096
939.00,0.0095
938.00,0.0093
937.00,0.0091
936.00,0.0090
935.00,0.0089
934.00,0.0088
933.00,0.0087
932.00,0.0086
931.00,0.0086
930.00,0.0085
929.00,0.0084
928.00,0.0084
927.00,0.0083
926.00,0.0082
925.00,0.0081
924.00,0.0081
923.00,0.0080
922.00,0.0079
921.00,0.0079
920.00,0.0079
919.00,0.0079
918.00,0.0079
917.00,0.0078
916.00,0.0078
915.00,0.0078
914.00,0.0077
913.00,0.0077
912.00,0.0077
911.00,0.0077
910.00,0.0077
909.00,0.0077
908.00,0.0077
907.00,0.0077
906.00,0.0077
905.00,0.0077
904.00,0.0077
903.00,0.0078
902.00,0.0078
901.00,0.0078
900.00,0.0079
899.00,0.0079
898.00,0.0078
897.00,0.0078
896.00,0.0078
895.00,0.0078
894.00,0.0078
893.00,0.0078
892.00,0.0078
891.00,0.0078
890.00,0.0077
889.00,0.0076
888.00,0.0076
887.00,0.0076
886.00,0.0076
885.00,0.0076
884.00,0.0076
883.00,0.0077
882.00,0.0077
881.00,0.0078
880.00,0.0079
879.00,0.0080
878.00,0.0081
877.00,0.0082
876.00,0.0084
875.00,0.0086
874.00,0.0088
873.00,0.0090
872.00,0.0092
871.00,0.0095
870.00,0.0098
869.00,0.0103
868.00,0.0109
867.00,0.0115
866.00,0.0121
865.00,0.0124
864.00,0.0126
863.00,0.0125
862.00,0.0121
861.00,0.0116
860.00,0.0112
859.00,0.0109
858.00,0.0107
857.00,0.0106
856.00,0.0106
855.00,0.0106
854.00,0.0106
853.00,0.0104
852.00,0.0103
851.00,0.0100
850.00,0.0096
849.00,0.0093
848.00,0.0090
847.00,0.0088
846.00,0.0085
845.00,0.0082
844.00,0.0080
843.00,0.0078
842.00,0.0075
841.00,0.0073
840.00,0.0072
839.00,0.0071
838.00,0.0069
837.00,0.0068
836.00,0.0068
835.00,0.0067
834.00,0.0066
833.00,0.0066
832.00,0.0065
831.00,0.0065
830.00,0.0065
829.00,0.0066
828.00,0.0067
827.00,0.0069
826.00,0.0070
825.00,0.0072
824.00,0.0075
823.00,0.0077
822.00,0.0079
821.00,0.0081
820.00,0.0083
819.00,0.0085
818.00,0.0086
817.00,0.0087
816.00,0.0089
815.00,0.0090
814.00,0.0091
813.00,0.0092
812.00,0.0095
811.00,0.0098
810.00,0.0102
809.00,0.0108
808.00,0.0116
807.00,0.0125
806.00,0.0136
805.00,0.0148
804.00,0.0162
803.00,0.0176
802.00,0.0186
801.00,0.0195
800.00,0.0200
799.00,0.0202
798.00,0.0201
797.00,0.0199
796.00,0.0197
795.00,0.0194
794.00,0.0190
793.00,0.0187
792.00,0.0183
791.00,0.0179
790.00,0.0173
789.00,0.0166
788.00,0.0160
787.00,0.0154
786.00,0.0150
785.00,0.0149
784.00,0.0154
783.00,0.0163
782.00,0.0176
781.00,0.0193
780.00,0.0213
779.00,0.0231
778.00,0.0246
777.00,0.0256
776.00,0.0260
775.00,0.0256
774.00,0.0245
773.00,0.0230
772.00,0.0211
771.00,0.0192
770.00,0.0173
769.00,0.0157
768.00,0.0144
767.00,0.0134
766.00,0.0126
765.00,0.0121
764.00,0.0118
763.00,0.0117
762.00,0.0116
761.00,0.0117
760.00,0.0120
759.00,0.0125
758.00,0.0130
757.00,0.0137
756.00,0.0144
755.00,0.0151
754.00,0.0158
753.00,0.0164
752.00,0.0172
751.00,0.0178
750.00,0.0183
749.00,0.0187
748.00,0.0189
747.00,0.0189
746.00,0.0185
745.00,0.0177
744.00,0.0168
743.00,0.0159
742.00,0.0155
741.00,0.0157
740.00,0.0170
739.00,0.0192
738.00,0.0220
737.00,0.0250
736.00,0.0276
735.00,0.0293
734.00,0.0298
733.00,0.0296
732.00,0.0292
731.00,0.0290
730.00,0.0290
729.00,0.0293
728.00,0.0296
727.00,0.0295
726.00,0.0289
725.00,0.0277
724.00,0.0259
723.00,0.0238
722.00,0.0216
721.00,0.0194
720.00,0.0175
719.00,0.0159
718.00,0.0145
717.00,0.0135
716.00,0.0128
715.00,0.0122
714.00,0.0117
713.00,0.0113
712.00,0.0110
711.00,0.0107
710.00,0.0105
709.00,0.0103
708.00,0.0103
707.00,0.0103
706.00,0.0103
705.00,0.0103
704.00,0.0103
703.00,0.0102
702.00,0.0101
701.00,0.0101
700.00,0.0103
699.00,0.0104
698.00,0.0104
697.00,0.0105
696.00,0.0107
695.00,0.0108
694.00,0.0109
693.00,0.0110
692.00,0.0111
691.00,0.0113
690.00,0.0115
689.00,0.0118
688.00,0.0121
687.00,0.0123
686.00,0.0124
685.00,0.0126
684.00,0.0128
683.00,0.0130
682.00,0.0131
681.00,0.0132
680.00,0.0133
679.00,0.0134
678.00,0.0134
677.00,0.0133
676.00,0.0133
675.00,0.0134
674.00,0.0133
673.00,0.0133
672.00,0.0133
671.00,0.0133
670.00,0.0132
669.00,0.0129
668.00,0.0125
667.00,0.0121
666.00,0.0117
665.00,0.0115
664.00,0.0116
663.00,0.0117
662.00,0.0118
661.00,0.0120
660.00,0.0122
659.00,0.0124
658.00,0.0124
657.00,0.0124
656.00,0.0126
655.00,0.0127
654.00,0.0127
653.00,0.0127
652.00,0.0129
651.00,0.0130
650.00,0.0130
649.00,0.0130
648.00,0.0130
647.00,0.0131
646.00,0.0131
645.00,0.0131
644.00,0.0132
643.00,0.0131
642.00,0.0130
641.00,0.0128
640.00,0.0127
639.00,0.0127
638.00,0.0126
637.00,0.0125
636.00,0.0125
635.00,0.0124
634.00,0.0123
633.00,0.0122
632.00,0.0123
631.00,0.0122
630.00,0.0120
629.00,0.0118
628.00,0.0117
627.00,0.0117
626.00,0.0116
625.00,0.0116
624.00,0.0115
623.00,0.0115
622.00,0.0114
621.00,0.0113
620.00,0.0114
619.00,0.0113
618.00,0.0112
617.00,0.0111
616.00,0.0112
615.00,0.0113
614.00,0.0112
613.00,0.0112
612.00,0.0112
611.00,0.0112
610.00,0.0111
609.00,0.0110
608.00,0.0110
607.00,0.0110
606.00,0.0109
605.00,0.0108
604.00,0.0110
603.00,0.0113
602.00,0.0114
601.00,0.0116
600.00,0.0121
599.00,0.0125
598.00,0.0128
597.00,0.0132
596.00,0.0136
595.00,0.0140
594.00,0.0142
593.00,0.0144
592.00,0.0147
591.00,0.0150
590.00,0.0151
589.00,0.0154
588.00,0.0156
587.00,0.0158
586.00,0.0156
585.00,0.0155
584.00,0.0154
583.00,0.0152
582.00,0.0149
581.00,0.0146
580.00,0.0144
579.00,0.0142
578.00,0.0139
577.00,0.0137
576.00,0.0137
575.00,0.0137
574.00,0.0135
573.00,0.0134
572.00,0.0134
571.00,0.0134
570.00,0.0133
569.00,0.0131
568.00,0.0130
567.00,0.0129
566.00,0.0127
565.00,0.0126
564.00,0.0127
563.00,0.0126
562.00,0.0123
561.00,0.0119
560.00,0.0118
559.00,0.0117
558.00,0.0115
557.00,0.0113
556.00,0.0113
555.00,0.0112
554.00,0.0109
553.00,0.0107
552.00,0.0106
551.00,0.0106
550.00,0.0103
549.00,0.0101
548.00,0.0101
547.00,0.0102
546.00,0.0101
545.00,0.0102
544.00,0.0105
543.00,0.0109
542.00,0.0111
541.00,0.0113
540.00,0.0118
539.00,0.0121
538.00,0.0120
537.00,0.0118
536.00,0.0117
535.00,0.0116
534.00,0.0113
533.00,0.0111
532.00,0.0112
531.00,0.0111
530.00,0.0108
529.00,0.0105
528.00,0.0105
527.00,0.0104
526.00,0.0103
525.00,0.0102
524.00,0.0102
523.00,0.0102
522.00,0.0100
521.00,0.0098
520.00,0.0099
519.00,0.0100
518.00,0.0099
517.00,0.0098
516.00,0.0099
515.00,0.0099
514.00,0.0097
513.00,0.0096
512.00,0.0099
511.00,0.0100
510.00,0.0099
509.00,0.0098
508.00,0.0100
507.00,0.0103
506.00,0.0102
505.00,0.0101
504.00,0.0102
503.00,0.0101
502.00,0.0097
501.00,0.0094
500.00,0.0094
499.00,0.0095
498.00,0.0095
497.00,0.0097
496.00,0.0102
495.00,0.0108
494.00,0.0108
493.00,0.0107
492.00,0.0107
491.00,0.0106
490.00,0.0103
489.00,0.0102
488.00,0.0104
487.00,0.0104
486.00,0.0101
485.00,0.0097
484.00,0.0097
483.00,0.0097
482.00,0.0097
481.00,0.0098
480.00,0.0103
479.00,0.0106
478.00,0.0105
477.00,0.0104
476.00,0.0106
475.00,0.0108
474.00,0.0108
473.00,0.0111
472.00,0.0121
471.00,0.0130
470.00,0.0135
469.00,0.0139
468.00,0.0145
467.00,0.0147
466.00,0.0143
465.00,0.0139
464.00,0.0141
463.00,0.0143
462.00,0.0139
461.00,0.0134
460.00,0.0132
459.00,0.0129
458.00,0.0120
457.00,0.0111
456.00,0.0107
455.00,0.0107
454.00,0.0104
453.00,0.0103
452.00,0.0103
451.00,0.0101
450.00,0.0093
449.00,0.0088
448.00,0.0088
447.00,0.0088
446.00,0.0083
445.00,0.0078
444.00,0.0079
443.00,0.0079
442.00,0.0075
441.00,0.0074
440.00,0.0078
439.00,0.0082
438.00,0.0081
437.00,0.0081
436.00,0.0087
435.00,0.0089
434.00,0.0083
433.00,0.0078
432.00,0.0081
431.00,0.0085
430.00,0.0084
429.00,0.0085
428.00,0.0092
427.00,0.0097
426.00,0.0096
425.00,0.0096
424.00,0.0101
423.00,0.0103
422.00,0.0096
421.00,0.0092
420.00,0.0098
419.00,0.0102
418.00,0.0095
417.00,0.0092
416.00,0.0102
415.00,0.0110
414.00,0.0108
413.00,0.0104
412.00,0.0107
411.00,0.0110
410.00,0.0103
409.00,0.0098
408.00,0.0101
407.00,0.0100
406.00,0.0087
405.00,0.0082
404.00,0.0094
403.00,0.0107
402.00,0.0102
401.00,0.0098
400.00,0.0110
