Created as New Dataset,Sample 1053 By YargerLab Date Monday, August 04 2025
cm-1,A
4000.00,0.0050
3999.00,0.0050
3998.00,0.0050
3997.00,0.0050
3996.00,0.0050
3995.00,0.0050
3994.00,0.0050
3993.00,0.0049
3992.00,0.0049
3991.00,0.0049
3990.00,0.0049
3989.00,0.0049
3988.00,0.0049
3987.00,0.0049
3986.00,0.0050
3985.00,0.0050
3984.00,0.0050
3983.00,0.0050
3982.00,0.0050
3981.00,0.0050
3980.00,0.0050
3979.00,0.0050
3978.00,0.0049
3977.00,0.0049
3976.00,0.0049
3975.00,0.0050
3974.00,0.0050
3973.00,0.0050
3972.00,0.0050
3971.00,0.0050
3970.00,0.0050
3969.00,0.0050
3968.00,0.0050
3967.00,0.0050
3966.00,0.0050
3965.00,0.0049
3964.00,0.0049
3963.00,0.0049
3962.00,0.0049
3961.00,0.0050
3960.00,0.0050
3959.00,0.0050
3958.00,0.0050
3957.00,0.0050
3956.00,0.0050
3955.00,0.0050
3954.00,0.0050
3953.00,0.0050
3952.00,0.0050
3951.00,0.0049
3950.00,0.0049
3949.00,0.0049
3948.00,0.0049
3947.00,0.0049
3946.00,0.0048
3945.00,0.0049
3944.00,0.0049
3943.00,0.0049
3942.00,0.0049
3941.00,0.0049
3940.00,0.0049
3939.00,0.0049
3938.00,0.0049
3937.00,0.0049
3936.00,0.0049
3935.00,0.0049
3934.00,0.0049
3933.00,0.0049
3932.00,0.0049
3931.00,0.0049
3930.00,0.0049
3929.00,0.0049
3928.00,0.0049
3927.00,0.0049
3926.00,0.0049
3925.00,0.0049
3924.00,0.0049
3923.00,0.0049
3922.00,0.0049
3921.00,0.0049
3920.00,0.0049
3919.00,0.0049
3918.00,0.0050
3917.00,0.0049
3916.00,0.0049
3915.00,0.0049
3914.00,0.0049
3913.00,0.0049
3912.00,0.0049
3911.00,0.0049
3910.00,0.0049
3909.00,0.0049
3908.00,0.0049
3907.00,0.0049
3906.00,0.0049
3905.00,0.0049
3904.00,0.0049
3903.00,0.0049
3902.00,0.0049
3901.00,0.0049
3900.00,0.0049
3899.00,0.0049
3898.00,0.0049
3897.00,0.0049
3896.00,0.0049
3895.00,0.0049
3894.00,0.0049
3893.00,0.0049
3892.00,0.0049
3891.00,0.0048
3890.00,0.0048
3889.00,0.0048
3888.00,0.0048
3887.00,0.0048
3886.00,0.0048
3885.00,0.0048
3884.00,0.0048
3883.00,0.0048
3882.00,0.0048
3881.00,0.0048
3880.00,0.0048
3879.00,0.0048
3878.00,0.0048
3877.00,0.0049
3876.00,0.0049
3875.00,0.0049
3874.00,0.0049
3873.00,0.0048
3872.00,0.0048
3871.00,0.0048
3870.00,0.0048
3869.00,0.0048
3868.00,0.0048
3867.00,0.0048
3866.00,0.0048
3865.00,0.0048
3864.00,0.0048
3863.00,0.0048
3862.00,0.0048
3861.00,0.0048
3860.00,0.0048
3859.00,0.0048
3858.00,0.0048
3857.00,0.0048
3856.00,0.0048
3855.00,0.0048
3854.00,0.0047
3853.00,0.0047
3852.00,0.0047
3851.00,0.0047
3850.00,0.0047
3849.00,0.0048
3848.00,0.0048
3847.00,0.0048
3846.00,0.0048
3845.00,0.0048
3844.00,0.0048
3843.00,0.0048
3842.00,0.0048
3841.00,0.0048
3840.00,0.0048
3839.00,0.0048
3838.00,0.0048
3837.00,0.0048
3836.00,0.0048
3835.00,0.0048
3834.00,0.0048
3833.00,0.0048
3832.00,0.0048
3831.00,0.0048
3830.00,0.0048
3829.00,0.0048
3828.00,0.0048
3827.00,0.0047
3826.00,0.0048
3825.00,0.0048
3824.00,0.0048
3823.00,0.0048
3822.00,0.0048
3821.00,0.0048
3820.00,0.0048
3819.00,0.0048
3818.00,0.0048
3817.00,0.0047
3816.00,0.0047
3815.00,0.0047
3814.00,0.0047
3813.00,0.0047
3812.00,0.0047
3811.00,0.0048
3810.00,0.0048
3809.00,0.0048
3808.00,0.0048
3807.00,0.0048
3806.00,0.0048
3805.00,0.0047
3804.00,0.0047
3803.00,0.0047
3802.00,0.0047
3801.00,0.0047
3800.00,0.0047
3799.00,0.0047
3798.00,0.0048
3797.00,0.0048
3796.00,0.0048
3795.00,0.0048
3794.00,0.0048
3793.00,0.0048
3792.00,0.0048
3791.00,0.0048
3790.00,0.0048
3789.00,0.0048
3788.00,0.0048
3787.00,0.0048
3786.00,0.0048
3785.00,0.0048
3784.00,0.0048
3783.00,0.0048
3782.00,0.0048
3781.00,0.0048
3780.00,0.0047
3779.00,0.0047
3778.00,0.0047
3777.00,0.0047
3776.00,0.0047
3775.00,0.0048
3774.00,0.0048
3773.00,0.0048
3772.00,0.0049
3771.00,0.0048
3770.00,0.0048
3769.00,0.0048
3768.00,0.0048
3767.00,0.0048
3766.00,0.0048
3765.00,0.0048
3764.00,0.0048
3763.00,0.0048
3762.00,0.0048
3761.00,0.0048
3760.00,0.0048
3759.00,0.0048
3758.00,0.0048
3757.00,0.0048
3756.00,0.0048
3755.00,0.0048
3754.00,0.0047
3753.00,0.0047
3752.00,0.0047
3751.00,0.0047
3750.00,0.0047
3749.00,0.0047
3748.00,0.0047
3747.00,0.0046
3746.00,0.0047
3745.00,0.0047
3744.00,0.0047
3743.00,0.0047
3742.00,0.0047
3741.00,0.0047
3740.00,0.0047
3739.00,0.0047
3738.00,0.0047
3737.00,0.0047
3736.00,0.0046
3735.00,0.0046
3734.00,0.0046
3733.00,0.0046
3732.00,0.0046
3731.00,0.0045
3730.00,0.0046
3729.00,0.0046
3728.00,0.0046
3727.00,0.0046
3726.00,0.0047
3725.00,0.0047
3724.00,0.0047
3723.00,0.0047
3722.00,0.0047
3721.00,0.0047
3720.00,0.0047
3719.00,0.0047
3718.00,0.0047
3717.00,0.0047
3716.00,0.0047
3715.00,0.0047
3714.00,0.0046
3713.00,0.0046
3712.00,0.0046
3711.00,0.0045
3710.00,0.0045
3709.00,0.0045
3708.00,0.0045
3707.00,0.0045
3706.00,0.0045
3705.00,0.0045
3704.00,0.0045
3703.00,0.0045
3702.00,0.0045
3701.00,0.0046
3700.00,0.0046
3699.00,0.0046
3698.00,0.0046
3697.00,0.0046
3696.00,0.0046
3695.00,0.0046
3694.00,0.0046
3693.00,0.0046
3692.00,0.0046
3691.00,0.0046
3690.00,0.0046
3689.00,0.0046
3688.00,0.0046
3687.00,0.0046
3686.00,0.0046
3685.00,0.0046
3684.00,0.0046
3683.00,0.0047
3682.00,0.0047
3681.00,0.0047
3680.00,0.0047
3679.00,0.0047
3678.00,0.0047
3677.00,0.0047
3676.00,0.0047
3675.00,0.0047
3674.00,0.0047
3673.00,0.0047
3672.00,0.0047
3671.00,0.0047
3670.00,0.0047
3669.00,0.0047
3668.00,0.0047
3667.00,0.0047
3666.00,0.0047
3665.00,0.0048
3664.00,0.0048
3663.00,0.0048
3662.00,0.0049
3661.00,0.0048
3660.00,0.0048
3659.00,0.0048
3658.00,0.0047
3657.00,0.0047
3656.00,0.0047
3655.00,0.0047
3654.00,0.0047
3653.00,0.0047
3652.00,0.0047
3651.00,0.0048
3650.00,0.0048
3649.00,0.0048
3648.00,0.0048
3647.00,0.0048
3646.00,0.0048
3645.00,0.0049
3644.00,0.0049
3643.00,0.0049
3642.00,0.0049
3641.00,0.0050
3640.00,0.0050
3639.00,0.0050
3638.00,0.0050
3637.00,0.0050
3636.00,0.0051
3635.00,0.0051
3634.00,0.0051
3633.00,0.0050
3632.00,0.0050
3631.00,0.0050
3630.00,0.0051
3629.00,0.0051
3628.00,0.0051
3627.00,0.0051
3626.00,0.0052
3625.00,0.0052
3624.00,0.0052
3623.00,0.0053
3622.00,0.0053
3621.00,0.0053
3620.00,0.0054
3619.00,0.0054
3618.00,0.0054
3617.00,0.0055
3616.00,0.0055
3615.00,0.0055
3614.00,0.0055
3613.00,0.0055
3612.00,0.0056
3611.00,0.0056
3610.00,0.0056
3609.00,0.0057
3608.00,0.0057
3607.00,0.0057
3606.00,0.0057
3605.00,0.0057
3604.00,0.0058
3603.00,0.0058
3602.00,0.0058
3601.00,0.0059
3600.00,0.0059
3599.00,0.0059
3598.00,0.0059
3597.00,0.0059
3596.00,0.0059
3595.00,0.0060
3594.00,0.0060
3593.00,0.0061
3592.00,0.0061
3591.00,0.0062
3590.00,0.0062
3589.00,0.0062
3588.00,0.0063
3587.00,0.0063
3586.00,0.0063
3585.00,0.0064
3584.00,0.0064
3583.00,0.0064
3582.00,0.0065
3581.00,0.0065
3580.00,0.0066
3579.00,0.0066
3578.00,0.0066
3577.00,0.0067
3576.00,0.0067
3575.00,0.0067
3574.00,0.0068
3573.00,0.0068
3572.00,0.0069
3571.00,0.0069
3570.00,0.0069
3569.00,0.0069
3568.00,0.0070
3567.00,0.0070
3566.00,0.0071
3565.00,0.0072
3564.00,0.0073
3563.00,0.0073
3562.00,0.0074
3561.00,0.0074
3560.00,0.0075
3559.00,0.0076
3558.00,0.0076
3557.00,0.0077
3556.00,0.0077
3555.00,0.0077
3554.00,0.0077
3553.00,0.0078
3552.00,0.0078
3551.00,0.0079
3550.00,0.0080
3549.00,0.0081
3548.00,0.0081
3547.00,0.0082
3546.00,0.0082
3545.00,0.0083
3544.00,0.0084
3543.00,0.0085
3542.00,0.0085
3541.00,0.0086
3540.00,0.0086
3539.00,0.0087
3538.00,0.0088
3537.00,0.0088
3536.00,0.0089
3535.00,0.0090
3534.00,0.0090
3533.00,0.0091
3532.00,0.0091
3531.00,0.0092
3530.00,0.0092
3529.00,0.0093
3528.00,0.0093
3527.00,0.0094
3526.00,0.0095
3525.00,0.0096
3524.00,0.0096
3523.00,0.0097
3522.00,0.0098
3521.00,0.0098
3520.00,0.0099
3519.00,0.0100
3518.00,0.0100
3517.00,0.0101
3516.00,0.0101
3515.00,0.0102
3514.00,0.0102
3513.00,0.0103
3512.00,0.0103
3511.00,0.0104
3510.00,0.0104
3509.00,0.0105
3508.00,0.0106
3507.00,0.0107
3506.00,0.0107
3505.00,0.0108
3504.00,0.0109
3503.00,0.0110
3502.00,0.0111
3501.00,0.0112
3500.00,0.0112
3499.00,0.0113
3498.00,0.0114
3497.00,0.0114
3496.00,0.0115
3495.00,0.0116
3494.00,0.0117
3493.00,0.0118
3492.00,0.0119
3491.00,0.0120
3490.00,0.0121
3489.00,0.0122
3488.00,0.0123
3487.00,0.0124
3486.00,0.0125
3485.00,0.0126
3484.00,0.0127
3483.00,0.0129
3482.00,0.0130
3481.00,0.0132
3480.00,0.0133
3479.00,0.0134
3478.00,0.0135
3477.00,0.0136
3476.00,0.0138
3475.00,0.0139
3474.00,0.0141
3473.00,0.0142
3472.00,0.0144
3471.00,0.0145
3470.00,0.0147
3469.00,0.0148
3468.00,0.0150
3467.00,0.0151
3466.00,0.0153
3465.00,0.0155
3464.00,0.0156
3463.00,0.0158
3462.00,0.0160
3461.00,0.0162
3460.00,0.0163
3459.00,0.0165
3458.00,0.0166
3457.00,0.0168
3456.00,0.0169
3455.00,0.0171
3454.00,0.0173
3453.00,0.0175
3452.00,0.0177
3451.00,0.0179
3450.00,0.0181
3449.00,0.0183
3448.00,0.0185
3447.00,0.0187
3446.00,0.0189
3445.00,0.0191
3444.00,0.0193
3443.00,0.0195
3442.00,0.0197
3441.00,0.0200
3440.00,0.0202
3439.00,0.0204
3438.00,0.0207
3437.00,0.0209
3436.00,0.0211
3435.00,0.0214
3434.00,0.0216
3433.00,0.0219
3432.00,0.0222
3431.00,0.0224
3430.00,0.0227
3429.00,0.0230
3428.00,0.0233
3427.00,0.0236
3426.00,0.0239
3425.00,0.0242
3424.00,0.0245
3423.00,0.0248
3422.00,0.0251
3421.00,0.0254
3420.00,0.0258
3419.00,0.0261
3418.00,0.0264
3417.00,0.0267
3416.00,0.0270
3415.00,0.0273
3414.00,0.0276
3413.00,0.0278
3412.00,0.0281
3411.00,0.0283
3410.00,0.0285
3409.00,0.0287
3408.00,0.0289
3407.00,0.0291
3406.00,0.0292
3405.00,0.0294
3404.00,0.0295
3403.00,0.0296
3402.00,0.0297
3401.00,0.0298
3400.00,0.0298
3399.00,0.0298
3398.00,0.0297
3397.00,0.0297
3396.00,0.0297
3395.00,0.0296
3394.00,0.0295
3393.00,0.0294
3392.00,0.0293
3391.00,0.0291
3390.00,0.0290
3389.00,0.0288
3388.00,0.0287
3387.00,0.0285
3386.00,0.0283
3385.00,0.0281
3384.00,0.0280
3383.00,0.0278
3382.00,0.0276
3381.00,0.0274
3380.00,0.0271
3379.00,0.0269
3378.00,0.0267
3377.00,0.0265
3376.00,0.0263
3375.00,0.0261
3374.00,0.0259
3373.00,0.0257
3372.00,0.0255
3371.00,0.0253
3370.00,0.0252
3369.00,0.0250
3368.00,0.0248
3367.00,0.0246
3366.00,0.0245
3365.00,0.0243
3364.00,0.0241
3363.00,0.0240
3362.00,0.0238
3361.00,0.0237
3360.00,0.0235
3359.00,0.0234
3358.00,0.0233
3357.00,0.0232
3356.00,0.0231
3355.00,0.0230
3354.00,0.0229
3353.00,0.0228
3352.00,0.0226
3351.00,0.0226
3350.00,0.0225
3349.00,0.0224
3348.00,0.0224
3347.00,0.0223
3346.00,0.0222
3345.00,0.0221
3344.00,0.0221
3343.00,0.0220
3342.00,0.0219
3341.00,0.0219
3340.00,0.0218
3339.00,0.0218
3338.00,0.0218
3337.00,0.0218
3336.00,0.0218
3335.00,0.0218
3334.00,0.0218
3333.00,0.0218
3332.00,0.0218
3331.00,0.0217
3330.00,0.0217
3329.00,0.0217
3328.00,0.0217
3327.00,0.0217
3326.00,0.0217
3325.00,0.0217
3324.00,0.0218
3323.00,0.0218
3322.00,0.0218
3321.00,0.0219
3320.00,0.0219
3319.00,0.0220
3318.00,0.0220
3317.00,0.0221
3316.00,0.0221
3315.00,0.0222
3314.00,0.0222
3313.00,0.0223
3312.00,0.0223
3311.00,0.0223
3310.00,0.0223
3309.00,0.0224
3308.00,0.0224
3307.00,0.0225
3306.00,0.0226
3305.00,0.0227
3304.00,0.0228
3303.00,0.0230
3302.00,0.0231
3301.00,0.0232
3300.00,0.0233
3299.00,0.0234
3298.00,0.0234
3297.00,0.0235
3296.00,0.0235
3295.00,0.0236
3294.00,0.0237
3293.00,0.0238
3292.00,0.0240
3291.00,0.0241
3290.00,0.0243
3289.00,0.0244
3288.00,0.0246
3287.00,0.0247
3286.00,0.0248
3285.00,0.0249
3284.00,0.0249
3283.00,0.0250
3282.00,0.0251
3281.00,0.0253
3280.00,0.0254
3279.00,0.0255
3278.00,0.0256
3277.00,0.0258
3276.00,0.0259
3275.00,0.0259
3274.00,0.0260
3273.00,0.0261
3272.00,0.0262
3271.00,0.0263
3270.00,0.0265
3269.00,0.0266
3268.00,0.0268
3267.00,0.0269
3266.00,0.0270
3265.00,0.0271
3264.00,0.0272
3263.00,0.0274
3262.00,0.0275
3261.00,0.0276
3260.00,0.0277
3259.00,0.0278
3258.00,0.0278
3257.00,0.0279
3256.00,0.0280
3255.00,0.0282
3254.00,0.0283
3253.00,0.0284
3252.00,0.0286
3251.00,0.0287
3250.00,0.0287
3249.00,0.0288
3248.00,0.0288
3247.00,0.0289
3246.00,0.0290
3245.00,0.0291
3244.00,0.0292
3243.00,0.0293
3242.00,0.0294
3241.00,0.0294
3240.00,0.0295
3239.00,0.0295
3238.00,0.0295
3237.00,0.0295
3236.00,0.0294
3235.00,0.0294
3234.00,0.0293
3233.00,0.0293
3232.00,0.0293
3231.00,0.0294
3230.00,0.0294
3229.00,0.0295
3228.00,0.0294
3227.00,0.0294
3226.00,0.0294
3225.00,0.0293
3224.00,0.0293
3223.00,0.0292
3222.00,0.0291
3221.00,0.0290
3220.00,0.0290
3219.00,0.0289
3218.00,0.0288
3217.00,0.0287
3216.00,0.0286
3215.00,0.0285
3214.00,0.0284
3213.00,0.0283
3212.00,0.0281
3211.00,0.0280
3210.00,0.0279
3209.00,0.0277
3208.00,0.0275
3207.00,0.0274
3206.00,0.0272
3205.00,0.0270
3204.00,0.0269
3203.00,0.0267
3202.00,0.0265
3201.00,0.0263
3200.00,0.0261
3199.00,0.0260
3198.00,0.0258
3197.00,0.0256
3196.00,0.0254
3195.00,0.0252
3194.00,0.0251
3193.00,0.0249
3192.00,0.0247
3191.00,0.0245
3190.00,0.0243
3189.00,0.0242
3188.00,0.0240
3187.00,0.0238
3186.00,0.0236
3185.00,0.0234
3184.00,0.0232
3183.00,0.0230
3182.00,0.0228
3181.00,0.0226
3180.00,0.0225
3179.00,0.0223
3178.00,0.0221
3177.00,0.0219
3176.00,0.0217
3175.00,0.0216
3174.00,0.0214
3173.00,0.0212
3172.00,0.0210
3171.00,0.0208
3170.00,0.0206
3169.00,0.0204
3168.00,0.0202
3167.00,0.0200
3166.00,0.0198
3165.00,0.0196
3164.00,0.0194
3163.00,0.0192
3162.00,0.0190
3161.00,0.0188
3160.00,0.0186
3159.00,0.0184
3158.00,0.0182
3157.00,0.0180
3156.00,0.0178
3155.00,0.0176
3154.00,0.0174
3153.00,0.0172
3152.00,0.0170
3151.00,0.0169
3150.00,0.0168
3149.00,0.0166
3148.00,0.0165
3147.00,0.0164
3146.00,0.0162
3145.00,0.0161
3144.00,0.0159
3143.00,0.0157
3142.00,0.0155
3141.00,0.0153
3140.00,0.0152
3139.00,0.0150
3138.00,0.0149
3137.00,0.0148
3136.00,0.0147
3135.00,0.0146
3134.00,0.0145
3133.00,0.0144
3132.00,0.0142
3131.00,0.0141
3130.00,0.0140
3129.00,0.0139
3128.00,0.0138
3127.00,0.0137
3126.00,0.0136
3125.00,0.0135
3124.00,0.0134
3123.00,0.0134
3122.00,0.0133
3121.00,0.0132
3120.00,0.0131
3119.00,0.0130
3118.00,0.0130
3117.00,0.0128
3116.00,0.0127
3115.00,0.0126
3114.00,0.0125
3113.00,0.0123
3112.00,0.0122
3111.00,0.0121
3110.00,0.0120
3109.00,0.0119
3108.00,0.0118
3107.00,0.0117
3106.00,0.0116
3105.00,0.0115
3104.00,0.0114
3103.00,0.0113
3102.00,0.0112
3101.00,0.0112
3100.00,0.0111
3099.00,0.0111
3098.00,0.0110
3097.00,0.0110
3096.00,0.0110
3095.00,0.0110
3094.00,0.0110
3093.00,0.0110
3092.00,0.0110
3091.00,0.0111
3090.00,0.0111
3089.00,0.0112
3088.00,0.0112
3087.00,0.0112
3086.00,0.0112
3085.00,0.0112
3084.00,0.0112
3083.00,0.0112
3082.00,0.0111
3081.00,0.0111
3080.00,0.0111
3079.00,0.0111
3078.00,0.0110
3077.00,0.0110
3076.00,0.0110
3075.00,0.0109
3074.00,0.0109
3073.00,0.0108
3072.00,0.0108
3071.00,0.0107
3070.00,0.0107
3069.00,0.0107
3068.00,0.0107
3067.00,0.0107
3066.00,0.0106
3065.00,0.0106
3064.00,0.0107
3063.00,0.0107
3062.00,0.0107
3061.00,0.0107
3060.00,0.0108
3059.00,0.0108
3058.00,0.0108
3057.00,0.0108
3056.00,0.0109
3055.00,0.0109
3054.00,0.0109
3053.00,0.0109
3052.00,0.0109
3051.00,0.0109
3050.00,0.0109
3049.00,0.0108
3048.00,0.0108
3047.00,0.0108
3046.00,0.0107
3045.00,0.0107
3044.00,0.0107
3043.00,0.0107
3042.00,0.0107
3041.00,0.0108
3040.00,0.0110
3039.00,0.0111
3038.00,0.0112
3037.00,0.0114
3036.00,0.0115
3035.00,0.0116
3034.00,0.0116
3033.00,0.0117
3032.00,0.0117
3031.00,0.0116
3030.00,0.0116
3029.00,0.0115
3028.00,0.0114
3027.00,0.0112
3026.00,0.0111
3025.00,0.0109
3024.00,0.0108
3023.00,0.0106
3022.00,0.0105
3021.00,0.0104
3020.00,0.0103
3019.00,0.0102
3018.00,0.0102
3017.00,0.0101
3016.00,0.0101
3015.00,0.0101
3014.00,0.0101
3013.00,0.0102
3012.00,0.0102
3011.00,0.0103
3010.00,0.0104
3009.00,0.0105
3008.00,0.0107
3007.00,0.0109
3006.00,0.0111
3005.00,0.0114
3004.00,0.0117
3003.00,0.0120
3002.00,0.0124
3001.00,0.0128
3000.00,0.0133
2999.00,0.0138
2998.00,0.0143
2997.00,0.0149
2996.00,0.0155
2995.00,0.0161
2994.00,0.0167
2993.00,0.0172
2992.00,0.0176
2991.00,0.0180
2990.00,0.0183
2989.00,0.0187
2988.00,0.0191
2987.00,0.0195
2986.00,0.0201
2985.00,0.0208
2984.00,0.0216
2983.00,0.0226
2982.00,0.0237
2981.00,0.0249
2980.00,0.0259
2979.00,0.0267
2978.00,0.0272
2977.00,0.0275
2976.00,0.0278
2975.00,0.0285
2974.00,0.0295
2973.00,0.0307
2972.00,0.0322
2971.00,0.0335
2970.00,0.0346
2969.00,0.0354
2968.00,0.0359
2967.00,0.0364
2966.00,0.0370
2965.00,0.0376
2964.00,0.0384
2963.00,0.0392
2962.00,0.0399
2961.00,0.0404
2960.00,0.0406
2959.00,0.0404
2958.00,0.0398
2957.00,0.0389
2956.00,0.0377
2955.00,0.0365
2954.00,0.0352
2953.00,0.0340
2952.00,0.0330
2951.00,0.0321
2950.00,0.0315
2949.00,0.0312
2948.00,0.0311
2947.00,0.0313
2946.00,0.0317
2945.00,0.0324
2944.00,0.0332
2943.00,0.0341
2942.00,0.0352
2941.00,0.0364
2940.00,0.0378
2939.00,0.0394
2938.00,0.0413
2937.00,0.0434
2936.00,0.0458
2935.00,0.0483
2934.00,0.0511
2933.00,0.0539
2932.00,0.0567
2931.00,0.0594
2930.00,0.0618
2929.00,0.0637
2928.00,0.0650
2927.00,0.0657
2926.00,0.0657
2925.00,0.0651
2924.00,0.0640
2923.00,0.0626
2922.00,0.0609
2921.00,0.0590
2920.00,0.0570
2919.00,0.0550
2918.00,0.0529
2917.00,0.0508
2916.00,0.0488
2915.00,0.0470
2914.00,0.0452
2913.00,0.0436
2912.00,0.0421
2911.00,0.0408
2910.00,0.0395
2909.00,0.0384
2908.00,0.0373
2907.00,0.0363
2906.00,0.0353
2905.00,0.0343
2904.00,0.0335
2903.00,0.0326
2902.00,0.0318
2901.00,0.0311
2900.00,0.0304
2899.00,0.0297
2898.00,0.0291
2897.00,0.0285
2896.00,0.0279
2895.00,0.0274
2894.00,0.0270
2893.00,0.0266
2892.00,0.0261
2891.00,0.0257
2890.00,0.0254
2889.00,0.0250
2888.00,0.0247
2887.00,0.0244
2886.00,0.0241
2885.00,0.0239
2884.00,0.0238
2883.00,0.0238
2882.00,0.0239
2881.00,0.0242
2880.00,0.0246
2879.00,0.0253
2878.00,0.0260
2877.00,0.0269
2876.00,0.0279
2875.00,0.0288
2874.00,0.0296
2873.00,0.0301
2872.00,0.0304
2871.00,0.0305
2870.00,0.0303
2869.00,0.0302
2868.00,0.0300
2867.00,0.0301
2866.00,0.0305
2865.00,0.0312
2864.00,0.0323
2863.00,0.0339
2862.00,0.0358
2861.00,0.0379
2860.00,0.0401
2859.00,0.0422
2858.00,0.0439
2857.00,0.0452
2856.00,0.0459
2855.00,0.0460
2854.00,0.0458
2853.00,0.0452
2852.00,0.0442
2851.00,0.0427
2850.00,0.0407
2849.00,0.0383
2848.00,0.0358
2847.00,0.0333
2846.00,0.0309
2845.00,0.0287
2844.00,0.0267
2843.00,0.0249
2842.00,0.0234
2841.00,0.0220
2840.00,0.0208
2839.00,0.0197
2838.00,0.0189
2837.00,0.0181
2836.00,0.0175
2835.00,0.0169
2834.00,0.0164
2833.00,0.0159
2832.00,0.0155
2831.00,0.0151
2830.00,0.0147
2829.00,0.0144
2828.00,0.0140
2827.00,0.0137
2826.00,0.0134
2825.00,0.0131
2824.00,0.0129
2823.00,0.0127
2822.00,0.0125
2821.00,0.0123
2820.00,0.0121
2819.00,0.0120
2818.00,0.0118
2817.00,0.0116
2816.00,0.0115
2815.00,0.0114
2814.00,0.0112
2813.00,0.0111
2812.00,0.0110
2811.00,0.0109
2810.00,0.0108
2809.00,0.0107
2808.00,0.0107
2807.00,0.0106
2806.00,0.0106
2805.00,0.0105
2804.00,0.0104
2803.00,0.0103
2802.00,0.0102
2801.00,0.0102
2800.00,0.0101
2799.00,0.0100
2798.00,0.0099
2797.00,0.0098
2796.00,0.0098
2795.00,0.0097
2794.00,0.0096
2793.00,0.0095
2792.00,0.0094
2791.00,0.0094
2790.00,0.0093
2789.00,0.0092
2788.00,0.0092
2787.00,0.0091
2786.00,0.0091
2785.00,0.0090
2784.00,0.0090
2783.00,0.0089
2782.00,0.0088
2781.00,0.0088
2780.00,0.0088
2779.00,0.0087
2778.00,0.0087
2777.00,0.0086
2776.00,0.0085
2775.00,0.0085
2774.00,0.0085
2773.00,0.0085
2772.00,0.0085
2771.00,0.0085
2770.00,0.0085
2769.00,0.0085
2768.00,0.0084
2767.00,0.0084
2766.00,0.0084
2765.00,0.0084
2764.00,0.0084
2763.00,0.0084
2762.00,0.0084
2761.00,0.0084
2760.00,0.0084
2759.00,0.0084
2758.00,0.0084
2757.00,0.0084
2756.00,0.0084
2755.00,0.0084
2754.00,0.0084
2753.00,0.0084
2752.00,0.0084
2751.00,0.0084
2750.00,0.0084
2749.00,0.0084
2748.00,0.0084
2747.00,0.0085
2746.00,0.0085
2745.00,0.0085
2744.00,0.0086
2743.00,0.0086
2742.00,0.0086
2741.00,0.0087
2740.00,0.0087
2739.00,0.0088
2738.00,0.0089
2737.00,0.0089
2736.00,0.0090
2735.00,0.0091
2734.00,0.0092
2733.00,0.0093
2732.00,0.0094
2731.00,0.0094
2730.00,0.0094
2729.00,0.0094
2728.00,0.0093
2727.00,0.0093
2726.00,0.0092
2725.00,0.0091
2724.00,0.0091
2723.00,0.0090
2722.00,0.0090
2721.00,0.0090
2720.00,0.0089
2719.00,0.0089
2718.00,0.0089
2717.00,0.0088
2716.00,0.0088
2715.00,0.0087
2714.00,0.0087
2713.00,0.0087
2712.00,0.0087
2711.00,0.0086
2710.00,0.0086
2709.00,0.0086
2708.00,0.0086
2707.00,0.0086
2706.00,0.0086
2705.00,0.0086
2704.00,0.0086
2703.00,0.0086
2702.00,0.0086
2701.00,0.0085
2700.00,0.0085
2699.00,0.0084
2698.00,0.0084
2697.00,0.0083
2696.00,0.0083
2695.00,0.0083
2694.00,0.0083
2693.00,0.0082
2692.00,0.0082
2691.00,0.0082
2690.00,0.0082
2689.00,0.0082
2688.00,0.0081
2687.00,0.0081
2686.00,0.0080
2685.00,0.0080
2684.00,0.0080
2683.00,0.0080
2682.00,0.0080
2681.00,0.0079
2680.00,0.0079
2679.00,0.0079
2678.00,0.0079
2677.00,0.0079
2676.00,0.0079
2675.00,0.0079
2674.00,0.0080
2673.00,0.0080
2672.00,0.0080
2671.00,0.0081
2670.00,0.0081
2669.00,0.0081
2668.00,0.0082
2667.00,0.0082
2666.00,0.0082
2665.00,0.0083
2664.00,0.0084
2663.00,0.0084
2662.00,0.0085
2661.00,0.0085
2660.00,0.0085
2659.00,0.0086
2658.00,0.0086
2657.00,0.0086
2656.00,0.0086
2655.00,0.0086
2654.00,0.0086
2653.00,0.0087
2652.00,0.0087
2651.00,0.0087
2650.00,0.0087
2649.00,0.0087
2648.00,0.0087
2647.00,0.0087
2646.00,0.0086
2645.00,0.0086
2644.00,0.0086
2643.00,0.0086
2642.00,0.0086
2641.00,0.0086
2640.00,0.0086
2639.00,0.0085
2638.00,0.0085
2637.00,0.0084
2636.00,0.0083
2635.00,0.0083
2634.00,0.0082
2633.00,0.0082
2632.00,0.0082
2631.00,0.0082
2630.00,0.0081
2629.00,0.0081
2628.00,0.0080
2627.00,0.0080
2626.00,0.0079
2625.00,0.0079
2624.00,0.0078
2623.00,0.0078
2622.00,0.0078
2621.00,0.0078
2620.00,0.0078
2619.00,0.0077
2618.00,0.0077
2617.00,0.0077
2616.00,0.0077
2615.00,0.0077
2614.00,0.0077
2613.00,0.0077
2612.00,0.0077
2611.00,0.0077
2610.00,0.0077
2609.00,0.0078
2608.00,0.0078
2607.00,0.0078
2606.00,0.0077
2605.00,0.0077
2604.00,0.0078
2603.00,0.0078
2602.00,0.0078
2601.00,0.0078
2600.00,0.0079
2599.00,0.0079
2598.00,0.0079
2597.00,0.0079
2596.00,0.0079
2595.00,0.0079
2594.00,0.0079
2593.00,0.0079
2592.00,0.0079
2591.00,0.0079
2590.00,0.0080
2589.00,0.0080
2588.00,0.0080
2587.00,0.0080
2586.00,0.0080
2585.00,0.0080
2584.00,0.0080
2583.00,0.0080
2582.00,0.0079
2581.00,0.0079
2580.00,0.0079
2579.00,0.0078
2578.00,0.0078
2577.00,0.0078
2576.00,0.0077
2575.00,0.0077
2574.00,0.0077
2573.00,0.0077
2572.00,0.0077
2571.00,0.0077
2570.00,0.0077
2569.00,0.0077
2568.00,0.0077
2567.00,0.0077
2566.00,0.0077
2565.00,0.0077
2564.00,0.0077
2563.00,0.0076
2562.00,0.0076
2561.00,0.0076
2560.00,0.0075
2559.00,0.0074
2558.00,0.0074
2557.00,0.0073
2556.00,0.0073
2555.00,0.0073
2554.00,0.0072
2553.00,0.0072
2552.00,0.0072
2551.00,0.0072
2550.00,0.0071
2549.00,0.0071
2548.00,0.0071
2547.00,0.0071
2546.00,0.0071
2545.00,0.0071
2544.00,0.0071
2543.00,0.0072
2542.00,0.0072
2541.00,0.0072
2540.00,0.0072
2539.00,0.0073
2538.00,0.0073
2537.00,0.0073
2536.00,0.0073
2535.00,0.0073
2534.00,0.0073
2533.00,0.0073
2532.00,0.0072
2531.00,0.0072
2530.00,0.0072
2529.00,0.0071
2528.00,0.0071
2527.00,0.0071
2526.00,0.0070
2525.00,0.0070
2524.00,0.0070
2523.00,0.0070
2522.00,0.0070
2521.00,0.0070
2520.00,0.0069
2519.00,0.0069
2518.00,0.0068
2517.00,0.0068
2516.00,0.0068
2515.00,0.0068
2514.00,0.0068
2513.00,0.0068
2512.00,0.0068
2511.00,0.0067
2510.00,0.0067
2509.00,0.0066
2508.00,0.0066
2507.00,0.0066
2506.00,0.0066
2505.00,0.0066
2504.00,0.0066
2503.00,0.0066
2502.00,0.0065
2501.00,0.0065
2500.00,0.0065
2499.00,0.0064
2498.00,0.0064
2497.00,0.0064
2496.00,0.0064
2495.00,0.0064
2494.00,0.0064
2493.00,0.0064
2492.00,0.0063
2491.00,0.0063
2490.00,0.0063
2489.00,0.0063
2488.00,0.0063
2487.00,0.0063
2486.00,0.0063
2485.00,0.0063
2484.00,0.0063
2483.00,0.0063
2482.00,0.0063
2481.00,0.0063
2480.00,0.0063
2479.00,0.0062
2478.00,0.0062
2477.00,0.0062
2476.00,0.0062
2475.00,0.0062
2474.00,0.0062
2473.00,0.0062
2472.00,0.0062
2471.00,0.0062
2470.00,0.0062
2469.00,0.0062
2468.00,0.0062
2467.00,0.0062
2466.00,0.0061
2465.00,0.0061
2464.00,0.0061
2463.00,0.0061
2462.00,0.0062
2461.00,0.0062
2460.00,0.0062
2459.00,0.0062
2458.00,0.0062
2457.00,0.0063
2456.00,0.0063
2455.00,0.0063
2454.00,0.0063
2453.00,0.0063
2452.00,0.0062
2451.00,0.0062
2450.00,0.0062
2449.00,0.0062
2448.00,0.0062
2447.00,0.0061
2446.00,0.0061
2445.00,0.0060
2444.00,0.0061
2443.00,0.0061
2442.00,0.0061
2441.00,0.0061
2440.00,0.0061
2439.00,0.0060
2438.00,0.0060
2437.00,0.0059
2436.00,0.0059
2435.00,0.0059
2434.00,0.0059
2433.00,0.0059
2432.00,0.0059
2431.00,0.0059
2430.00,0.0059
2429.00,0.0059
2428.00,0.0059
2427.00,0.0059
2426.00,0.0059
2425.00,0.0059
2424.00,0.0059
2423.00,0.0059
2422.00,0.0059
2421.00,0.0058
2420.00,0.0058
2419.00,0.0058
2418.00,0.0058
2417.00,0.0058
2416.00,0.0058
2415.00,0.0058
2414.00,0.0058
2413.00,0.0058
2412.00,0.0058
2411.00,0.0059
2410.00,0.0059
2409.00,0.0059
2408.00,0.0058
2407.00,0.0058
2406.00,0.0058
2405.00,0.0058
2404.00,0.0058
2403.00,0.0058
2402.00,0.0058
2401.00,0.0058
2400.00,0.0058
2399.00,0.0057
2398.00,0.0057
2397.00,0.0057
2396.00,0.0057
2395.00,0.0057
2394.00,0.0057
2393.00,0.0057
2392.00,0.0057
2391.00,0.0056
2390.00,0.0056
2389.00,0.0056
2388.00,0.0056
2387.00,0.0056
2386.00,0.0056
2385.00,0.0056
2384.00,0.0056
2383.00,0.0055
2382.00,0.0055
2381.00,0.0055
2380.00,0.0054
2379.00,0.0054
2378.00,0.0054
2377.00,0.0054
2376.00,0.0054
2375.00,0.0054
2374.00,0.0054
2373.00,0.0055
2372.00,0.0055
2371.00,0.0054
2370.00,0.0053
2369.00,0.0053
2368.00,0.0053
2367.00,0.0053
2366.00,0.0053
2365.00,0.0053
2364.00,0.0054
2363.00,0.0054
2362.00,0.0054
2361.00,0.0054
2360.00,0.0054
2359.00,0.0054
2358.00,0.0054
2357.00,0.0054
2356.00,0.0054
2355.00,0.0054
2354.00,0.0054
2353.00,0.0054
2352.00,0.0054
2351.00,0.0055
2350.00,0.0055
2349.00,0.0055
2348.00,0.0055
2347.00,0.0054
2346.00,0.0054
2345.00,0.0054
2344.00,0.0055
2343.00,0.0056
2342.00,0.0057
2341.00,0.0057
2340.00,0.0057
2339.00,0.0057
2338.00,0.0057
2337.00,0.0057
2336.00,0.0058
2335.00,0.0057
2334.00,0.0057
2333.00,0.0056
2332.00,0.0056
2331.00,0.0056
2330.00,0.0057
2329.00,0.0059
2328.00,0.0063
2327.00,0.0067
2326.00,0.0070
2325.00,0.0071
2324.00,0.0070
2323.00,0.0067
2322.00,0.0065
2321.00,0.0064
2320.00,0.0063
2319.00,0.0063
2318.00,0.0062
2317.00,0.0062
2316.00,0.0062
2315.00,0.0061
2314.00,0.0061
2313.00,0.0060
2312.00,0.0060
2311.00,0.0060
2310.00,0.0059
2309.00,0.0060
2308.00,0.0060
2307.00,0.0060
2306.00,0.0060
2305.00,0.0060
2304.00,0.0060
2303.00,0.0060
2302.00,0.0060
2301.00,0.0061
2300.00,0.0061
2299.00,0.0061
2298.00,0.0062
2297.00,0.0062
2296.00,0.0063
2295.00,0.0064
2294.00,0.0064
2293.00,0.0065
2292.00,0.0066
2291.00,0.0067
2290.00,0.0067
2289.00,0.0068
2288.00,0.0068
2287.00,0.0068
2286.00,0.0068
2285.00,0.0068
2284.00,0.0067
2283.00,0.0066
2282.00,0.0065
2281.00,0.0064
2280.00,0.0063
2279.00,0.0063
2278.00,0.0062
2277.00,0.0062
2276.00,0.0061
2275.00,0.0061
2274.00,0.0060
2273.00,0.0060
2272.00,0.0059
2271.00,0.0058
2270.00,0.0058
2269.00,0.0057
2268.00,0.0057
2267.00,0.0056
2266.00,0.0055
2265.00,0.0054
2264.00,0.0054
2263.00,0.0053
2262.00,0.0053
2261.00,0.0054
2260.00,0.0054
2259.00,0.0055
2258.00,0.0054
2257.00,0.0053
2256.00,0.0053
2255.00,0.0052
2254.00,0.0053
2253.00,0.0053
2252.00,0.0054
2251.00,0.0054
2250.00,0.0053
2249.00,0.0053
2248.00,0.0053
2247.00,0.0054
2246.00,0.0055
2245.00,0.0056
2244.00,0.0056
2243.00,0.0057
2242.00,0.0057
2241.00,0.0057
2240.00,0.0056
2239.00,0.0055
2238.00,0.0054
2237.00,0.0054
2236.00,0.0054
2235.00,0.0054
2234.00,0.0055
2233.00,0.0056
2232.00,0.0057
2231.00,0.0057
2230.00,0.0056
2229.00,0.0056
2228.00,0.0055
2227.00,0.0055
2226.00,0.0054
2225.00,0.0054
2224.00,0.0054
2223.00,0.0055
2222.00,0.0055
2221.00,0.0055
2220.00,0.0054
2219.00,0.0054
2218.00,0.0054
2217.00,0.0054
2216.00,0.0054
2215.00,0.0054
2214.00,0.0055
2213.00,0.0055
2212.00,0.0056
2211.00,0.0056
2210.00,0.0055
2209.00,0.0055
2208.00,0.0054
2207.00,0.0053
2206.00,0.0053
2205.00,0.0053
2204.00,0.0052
2203.00,0.0052
2202.00,0.0051
2201.00,0.0051
2200.00,0.0051
2199.00,0.0051
2198.00,0.0051
2197.00,0.0052
2196.00,0.0053
2195.00,0.0054
2194.00,0.0054
2193.00,0.0054
2192.00,0.0054
2191.00,0.0054
2190.00,0.0054
2189.00,0.0055
2188.00,0.0056
2187.00,0.0056
2186.00,0.0056
2185.00,0.0055
2184.00,0.0054
2183.00,0.0052
2182.00,0.0051
2181.00,0.0050
2180.00,0.0051
2179.00,0.0050
2178.00,0.0049
2177.00,0.0048
2176.00,0.0047
2175.00,0.0048
2174.00,0.0049
2173.00,0.0051
2172.00,0.0054
2171.00,0.0058
2170.00,0.0061
2169.00,0.0063
2168.00,0.0064
2167.00,0.0065
2166.00,0.0064
2165.00,0.0064
2164.00,0.0063
2163.00,0.0061
2162.00,0.0056
2161.00,0.0046
2160.00,0.0035
2159.00,0.0026
2158.00,0.0023
2157.00,0.0023
2156.00,0.0026
2155.00,0.0028
2154.00,0.0029
2153.00,0.0031
2152.00,0.0032
2151.00,0.0033
2150.00,0.0034
2149.00,0.0035
2148.00,0.0036
2147.00,0.0036
2146.00,0.0036
2145.00,0.0036
2144.00,0.0037
2143.00,0.0037
2142.00,0.0038
2141.00,0.0038
2140.00,0.0039
2139.00,0.0039
2138.00,0.0037
2137.00,0.0034
2136.00,0.0031
2135.00,0.0029
2134.00,0.0028
2133.00,0.0030
2132.00,0.0032
2131.00,0.0035
2130.00,0.0036
2129.00,0.0038
2128.00,0.0039
2127.00,0.0040
2126.00,0.0041
2125.00,0.0042
2124.00,0.0043
2123.00,0.0044
2122.00,0.0044
2121.00,0.0045
2120.00,0.0045
2119.00,0.0046
2118.00,0.0047
2117.00,0.0048
2116.00,0.0049
2115.00,0.0050
2114.00,0.0049
2113.00,0.0048
2112.00,0.0047
2111.00,0.0047
2110.00,0.0046
2109.00,0.0047
2108.00,0.0047
2107.00,0.0047
2106.00,0.0047
2105.00,0.0046
2104.00,0.0045
2103.00,0.0045
2102.00,0.0045
2101.00,0.0045
2100.00,0.0045
2099.00,0.0044
2098.00,0.0042
2097.00,0.0040
2096.00,0.0039
2095.00,0.0039
2094.00,0.0039
2093.00,0.0041
2092.00,0.0042
2091.00,0.0043
2090.00,0.0044
2089.00,0.0044
2088.00,0.0045
2087.00,0.0045
2086.00,0.0046
2085.00,0.0047
2084.00,0.0048
2083.00,0.0049
2082.00,0.0049
2081.00,0.0049
2080.00,0.0050
2079.00,0.0050
2078.00,0.0050
2077.00,0.0051
2076.00,0.0051
2075.00,0.0051
2074.00,0.0050
2073.00,0.0050
2072.00,0.0049
2071.00,0.0048
2070.00,0.0047
2069.00,0.0045
2068.00,0.0045
2067.00,0.0045
2066.00,0.0044
2065.00,0.0043
2064.00,0.0043
2063.00,0.0042
2062.00,0.0042
2061.00,0.0042
2060.00,0.0042
2059.00,0.0042
2058.00,0.0042
2057.00,0.0041
2056.00,0.0041
2055.00,0.0041
2054.00,0.0042
2053.00,0.0046
2052.00,0.0049
2051.00,0.0050
2050.00,0.0048
2049.00,0.0045
2048.00,0.0043
2047.00,0.0042
2046.00,0.0042
2045.00,0.0043
2044.00,0.0044
2043.00,0.0045
2042.00,0.0045
2041.00,0.0046
2040.00,0.0047
2039.00,0.0048
2038.00,0.0048
2037.00,0.0048
2036.00,0.0047
2035.00,0.0045
2034.00,0.0041
2033.00,0.0039
2032.00,0.0039
2031.00,0.0039
2030.00,0.0040
2029.00,0.0041
2028.00,0.0042
2027.00,0.0042
2026.00,0.0042
2025.00,0.0042
2024.00,0.0042
2023.00,0.0042
2022.00,0.0041
2021.00,0.0040
2020.00,0.0039
2019.00,0.0038
2018.00,0.0036
2017.00,0.0035
2016.00,0.0035
2015.00,0.0035
2014.00,0.0035
2013.00,0.0036
2012.00,0.0037
2011.00,0.0037
2010.00,0.0037
2009.00,0.0035
2008.00,0.0032
2007.00,0.0029
2006.00,0.0027
2005.00,0.0028
2004.00,0.0030
2003.00,0.0032
2002.00,0.0033
2001.00,0.0035
2000.00,0.0036
1999.00,0.0038
1998.00,0.0039
1997.00,0.0040
1996.00,0.0042
1995.00,0.0043
1994.00,0.0044
1993.00,0.0045
1992.00,0.0046
1991.00,0.0046
1990.00,0.0046
1989.00,0.0045
1988.00,0.0046
1987.00,0.0046
1986.00,0.0046
1985.00,0.0047
1984.00,0.0050
1983.00,0.0052
1982.00,0.0055
1981.00,0.0056
1980.00,0.0054
1979.00,0.0049
1978.00,0.0042
1977.00,0.0038
1976.00,0.0038
1975.00,0.0038
1974.00,0.0038
1973.00,0.0037
1972.00,0.0037
1971.00,0.0037
1970.00,0.0038
1969.00,0.0039
1968.00,0.0040
1967.00,0.0039
1966.00,0.0036
1965.00,0.0035
1964.00,0.0036
1963.00,0.0036
1962.00,0.0036
1961.00,0.0034
1960.00,0.0033
1959.00,0.0032
1958.00,0.0033
1957.00,0.0034
1956.00,0.0035
1955.00,0.0036
1954.00,0.0037
1953.00,0.0039
1952.00,0.0040
1951.00,0.0039
1950.00,0.0039
1949.00,0.0038
1948.00,0.0039
1947.00,0.0039
1946.00,0.0040
1945.00,0.0040
1944.00,0.0040
1943.00,0.0039
1942.00,0.0038
1941.00,0.0038
1940.00,0.0038
1939.00,0.0039
1938.00,0.0039
1937.00,0.0040
1936.00,0.0040
1935.00,0.0040
1934.00,0.0041
1933.00,0.0042
1932.00,0.0043
1931.00,0.0043
1930.00,0.0042
1929.00,0.0042
1928.00,0.0042
1927.00,0.0043
1926.00,0.0043
1925.00,0.0044
1924.00,0.0045
1923.00,0.0046
1922.00,0.0046
1921.00,0.0045
1920.00,0.0045
1919.00,0.0045
1918.00,0.0045
1917.00,0.0044
1916.00,0.0045
1915.00,0.0046
1914.00,0.0048
1913.00,0.0051
1912.00,0.0054
1911.00,0.0057
1910.00,0.0061
1909.00,0.0063
1908.00,0.0064
1907.00,0.0062
1906.00,0.0060
1905.00,0.0057
1904.00,0.0055
1903.00,0.0053
1902.00,0.0051
1901.00,0.0050
1900.00,0.0050
1899.00,0.0050
1898.00,0.0051
1897.00,0.0052
1896.00,0.0054
1895.00,0.0056
1894.00,0.0056
1893.00,0.0056
1892.00,0.0055
1891.00,0.0053
1890.00,0.0051
1889.00,0.0050
1888.00,0.0049
1887.00,0.0049
1886.00,0.0049
1885.00,0.0048
1884.00,0.0048
1883.00,0.0048
1882.00,0.0047
1881.00,0.0047
1880.00,0.0048
1879.00,0.0048
1878.00,0.0048
1877.00,0.0047
1876.00,0.0047
1875.00,0.0047
1874.00,0.0047
1873.00,0.0047
1872.00,0.0048
1871.00,0.0049
1870.00,0.0049
1869.00,0.0049
1868.00,0.0049
1867.00,0.0048
1866.00,0.0048
1865.00,0.0048
1864.00,0.0048
1863.00,0.0049
1862.00,0.0050
1861.00,0.0050
1860.00,0.0050
1859.00,0.0050
1858.00,0.0050
1857.00,0.0050
1856.00,0.0050
1855.00,0.0050
1854.00,0.0050
1853.00,0.0050
1852.00,0.0051
1851.00,0.0052
1850.00,0.0053
1849.00,0.0055
1848.00,0.0055
1847.00,0.0056
1846.00,0.0056
1845.00,0.0055
1844.00,0.0053
1843.00,0.0052
1842.00,0.0051
1841.00,0.0051
1840.00,0.0051
1839.00,0.0051
1838.00,0.0051
1837.00,0.0051
1836.00,0.0050
1835.00,0.0049
1834.00,0.0048
1833.00,0.0048
1832.00,0.0049
1831.00,0.0049
1830.00,0.0049
1829.00,0.0048
1828.00,0.0048
1827.00,0.0049
1826.00,0.0050
1825.00,0.0050
1824.00,0.0050
1823.00,0.0050
1822.00,0.0050
1821.00,0.0050
1820.00,0.0049
1819.00,0.0049
1818.00,0.0048
1817.00,0.0048
1816.00,0.0048
1815.00,0.0048
1814.00,0.0048
1813.00,0.0049
1812.00,0.0050
1811.00,0.0051
1810.00,0.0051
1809.00,0.0050
1808.00,0.0050
1807.00,0.0050
1806.00,0.0050
1805.00,0.0051
1804.00,0.0051
1803.00,0.0052
1802.00,0.0052
1801.00,0.0052
1800.00,0.0053
1799.00,0.0053
1798.00,0.0054
1797.00,0.0055
1796.00,0.0056
1795.00,0.0056
1794.00,0.0056
1793.00,0.0055
1792.00,0.0055
1791.00,0.0054
1790.00,0.0053
1789.00,0.0053
1788.00,0.0054
1787.00,0.0054
1786.00,0.0054
1785.00,0.0054
1784.00,0.0054
1783.00,0.0054
1782.00,0.0055
1781.00,0.0056
1780.00,0.0056
1779.00,0.0057
1778.00,0.0057
1777.00,0.0059
1776.00,0.0060
1775.00,0.0061
1774.00,0.0062
1773.00,0.0062
1772.00,0.0061
1771.00,0.0059
1770.00,0.0059
1769.00,0.0059
1768.00,0.0059
1767.00,0.0058
1766.00,0.0058
1765.00,0.0058
1764.00,0.0059
1763.00,0.0060
1762.00,0.0061
1761.00,0.0061
1760.00,0.0062
1759.00,0.0063
1758.00,0.0063
1757.00,0.0062
1756.00,0.0060
1755.00,0.0059
1754.00,0.0059
1753.00,0.0060
1752.00,0.0060
1751.00,0.0061
1750.00,0.0061
1749.00,0.0062
1748.00,0.0062
1747.00,0.0063
1746.00,0.0064
1745.00,0.0064
1744.00,0.0065
1743.00,0.0064
1742.00,0.0063
1741.00,0.0062
1740.00,0.0062
1739.00,0.0061
1738.00,0.0061
1737.00,0.0062
1736.00,0.0062
1735.00,0.0063
1734.00,0.0063
1733.00,0.0064
1732.00,0.0066
1731.00,0.0069
1730.00,0.0071
1729.00,0.0072
1728.00,0.0073
1727.00,0.0074
1726.00,0.0075
1725.00,0.0076
1724.00,0.0078
1723.00,0.0079
1722.00,0.0079
1721.00,0.0079
1720.00,0.0080
1719.00,0.0081
1718.00,0.0083
1717.00,0.0083
1716.00,0.0085
1715.00,0.0086
1714.00,0.0088
1713.00,0.0091
1712.00,0.0093
1711.00,0.0096
1710.00,0.0098
1709.00,0.0099
1708.00,0.0101
1707.00,0.0104
1706.00,0.0107
1705.00,0.0110
1704.00,0.0112
1703.00,0.0113
1702.00,0.0114
1701.00,0.0118
1700.00,0.0125
1699.00,0.0134
1698.00,0.0143
1697.00,0.0152
1696.00,0.0163
1695.00,0.0173
1694.00,0.0182
1693.00,0.0192
1692.00,0.0202
1691.00,0.0212
1690.00,0.0223
1689.00,0.0232
1688.00,0.0240
1687.00,0.0246
1686.00,0.0252
1685.00,0.0263
1684.00,0.0277
1683.00,0.0288
1682.00,0.0297
1681.00,0.0306
1680.00,0.0313
1679.00,0.0319
1678.00,0.0323
1677.00,0.0328
1676.00,0.0335
1675.00,0.0344
1674.00,0.0352
1673.00,0.0359
1672.00,0.0365
1671.00,0.0371
1670.00,0.0379
1669.00,0.0387
1668.00,0.0395
1667.00,0.0400
1666.00,0.0404
1665.00,0.0407
1664.00,0.0413
1663.00,0.0420
1662.00,0.0427
1661.00,0.0433
1660.00,0.0437
1659.00,0.0441
1658.00,0.0442
1657.00,0.0441
1656.00,0.0439
1655.00,0.0436
1654.00,0.0439
1653.00,0.0447
1652.00,0.0456
1651.00,0.0459
1650.00,0.0459
1649.00,0.0457
1648.00,0.0457
1647.00,0.0457
1646.00,0.0457
1645.00,0.0456
1644.00,0.0454
1643.00,0.0452
1642.00,0.0449
1641.00,0.0446
1640.00,0.0441
1639.00,0.0435
1638.00,0.0429
1637.00,0.0423
1636.00,0.0423
1635.00,0.0426
1634.00,0.0433
1633.00,0.0444
1632.00,0.0460
1631.00,0.0482
1630.00,0.0514
1629.00,0.0560
1628.00,0.0616
1627.00,0.0674
1626.00,0.0725
1625.00,0.0770
1624.00,0.0813
1623.00,0.0850
1622.00,0.0872
1621.00,0.0875
1620.00,0.0862
1619.00,0.0837
1618.00,0.0799
1617.00,0.0752
1616.00,0.0711
1615.00,0.0684
1614.00,0.0673
1613.00,0.0671
1612.00,0.0674
1611.00,0.0677
1610.00,0.0671
1609.00,0.0654
1608.00,0.0626
1607.00,0.0590
1606.00,0.0551
1605.00,0.0511
1604.00,0.0474
1603.00,0.0439
1602.00,0.0408
1601.00,0.0380
1600.00,0.0358
1599.00,0.0340
1598.00,0.0328
1597.00,0.0320
1596.00,0.0317
1595.00,0.0320
1594.00,0.0330
1593.00,0.0346
1592.00,0.0370
1591.00,0.0403
1590.00,0.0441
1589.00,0.0483
1588.00,0.0526
1587.00,0.0565
1586.00,0.0597
1585.00,0.0620
1584.00,0.0633
1583.00,0.0636
1582.00,0.0630
1581.00,0.0616
1580.00,0.0598
1579.00,0.0576
1578.00,0.0551
1577.00,0.0522
1576.00,0.0489
1575.00,0.0460
1574.00,0.0438
1573.00,0.0420
1572.00,0.0405
1571.00,0.0393
1570.00,0.0382
1569.00,0.0371
1568.00,0.0360
1567.00,0.0347
1566.00,0.0330
1565.00,0.0310
1564.00,0.0288
1563.00,0.0268
1562.00,0.0249
1561.00,0.0231
1560.00,0.0214
1559.00,0.0197
1558.00,0.0182
1557.00,0.0175
1556.00,0.0173
1555.00,0.0171
1554.00,0.0168
1553.00,0.0165
1552.00,0.0163
1551.00,0.0161
1550.00,0.0159
1549.00,0.0156
1548.00,0.0153
1547.00,0.0151
1546.00,0.0149
1545.00,0.0148
1544.00,0.0145
1543.00,0.0142
1542.00,0.0139
1541.00,0.0136
1540.00,0.0133
1539.00,0.0130
1538.00,0.0129
1537.00,0.0130
1536.00,0.0131
1535.00,0.0131
1534.00,0.0130
1533.00,0.0128
1532.00,0.0127
1531.00,0.0127
1530.00,0.0128
1529.00,0.0129
1528.00,0.0130
1527.00,0.0131
1526.00,0.0132
1525.00,0.0132
1524.00,0.0134
1523.00,0.0136
1522.00,0.0140
1521.00,0.0143
1520.00,0.0147
1519.00,0.0153
1518.00,0.0160
1517.00,0.0168
1516.00,0.0175
1515.00,0.0182
1514.00,0.0188
1513.00,0.0194
1512.00,0.0200
1511.00,0.0206
1510.00,0.0210
1509.00,0.0213
1508.00,0.0216
1507.00,0.0217
1506.00,0.0218
1505.00,0.0223
1504.00,0.0231
1503.00,0.0242
1502.00,0.0255
1501.00,0.0275
1500.00,0.0303
1499.00,0.0341
1498.00,0.0385
1497.00,0.0426
1496.00,0.0449
1495.00,0.0450
1494.00,0.0434
1493.00,0.0409
1492.00,0.0378
1491.00,0.0346
1490.00,0.0315
1489.00,0.0288
1488.00,0.0265
1487.00,0.0246
1486.00,0.0230
1485.00,0.0217
1484.00,0.0207
1483.00,0.0200
1482.00,0.0194
1481.00,0.0190
1480.00,0.0187
1479.00,0.0186
1478.00,0.0187
1477.00,0.0190
1476.00,0.0195
1475.00,0.0201
1474.00,0.0212
1473.00,0.0231
1472.00,0.0258
1471.00,0.0292
1470.00,0.0330
1469.00,0.0371
1468.00,0.0412
1467.00,0.0447
1466.00,0.0475
1465.00,0.0491
1464.00,0.0497
1463.00,0.0497
1462.00,0.0496
1461.00,0.0495
1460.00,0.0495
1459.00,0.0493
1458.00,0.0489
1457.00,0.0478
1456.00,0.0464
1455.00,0.0451
1454.00,0.0440
1453.00,0.0433
1452.00,0.0429
1451.00,0.0430
1450.00,0.0434
1449.00,0.0442
1448.00,0.0453
1447.00,0.0467
1446.00,0.0484
1445.00,0.0503
1444.00,0.0524
1443.00,0.0547
1442.00,0.0568
1441.00,0.0587
1440.00,0.0601
1439.00,0.0613
1438.00,0.0625
1437.00,0.0642
1436.00,0.0663
1435.00,0.0682
1434.00,0.0699
1433.00,0.0714
1432.00,0.0729
1431.00,0.0743
1430.00,0.0754
1429.00,0.0760
1428.00,0.0762
1427.00,0.0759
1426.00,0.0753
1425.00,0.0748
1424.00,0.0741
1423.00,0.0732
1422.00,0.0719
1421.00,0.0705
1420.00,0.0688
1419.00,0.0668
1418.00,0.0645
1417.00,0.0622
1416.00,0.0599
1415.00,0.0576
1414.00,0.0558
1413.00,0.0544
1412.00,0.0535
1411.00,0.0533
1410.00,0.0538
1409.00,0.0549
1408.00,0.0567
1407.00,0.0591
1406.00,0.0623
1405.00,0.0660
1404.00,0.0697
1403.00,0.0727
1402.00,0.0749
1401.00,0.0763
1400.00,0.0767
1399.00,0.0760
1398.00,0.0740
1397.00,0.0711
1396.00,0.0673
1395.00,0.0630
1394.00,0.0586
1393.00,0.0548
1392.00,0.0517
1391.00,0.0495
1390.00,0.0485
1389.00,0.0488
1388.00,0.0503
1387.00,0.0519
1386.00,0.0523
1385.00,0.0512
1384.00,0.0495
1383.00,0.0481
1382.00,0.0476
1381.00,0.0479
1380.00,0.0483
1379.00,0.0486
1378.00,0.0485
1377.00,0.0478
1376.00,0.0463
1375.00,0.0442
1374.00,0.0417
1373.00,0.0396
1372.00,0.0384
1371.00,0.0381
1370.00,0.0391
1369.00,0.0413
1368.00,0.0443
1367.00,0.0477
1366.00,0.0505
1365.00,0.0524
1364.00,0.0537
1363.00,0.0554
1362.00,0.0581
1361.00,0.0611
1360.00,0.0629
1359.00,0.0623
1358.00,0.0595
1357.00,0.0557
1356.00,0.0520
1355.00,0.0493
1354.00,0.0474
1353.00,0.0462
1352.00,0.0454
1351.00,0.0452
1350.00,0.0452
1349.00,0.0455
1348.00,0.0457
1347.00,0.0456
1346.00,0.0452
1345.00,0.0444
1344.00,0.0432
1343.00,0.0417
1342.00,0.0402
1341.00,0.0386
1340.00,0.0370
1339.00,0.0354
1338.00,0.0342
1337.00,0.0335
1336.00,0.0333
1335.00,0.0336
1334.00,0.0343
1333.00,0.0352
1332.00,0.0362
1331.00,0.0370
1330.00,0.0376
1329.00,0.0379
1328.00,0.0379
1327.00,0.0377
1326.00,0.0373
1325.00,0.0370
1324.00,0.0367
1323.00,0.0365
1322.00,0.0364
1321.00,0.0365
1320.00,0.0364
1319.00,0.0362
1318.00,0.0358
1317.00,0.0352
1316.00,0.0344
1315.00,0.0337
1314.00,0.0331
1313.00,0.0328
1312.00,0.0327
1311.00,0.0330
1310.00,0.0338
1309.00,0.0350
1308.00,0.0367
1307.00,0.0389
1306.00,0.0418
1305.00,0.0452
1304.00,0.0492
1303.00,0.0533
1302.00,0.0568
1301.00,0.0592
1300.00,0.0601
1299.00,0.0600
1298.00,0.0594
1297.00,0.0592
1296.00,0.0594
1295.00,0.0602
1294.00,0.0611
1293.00,0.0619
1292.00,0.0624
1291.00,0.0629
1290.00,0.0637
1289.00,0.0649
1288.00,0.0666
1287.00,0.0688
1286.00,0.0712
1285.00,0.0732
1284.00,0.0746
1283.00,0.0750
1282.00,0.0741
1281.00,0.0720
1280.00,0.0691
1279.00,0.0658
1278.00,0.0626
1277.00,0.0598
1276.00,0.0576
1275.00,0.0558
1274.00,0.0545
1273.00,0.0534
1272.00,0.0524
1271.00,0.0514
1270.00,0.0503
1269.00,0.0492
1268.00,0.0481
1267.00,0.0470
1266.00,0.0459
1265.00,0.0446
1264.00,0.0433
1263.00,0.0419
1262.00,0.0405
1261.00,0.0391
1260.00,0.0377
1259.00,0.0365
1258.00,0.0355
1257.00,0.0346
1256.00,0.0339
1255.00,0.0334
1254.00,0.0330
1253.00,0.0329
1252.00,0.0331
1251.00,0.0337
1250.00,0.0347
1249.00,0.0361
1248.00,0.0379
1247.00,0.0401
1246.00,0.0424
1245.00,0.0446
1244.00,0.0465
1243.00,0.0480
1242.00,0.0492
1241.00,0.0503
1240.00,0.0517
1239.00,0.0535
1238.00,0.0559
1237.00,0.0587
1236.00,0.0616
1235.00,0.0640
1234.00,0.0656
1233.00,0.0659
1232.00,0.0650
1231.00,0.0630
1230.00,0.0604
1229.00,0.0576
1228.00,0.0548
1227.00,0.0523
1226.00,0.0501
1225.00,0.0483
1224.00,0.0469
1223.00,0.0458
1222.00,0.0452
1221.00,0.0451
1220.00,0.0454
1219.00,0.0461
1218.00,0.0473
1217.00,0.0486
1216.00,0.0499
1215.00,0.0508
1214.00,0.0510
1213.00,0.0503
1212.00,0.0487
1211.00,0.0464
1210.00,0.0439
1209.00,0.0415
1208.00,0.0395
1207.00,0.0380
1206.00,0.0373
1205.00,0.0374
1204.00,0.0383
1203.00,0.0400
1202.00,0.0425
1201.00,0.0455
1200.00,0.0489
1199.00,0.0528
1198.00,0.0570
1197.00,0.0612
1196.00,0.0648
1195.00,0.0672
1194.00,0.0680
1193.00,0.0671
1192.00,0.0647
1191.00,0.0614
1190.00,0.0574
1189.00,0.0532
1188.00,0.0488
1187.00,0.0448
1186.00,0.0411
1185.00,0.0380
1184.00,0.0354
1183.00,0.0333
1182.00,0.0317
1181.00,0.0304
1180.00,0.0294
1179.00,0.0287
1178.00,0.0281
1177.00,0.0277
1176.00,0.0273
1175.00,0.0271
1174.00,0.0269
1173.00,0.0268
1172.00,0.0268
1171.00,0.0267
1170.00,0.0268
1169.00,0.0268
1168.00,0.0269
1167.00,0.0270
1166.00,0.0273
1165.00,0.0278
1164.00,0.0286
1163.00,0.0297
1162.00,0.0316
1161.00,0.0342
1160.00,0.0380
1159.00,0.0430
1158.00,0.0492
1157.00,0.0557
1156.00,0.0615
1155.00,0.0651
1154.00,0.0655
1153.00,0.0623
1152.00,0.0564
1151.00,0.0493
1150.00,0.0425
1149.00,0.0368
1148.00,0.0325
1147.00,0.0296
1146.00,0.0277
1145.00,0.0264
1144.00,0.0256
1143.00,0.0251
1142.00,0.0250
1141.00,0.0251
1140.00,0.0254
1139.00,0.0261
1138.00,0.0274
1137.00,0.0292
1136.00,0.0318
1135.00,0.0356
1134.00,0.0407
1133.00,0.0473
1132.00,0.0551
1131.00,0.0630
1130.00,0.0700
1129.00,0.0746
1128.00,0.0765
1127.00,0.0757
1126.00,0.0728
1125.00,0.0685
1124.00,0.0632
1123.00,0.0573
1122.00,0.0514
1121.00,0.0461
1120.00,0.0418
1119.00,0.0386
1118.00,0.0365
1117.00,0.0353
1116.00,0.0347
1115.00,0.0343
1114.00,0.0340
1113.00,0.0334
1112.00,0.0326
1111.00,0.0316
1110.00,0.0306
1109.00,0.0298
1108.00,0.0294
1107.00,0.0296
1106.00,0.0305
1105.00,0.0323
1104.00,0.0351
1103.00,0.0390
1102.00,0.0434
1101.00,0.0475
1100.00,0.0503
1099.00,0.0509
1098.00,0.0493
1097.00,0.0458
1096.00,0.0414
1095.00,0.0368
1094.00,0.0327
1093.00,0.0294
1092.00,0.0268
1091.00,0.0250
1090.00,0.0237
1089.00,0.0227
1088.00,0.0219
1087.00,0.0213
1086.00,0.0209
1085.00,0.0207
1084.00,0.0205
1083.00,0.0204
1082.00,0.0204
1081.00,0.0205
1080.00,0.0207
1079.00,0.0209
1078.00,0.0212
1077.00,0.0214
1076.00,0.0217
1075.00,0.0220
1074.00,0.0224
1073.00,0.0229
1072.00,0.0234
1071.00,0.0241
1070.00,0.0250
1069.00,0.0259
1068.00,0.0269
1067.00,0.0280
1066.00,0.0294
1065.00,0.0310
1064.00,0.0331
1063.00,0.0358
1062.00,0.0394
1061.00,0.0440
1060.00,0.0499
1059.00,0.0571
1058.00,0.0655
1057.00,0.0744
1056.00,0.0828
1055.00,0.0899
1054.00,0.0951
1053.00,0.0984
1052.00,0.1004
1051.00,0.1016
1050.00,0.1022
1049.00,0.1017
1048.00,0.0995
1047.00,0.0956
1046.00,0.0902
1045.00,0.0836
1044.00,0.0766
1043.00,0.0696
1042.00,0.0632
1041.00,0.0579
1040.00,0.0537
1039.00,0.0510
1038.00,0.0496
1037.00,0.0492
1036.00,0.0495
1035.00,0.0503
1034.00,0.0516
1033.00,0.0536
1032.00,0.0570
1031.00,0.0622
1030.00,0.0693
1029.00,0.0772
1028.00,0.0846
1027.00,0.0894
1026.00,0.0904
1025.00,0.0872
1024.00,0.0807
1023.00,0.0727
1022.00,0.0647
1021.00,0.0576
1020.00,0.0515
1019.00,0.0466
1018.00,0.0426
1017.00,0.0394
1016.00,0.0367
1015.00,0.0346
1014.00,0.0329
1013.00,0.0317
1012.00,0.0309
1011.00,0.0307
1010.00,0.0313
1009.00,0.0328
1008.00,0.0349
1007.00,0.0377
1006.00,0.0406
1005.00,0.0432
1004.00,0.0451
1003.00,0.0459
1002.00,0.0456
1001.00,0.0444
1000.00,0.0428
999.00,0.0411
998.00,0.0396
997.00,0.0382
996.00,0.0370
995.00,0.0359
994.00,0.0350
993.00,0.0338
992.00,0.0324
991.00,0.0307
990.00,0.0290
989.00,0.0273
988.00,0.0258
987.00,0.0246
986.00,0.0235
985.00,0.0227
984.00,0.0220
983.00,0.0215
982.00,0.0212
981.00,0.0210
980.00,0.0208
979.00,0.0208
978.00,0.0209
977.00,0.0209
976.00,0.0209
975.00,0.0209
974.00,0.0208
973.00,0.0207
972.00,0.0206
971.00,0.0204
970.00,0.0203
969.00,0.0202
968.00,0.0201
967.00,0.0202
966.00,0.0204
965.00,0.0208
964.00,0.0212
963.00,0.0216
962.00,0.0217
961.00,0.0214
960.00,0.0205
959.00,0.0194
958.00,0.0184
957.00,0.0175
956.00,0.0167
955.00,0.0161
954.00,0.0157
953.00,0.0154
952.00,0.0153
951.00,0.0154
950.00,0.0158
949.00,0.0164
948.00,0.0167
947.00,0.0168
946.00,0.0167
945.00,0.0167
944.00,0.0169
943.00,0.0174
942.00,0.0181
941.00,0.0190
940.00,0.0199
939.00,0.0207
938.00,0.0215
937.00,0.0222
936.00,0.0228
935.00,0.0234
934.00,0.0241
933.00,0.0245
932.00,0.0245
931.00,0.0242
930.00,0.0236
929.00,0.0230
928.00,0.0225
927.00,0.0224
926.00,0.0228
925.00,0.0237
924.00,0.0248
923.00,0.0259
922.00,0.0267
921.00,0.0267
920.00,0.0258
919.00,0.0242
918.00,0.0224
917.00,0.0206
916.00,0.0191
915.00,0.0179
914.00,0.0171
913.00,0.0166
912.00,0.0162
911.00,0.0159
910.00,0.0158
909.00,0.0159
908.00,0.0161
907.00,0.0165
906.00,0.0171
905.00,0.0181
904.00,0.0194
903.00,0.0213
902.00,0.0237
901.00,0.0262
900.00,0.0282
899.00,0.0292
898.00,0.0290
897.00,0.0279
896.00,0.0262
895.00,0.0247
894.00,0.0242
893.00,0.0248
892.00,0.0265
891.00,0.0284
890.00,0.0295
889.00,0.0288
888.00,0.0264
887.00,0.0236
886.00,0.0213
885.00,0.0199
884.00,0.0193
883.00,0.0192
882.00,0.0196
881.00,0.0203
880.00,0.0214
879.00,0.0230
878.00,0.0255
877.00,0.0289
876.00,0.0331
875.00,0.0382
874.00,0.0440
873.00,0.0501
872.00,0.0559
871.00,0.0606
870.00,0.0632
869.00,0.0633
868.00,0.0608
867.00,0.0570
866.00,0.0529
865.00,0.0489
864.00,0.0452
863.00,0.0417
862.00,0.0384
861.00,0.0356
860.00,0.0334
859.00,0.0323
858.00,0.0325
857.00,0.0340
856.00,0.0365
855.00,0.0395
854.00,0.0426
853.00,0.0456
852.00,0.0486
851.00,0.0517
850.00,0.0546
849.00,0.0561
848.00,0.0556
847.00,0.0534
846.00,0.0502
845.00,0.0469
844.00,0.0440
843.00,0.0417
842.00,0.0402
841.00,0.0395
840.00,0.0398
839.00,0.0411
838.00,0.0439
837.00,0.0475
836.00,0.0514
835.00,0.0547
834.00,0.0570
833.00,0.0577
832.00,0.0567
831.00,0.0541
830.00,0.0503
829.00,0.0457
828.00,0.0408
827.00,0.0367
826.00,0.0341
825.00,0.0337
824.00,0.0361
823.00,0.0420
822.00,0.0509
821.00,0.0601
820.00,0.0664
819.00,0.0696
818.00,0.0722
817.00,0.0757
816.00,0.0784
815.00,0.0766
814.00,0.0689
813.00,0.0575
812.00,0.0466
811.00,0.0382
810.00,0.0326
809.00,0.0288
808.00,0.0262
807.00,0.0242
806.00,0.0228
805.00,0.0218
804.00,0.0210
803.00,0.0204
802.00,0.0200
801.00,0.0197
800.00,0.0194
799.00,0.0192
798.00,0.0191
797.00,0.0189
796.00,0.0188
795.00,0.0187
794.00,0.0186
793.00,0.0186
792.00,0.0185
791.00,0.0184
790.00,0.0184
789.00,0.0184
788.00,0.0184
787.00,0.0184
786.00,0.0185
785.00,0.0185
784.00,0.0186
783.00,0.0187
782.00,0.0189
781.00,0.0191
780.00,0.0195
779.00,0.0201
778.00,0.0212
777.00,0.0229
776.00,0.0248
775.00,0.0264
774.00,0.0271
773.00,0.0266
772.00,0.0252
771.00,0.0238
770.00,0.0228
769.00,0.0222
768.00,0.0219
767.00,0.0219
766.00,0.0220
765.00,0.0224
764.00,0.0230
763.00,0.0238
762.00,0.0248
761.00,0.0257
760.00,0.0264
759.00,0.0268
758.00,0.0268
757.00,0.0266
756.00,0.0262
755.00,0.0259
754.00,0.0258
753.00,0.0258
752.00,0.0259
751.00,0.0261
750.00,0.0264
749.00,0.0267
748.00,0.0271
747.00,0.0275
746.00,0.0281
745.00,0.0286
744.00,0.0293
743.00,0.0301
742.00,0.0312
741.00,0.0327
740.00,0.0347
739.00,0.0375
738.00,0.0413
737.00,0.0458
736.00,0.0501
735.00,0.0529
734.00,0.0537
733.00,0.0526
732.00,0.0510
731.00,0.0499
730.00,0.0499
729.00,0.0502
728.00,0.0498
727.00,0.0482
726.00,0.0454
725.00,0.0421
724.00,0.0390
723.00,0.0367
722.00,0.0354
721.00,0.0347
720.00,0.0347
719.00,0.0354
718.00,0.0368
717.00,0.0384
716.00,0.0400
715.00,0.0410
714.00,0.0412
713.00,0.0407
712.00,0.0397
711.00,0.0386
710.00,0.0376
709.00,0.0368
708.00,0.0363
707.00,0.0360
706.00,0.0362
705.00,0.0367
704.00,0.0373
703.00,0.0381
702.00,0.0391
701.00,0.0401
700.00,0.0411
699.00,0.0420
698.00,0.0426
697.00,0.0426
696.00,0.0421
695.00,0.0413
694.00,0.0406
693.00,0.0403
692.00,0.0407
691.00,0.0419
690.00,0.0438
689.00,0.0456
688.00,0.0466
687.00,0.0465
686.00,0.0457
685.00,0.0445
684.00,0.0434
683.00,0.0427
682.00,0.0425
681.00,0.0426
680.00,0.0431
679.00,0.0439
678.00,0.0450
677.00,0.0463
676.00,0.0478
675.00,0.0496
674.00,0.0516
673.00,0.0534
672.00,0.0547
671.00,0.0555
670.00,0.0558
669.00,0.0555
668.00,0.0548
667.00,0.0544
666.00,0.0542
665.00,0.0544
664.00,0.0550
663.00,0.0559
662.00,0.0569
661.00,0.0573
660.00,0.0569
659.00,0.0560
658.00,0.0548
657.00,0.0537
656.00,0.0528
655.00,0.0522
654.00,0.0520
653.00,0.0519
652.00,0.0518
651.00,0.0518
650.00,0.0519
649.00,0.0520
648.00,0.0519
647.00,0.0519
646.00,0.0519
645.00,0.0518
644.00,0.0516
643.00,0.0513
642.00,0.0511
641.00,0.0509
640.00,0.0505
639.00,0.0503
638.00,0.0501
637.00,0.0499
636.00,0.0496
635.00,0.0494
634.00,0.0492
633.00,0.0490
632.00,0.0488
631.00,0.0487
630.00,0.0489
629.00,0.0491
628.00,0.0494
627.00,0.0497
626.00,0.0504
625.00,0.0513
624.00,0.0523
623.00,0.0535
622.00,0.0549
621.00,0.0560
620.00,0.0566
619.00,0.0565
618.00,0.0558
617.00,0.0545
616.00,0.0528
615.00,0.0511
614.00,0.0497
613.00,0.0488
612.00,0.0483
611.00,0.0484
610.00,0.0493
609.00,0.0509
608.00,0.0532
607.00,0.0561
606.00,0.0594
605.00,0.0625
604.00,0.0650
603.00,0.0667
602.00,0.0679
601.00,0.0685
600.00,0.0686
599.00,0.0685
598.00,0.0684
597.00,0.0681
596.00,0.0677
595.00,0.0675
594.00,0.0674
593.00,0.0672
592.00,0.0668
591.00,0.0662
590.00,0.0656
589.00,0.0651
588.00,0.0646
587.00,0.0643
586.00,0.0643
585.00,0.0645
584.00,0.0648
583.00,0.0654
582.00,0.0664
581.00,0.0676
580.00,0.0692
579.00,0.0713
578.00,0.0740
577.00,0.0763
576.00,0.0772
575.00,0.0766
574.00,0.0747
573.00,0.0723
572.00,0.0698
571.00,0.0677
570.00,0.0662
569.00,0.0651
568.00,0.0645
567.00,0.0645
566.00,0.0652
565.00,0.0664
564.00,0.0678
563.00,0.0694
562.00,0.0714
561.00,0.0731
560.00,0.0740
559.00,0.0740
558.00,0.0732
557.00,0.0717
556.00,0.0698
555.00,0.0681
554.00,0.0669
553.00,0.0663
552.00,0.0663
551.00,0.0672
550.00,0.0689
549.00,0.0712
548.00,0.0733
547.00,0.0750
546.00,0.0761
545.00,0.0761
544.00,0.0749
543.00,0.0731
542.00,0.0713
541.00,0.0695
540.00,0.0678
539.00,0.0665
538.00,0.0658
537.00,0.0656
536.00,0.0657
535.00,0.0666
534.00,0.0681
533.00,0.0699
532.00,0.0713
531.00,0.0721
530.00,0.0720
529.00,0.0708
528.00,0.0687
527.00,0.0664
526.00,0.0644
525.00,0.0627
524.00,0.0611
523.00,0.0598
522.00,0.0589
521.00,0.0582
520.00,0.0574
519.00,0.0568
518.00,0.0565
517.00,0.0560
516.00,0.0553
515.00,0.0549
514.00,0.0549
513.00,0.0551
512.00,0.0551
511.00,0.0553
510.00,0.0559
509.00,0.0564
508.00,0.0567
507.00,0.0569
506.00,0.0572
505.00,0.0572
504.00,0.0568
503.00,0.0562
502.00,0.0557
501.00,0.0552
500.00,0.0544
499.00,0.0538
498.00,0.0537
497.00,0.0539
496.00,0.0542
495.00,0.0548
494.00,0.0557
493.00,0.0562
492.00,0.0561
491.00,0.0558
490.00,0.0556
489.00,0.0553
488.00,0.0546
487.00,0.0539
486.00,0.0535
485.00,0.0532
484.00,0.0527
483.00,0.0524
482.00,0.0526
481.00,0.0527
480.00,0.0525
479.00,0.0521
478.00,0.0521
477.00,0.0521
476.00,0.0516
475.00,0.0513
474.00,0.0513
473.00,0.0512
472.00,0.0508
471.00,0.0506
470.00,0.0510
469.00,0.0512
468.00,0.0510
467.00,0.0509
466.00,0.0512
465.00,0.0513
464.00,0.0509
463.00,0.0504
462.00,0.0506
461.00,0.0509
460.00,0.0508
459.00,0.0507
458.00,0.0512
457.00,0.0515
456.00,0.0511
455.00,0.0506
454.00,0.0505
453.00,0.0503
452.00,0.0496
451.00,0.0492
450.00,0.0495
449.00,0.0499
448.00,0.0498
447.00,0.0497
446.00,0.0501
445.00,0.0504
444.00,0.0501
443.00,0.0498
442.00,0.0500
441.00,0.0503
440.00,0.0501
439.00,0.0500
438.00,0.0506
437.00,0.0510
436.00,0.0507
435.00,0.0504
434.00,0.0504
433.00,0.0501
432.00,0.0493
431.00,0.0487
430.00,0.0489
429.00,0.0491
428.00,0.0486
427.00,0.0479
426.00,0.0480
425.00,0.0483
424.00,0.0481
423.00,0.0477
422.00,0.0477
421.00,0.0473
420.00,0.0462
419.00,0.0459
418.00,0.0472
417.00,0.0482
416.00,0.0479
415.00,0.0479
414.00,0.0493
413.00,0.0509
412.00,0.0515
411.00,0.0518
410.00,0.0525
409.00,0.0522
408.00,0.0502
407.00,0.0483
406.00,0.0482
405.00,0.0487
404.00,0.0483
403.00,0.0480
402.00,0.0491
401.00,0.0497
400.00,0.0481
