Created as New Dataset,Sample 734 By YargerLab Date Thursday, June 26 2025
cm-1,A
4000.00,0.0006
3999.00,0.0006
3998.00,0.0006
3997.00,0.0006
3996.00,0.0006
3995.00,0.0006
3994.00,0.0006
3993.00,0.0006
3992.00,0.0006
3991.00,0.0006
3990.00,0.0006
3989.00,0.0006
3988.00,0.0006
3987.00,0.0006
3986.00,0.0006
3985.00,0.0006
3984.00,0.0005
3983.00,0.0005
3982.00,0.0005
3981.00,0.0006
3980.00,0.0006
3979.00,0.0006
3978.00,0.0006
3977.00,0.0006
3976.00,0.0006
3975.00,0.0006
3974.00,0.0006
3973.00,0.0006
3972.00,0.0006
3971.00,0.0006
3970.00,0.0006
3969.00,0.0006
3968.00,0.0006
3967.00,0.0006
3966.00,0.0006
3965.00,0.0006
3964.00,0.0006
3963.00,0.0006
3962.00,0.0005
3961.00,0.0005
3960.00,0.0005
3959.00,0.0005
3958.00,0.0005
3957.00,0.0005
3956.00,0.0005
3955.00,0.0005
3954.00,0.0005
3953.00,0.0005
3952.00,0.0006
3951.00,0.0006
3950.00,0.0006
3949.00,0.0006
3948.00,0.0006
3947.00,0.0006
3946.00,0.0005
3945.00,0.0005
3944.00,0.0005
3943.00,0.0005
3942.00,0.0005
3941.00,0.0006
3940.00,0.0006
3939.00,0.0005
3938.00,0.0005
3937.00,0.0005
3936.00,0.0005
3935.00,0.0005
3934.00,0.0005
3933.00,0.0005
3932.00,0.0005
3931.00,0.0005
3930.00,0.0005
3929.00,0.0005
3928.00,0.0005
3927.00,0.0005
3926.00,0.0005
3925.00,0.0006
3924.00,0.0006
3923.00,0.0006
3922.00,0.0006
3921.00,0.0005
3920.00,0.0005
3919.00,0.0005
3918.00,0.0005
3917.00,0.0005
3916.00,0.0005
3915.00,0.0005
3914.00,0.0005
3913.00,0.0005
3912.00,0.0005
3911.00,0.0005
3910.00,0.0005
3909.00,0.0005
3908.00,0.0005
3907.00,0.0004
3906.00,0.0004
3905.00,0.0004
3904.00,0.0004
3903.00,0.0004
3902.00,0.0004
3901.00,0.0004
3900.00,0.0004
3899.00,0.0004
3898.00,0.0004
3897.00,0.0005
3896.00,0.0005
3895.00,0.0005
3894.00,0.0005
3893.00,0.0005
3892.00,0.0005
3891.00,0.0005
3890.00,0.0005
3889.00,0.0004
3888.00,0.0004
3887.00,0.0004
3886.00,0.0004
3885.00,0.0004
3884.00,0.0004
3883.00,0.0004
3882.00,0.0004
3881.00,0.0004
3880.00,0.0004
3879.00,0.0004
3878.00,0.0004
3877.00,0.0004
3876.00,0.0004
3875.00,0.0004
3874.00,0.0005
3873.00,0.0005
3872.00,0.0004
3871.00,0.0004
3870.00,0.0004
3869.00,0.0004
3868.00,0.0005
3867.00,0.0004
3866.00,0.0004
3865.00,0.0005
3864.00,0.0005
3863.00,0.0005
3862.00,0.0004
3861.00,0.0004
3860.00,0.0004
3859.00,0.0004
3858.00,0.0003
3857.00,0.0003
3856.00,0.0003
3855.00,0.0002
3854.00,0.0003
3853.00,0.0003
3852.00,0.0003
3851.00,0.0003
3850.00,0.0003
3849.00,0.0003
3848.00,0.0004
3847.00,0.0004
3846.00,0.0005
3845.00,0.0005
3844.00,0.0005
3843.00,0.0005
3842.00,0.0005
3841.00,0.0005
3840.00,0.0004
3839.00,0.0004
3838.00,0.0004
3837.00,0.0004
3836.00,0.0005
3835.00,0.0005
3834.00,0.0005
3833.00,0.0005
3832.00,0.0005
3831.00,0.0005
3830.00,0.0005
3829.00,0.0005
3828.00,0.0005
3827.00,0.0005
3826.00,0.0005
3825.00,0.0005
3824.00,0.0005
3823.00,0.0004
3822.00,0.0004
3821.00,0.0004
3820.00,0.0004
3819.00,0.0004
3818.00,0.0004
3817.00,0.0004
3816.00,0.0004
3815.00,0.0005
3814.00,0.0005
3813.00,0.0005
3812.00,0.0005
3811.00,0.0005
3810.00,0.0005
3809.00,0.0005
3808.00,0.0005
3807.00,0.0005
3806.00,0.0005
3805.00,0.0004
3804.00,0.0004
3803.00,0.0004
3802.00,0.0004
3801.00,0.0004
3800.00,0.0005
3799.00,0.0005
3798.00,0.0005
3797.00,0.0005
3796.00,0.0005
3795.00,0.0005
3794.00,0.0006
3793.00,0.0006
3792.00,0.0006
3791.00,0.0006
3790.00,0.0006
3789.00,0.0006
3788.00,0.0006
3787.00,0.0005
3786.00,0.0005
3785.00,0.0005
3784.00,0.0005
3783.00,0.0005
3782.00,0.0005
3781.00,0.0005
3780.00,0.0005
3779.00,0.0005
3778.00,0.0005
3777.00,0.0006
3776.00,0.0006
3775.00,0.0006
3774.00,0.0006
3773.00,0.0006
3772.00,0.0006
3771.00,0.0006
3770.00,0.0006
3769.00,0.0006
3768.00,0.0006
3767.00,0.0005
3766.00,0.0005
3765.00,0.0006
3764.00,0.0006
3763.00,0.0006
3762.00,0.0006
3761.00,0.0006
3760.00,0.0006
3759.00,0.0006
3758.00,0.0006
3757.00,0.0005
3756.00,0.0005
3755.00,0.0005
3754.00,0.0004
3753.00,0.0004
3752.00,0.0004
3751.00,0.0004
3750.00,0.0004
3749.00,0.0004
3748.00,0.0004
3747.00,0.0003
3746.00,0.0003
3745.00,0.0003
3744.00,0.0004
3743.00,0.0004
3742.00,0.0004
3741.00,0.0004
3740.00,0.0004
3739.00,0.0004
3738.00,0.0004
3737.00,0.0004
3736.00,0.0003
3735.00,0.0003
3734.00,0.0003
3733.00,0.0003
3732.00,0.0003
3731.00,0.0003
3730.00,0.0004
3729.00,0.0004
3728.00,0.0004
3727.00,0.0004
3726.00,0.0004
3725.00,0.0004
3724.00,0.0004
3723.00,0.0005
3722.00,0.0005
3721.00,0.0005
3720.00,0.0005
3719.00,0.0005
3718.00,0.0005
3717.00,0.0005
3716.00,0.0005
3715.00,0.0005
3714.00,0.0004
3713.00,0.0004
3712.00,0.0005
3711.00,0.0005
3710.00,0.0005
3709.00,0.0005
3708.00,0.0005
3707.00,0.0005
3706.00,0.0005
3705.00,0.0005
3704.00,0.0005
3703.00,0.0005
3702.00,0.0005
3701.00,0.0005
3700.00,0.0005
3699.00,0.0005
3698.00,0.0005
3697.00,0.0005
3696.00,0.0005
3695.00,0.0005
3694.00,0.0005
3693.00,0.0005
3692.00,0.0005
3691.00,0.0005
3690.00,0.0005
3689.00,0.0005
3688.00,0.0005
3687.00,0.0005
3686.00,0.0006
3685.00,0.0006
3684.00,0.0007
3683.00,0.0007
3682.00,0.0007
3681.00,0.0006
3680.00,0.0006
3679.00,0.0006
3678.00,0.0006
3677.00,0.0005
3676.00,0.0006
3675.00,0.0006
3674.00,0.0006
3673.00,0.0006
3672.00,0.0006
3671.00,0.0006
3670.00,0.0006
3669.00,0.0007
3668.00,0.0007
3667.00,0.0008
3666.00,0.0008
3665.00,0.0009
3664.00,0.0009
3663.00,0.0010
3662.00,0.0010
3661.00,0.0010
3660.00,0.0010
3659.00,0.0010
3658.00,0.0010
3657.00,0.0010
3656.00,0.0010
3655.00,0.0011
3654.00,0.0011
3653.00,0.0011
3652.00,0.0011
3651.00,0.0012
3650.00,0.0012
3649.00,0.0012
3648.00,0.0012
3647.00,0.0012
3646.00,0.0012
3645.00,0.0013
3644.00,0.0013
3643.00,0.0014
3642.00,0.0014
3641.00,0.0015
3640.00,0.0015
3639.00,0.0015
3638.00,0.0016
3637.00,0.0016
3636.00,0.0016
3635.00,0.0016
3634.00,0.0016
3633.00,0.0016
3632.00,0.0017
3631.00,0.0017
3630.00,0.0017
3629.00,0.0018
3628.00,0.0018
3627.00,0.0018
3626.00,0.0019
3625.00,0.0019
3624.00,0.0019
3623.00,0.0020
3622.00,0.0020
3621.00,0.0021
3620.00,0.0021
3619.00,0.0021
3618.00,0.0022
3617.00,0.0022
3616.00,0.0022
3615.00,0.0023
3614.00,0.0023
3613.00,0.0023
3612.00,0.0024
3611.00,0.0024
3610.00,0.0024
3609.00,0.0025
3608.00,0.0025
3607.00,0.0026
3606.00,0.0026
3605.00,0.0026
3604.00,0.0026
3603.00,0.0027
3602.00,0.0027
3601.00,0.0028
3600.00,0.0028
3599.00,0.0029
3598.00,0.0029
3597.00,0.0030
3596.00,0.0030
3595.00,0.0031
3594.00,0.0031
3593.00,0.0031
3592.00,0.0032
3591.00,0.0032
3590.00,0.0032
3589.00,0.0032
3588.00,0.0032
3587.00,0.0032
3586.00,0.0033
3585.00,0.0033
3584.00,0.0034
3583.00,0.0034
3582.00,0.0035
3581.00,0.0036
3580.00,0.0036
3579.00,0.0037
3578.00,0.0037
3577.00,0.0037
3576.00,0.0038
3575.00,0.0038
3574.00,0.0039
3573.00,0.0039
3572.00,0.0039
3571.00,0.0040
3570.00,0.0040
3569.00,0.0040
3568.00,0.0041
3567.00,0.0041
3566.00,0.0041
3565.00,0.0042
3564.00,0.0043
3563.00,0.0043
3562.00,0.0044
3561.00,0.0045
3560.00,0.0045
3559.00,0.0045
3558.00,0.0046
3557.00,0.0046
3556.00,0.0047
3555.00,0.0047
3554.00,0.0048
3553.00,0.0048
3552.00,0.0048
3551.00,0.0048
3550.00,0.0049
3549.00,0.0049
3548.00,0.0050
3547.00,0.0050
3546.00,0.0051
3545.00,0.0051
3544.00,0.0052
3543.00,0.0052
3542.00,0.0053
3541.00,0.0053
3540.00,0.0054
3539.00,0.0054
3538.00,0.0055
3537.00,0.0055
3536.00,0.0055
3535.00,0.0056
3534.00,0.0056
3533.00,0.0057
3532.00,0.0057
3531.00,0.0057
3530.00,0.0058
3529.00,0.0058
3528.00,0.0058
3527.00,0.0059
3526.00,0.0059
3525.00,0.0060
3524.00,0.0060
3523.00,0.0061
3522.00,0.0061
3521.00,0.0061
3520.00,0.0062
3519.00,0.0062
3518.00,0.0063
3517.00,0.0063
3516.00,0.0064
3515.00,0.0064
3514.00,0.0064
3513.00,0.0065
3512.00,0.0065
3511.00,0.0066
3510.00,0.0066
3509.00,0.0067
3508.00,0.0067
3507.00,0.0068
3506.00,0.0068
3505.00,0.0068
3504.00,0.0069
3503.00,0.0069
3502.00,0.0069
3501.00,0.0070
3500.00,0.0070
3499.00,0.0070
3498.00,0.0071
3497.00,0.0071
3496.00,0.0072
3495.00,0.0072
3494.00,0.0073
3493.00,0.0073
3492.00,0.0074
3491.00,0.0074
3490.00,0.0074
3489.00,0.0075
3488.00,0.0076
3487.00,0.0076
3486.00,0.0077
3485.00,0.0077
3484.00,0.0078
3483.00,0.0078
3482.00,0.0079
3481.00,0.0079
3480.00,0.0079
3479.00,0.0079
3478.00,0.0080
3477.00,0.0080
3476.00,0.0081
3475.00,0.0081
3474.00,0.0081
3473.00,0.0082
3472.00,0.0082
3471.00,0.0083
3470.00,0.0083
3469.00,0.0083
3468.00,0.0084
3467.00,0.0084
3466.00,0.0085
3465.00,0.0086
3464.00,0.0086
3463.00,0.0086
3462.00,0.0087
3461.00,0.0087
3460.00,0.0088
3459.00,0.0088
3458.00,0.0089
3457.00,0.0089
3456.00,0.0090
3455.00,0.0090
3454.00,0.0091
3453.00,0.0091
3452.00,0.0091
3451.00,0.0092
3450.00,0.0092
3449.00,0.0093
3448.00,0.0094
3447.00,0.0094
3446.00,0.0094
3445.00,0.0095
3444.00,0.0095
3443.00,0.0095
3442.00,0.0096
3441.00,0.0096
3440.00,0.0097
3439.00,0.0097
3438.00,0.0098
3437.00,0.0099
3436.00,0.0099
3435.00,0.0100
3434.00,0.0100
3433.00,0.0101
3432.00,0.0101
3431.00,0.0102
3430.00,0.0102
3429.00,0.0103
3428.00,0.0103
3427.00,0.0104
3426.00,0.0104
3425.00,0.0105
3424.00,0.0105
3423.00,0.0105
3422.00,0.0106
3421.00,0.0106
3420.00,0.0107
3419.00,0.0108
3418.00,0.0108
3417.00,0.0109
3416.00,0.0109
3415.00,0.0110
3414.00,0.0110
3413.00,0.0111
3412.00,0.0111
3411.00,0.0112
3410.00,0.0112
3409.00,0.0113
3408.00,0.0113
3407.00,0.0114
3406.00,0.0115
3405.00,0.0115
3404.00,0.0115
3403.00,0.0116
3402.00,0.0116
3401.00,0.0117
3400.00,0.0117
3399.00,0.0118
3398.00,0.0118
3397.00,0.0119
3396.00,0.0119
3395.00,0.0120
3394.00,0.0120
3393.00,0.0120
3392.00,0.0121
3391.00,0.0121
3390.00,0.0122
3389.00,0.0122
3388.00,0.0123
3387.00,0.0123
3386.00,0.0123
3385.00,0.0124
3384.00,0.0125
3383.00,0.0125
3382.00,0.0126
3381.00,0.0127
3380.00,0.0128
3379.00,0.0128
3378.00,0.0129
3377.00,0.0129
3376.00,0.0130
3375.00,0.0131
3374.00,0.0131
3373.00,0.0132
3372.00,0.0133
3371.00,0.0133
3370.00,0.0134
3369.00,0.0134
3368.00,0.0135
3367.00,0.0136
3366.00,0.0136
3365.00,0.0137
3364.00,0.0138
3363.00,0.0138
3362.00,0.0139
3361.00,0.0140
3360.00,0.0141
3359.00,0.0142
3358.00,0.0143
3357.00,0.0144
3356.00,0.0144
3355.00,0.0145
3354.00,0.0145
3353.00,0.0146
3352.00,0.0146
3351.00,0.0147
3350.00,0.0148
3349.00,0.0149
3348.00,0.0149
3347.00,0.0150
3346.00,0.0151
3345.00,0.0152
3344.00,0.0153
3343.00,0.0154
3342.00,0.0155
3341.00,0.0156
3340.00,0.0157
3339.00,0.0158
3338.00,0.0159
3337.00,0.0160
3336.00,0.0161
3335.00,0.0162
3334.00,0.0163
3333.00,0.0164
3332.00,0.0165
3331.00,0.0166
3330.00,0.0167
3329.00,0.0168
3328.00,0.0169
3327.00,0.0170
3326.00,0.0172
3325.00,0.0173
3324.00,0.0174
3323.00,0.0175
3322.00,0.0176
3321.00,0.0177
3320.00,0.0179
3319.00,0.0180
3318.00,0.0181
3317.00,0.0183
3316.00,0.0184
3315.00,0.0185
3314.00,0.0187
3313.00,0.0188
3312.00,0.0189
3311.00,0.0190
3310.00,0.0191
3309.00,0.0192
3308.00,0.0194
3307.00,0.0195
3306.00,0.0197
3305.00,0.0198
3304.00,0.0200
3303.00,0.0202
3302.00,0.0203
3301.00,0.0205
3300.00,0.0207
3299.00,0.0208
3298.00,0.0209
3297.00,0.0210
3296.00,0.0211
3295.00,0.0213
3294.00,0.0214
3293.00,0.0216
3292.00,0.0217
3291.00,0.0219
3290.00,0.0220
3289.00,0.0222
3288.00,0.0223
3287.00,0.0225
3286.00,0.0226
3285.00,0.0227
3284.00,0.0228
3283.00,0.0229
3282.00,0.0230
3281.00,0.0231
3280.00,0.0231
3279.00,0.0232
3278.00,0.0232
3277.00,0.0233
3276.00,0.0233
3275.00,0.0233
3274.00,0.0233
3273.00,0.0233
3272.00,0.0232
3271.00,0.0232
3270.00,0.0232
3269.00,0.0232
3268.00,0.0231
3267.00,0.0231
3266.00,0.0231
3265.00,0.0230
3264.00,0.0229
3263.00,0.0228
3262.00,0.0227
3261.00,0.0226
3260.00,0.0224
3259.00,0.0223
3258.00,0.0222
3257.00,0.0220
3256.00,0.0219
3255.00,0.0218
3254.00,0.0217
3253.00,0.0215
3252.00,0.0214
3251.00,0.0213
3250.00,0.0211
3249.00,0.0210
3248.00,0.0209
3247.00,0.0207
3246.00,0.0206
3245.00,0.0205
3244.00,0.0204
3243.00,0.0203
3242.00,0.0201
3241.00,0.0200
3240.00,0.0199
3239.00,0.0198
3238.00,0.0196
3237.00,0.0195
3236.00,0.0193
3235.00,0.0192
3234.00,0.0191
3233.00,0.0189
3232.00,0.0189
3231.00,0.0188
3230.00,0.0187
3229.00,0.0187
3228.00,0.0186
3227.00,0.0184
3226.00,0.0183
3225.00,0.0182
3224.00,0.0181
3223.00,0.0180
3222.00,0.0180
3221.00,0.0179
3220.00,0.0178
3219.00,0.0177
3218.00,0.0176
3217.00,0.0175
3216.00,0.0174
3215.00,0.0174
3214.00,0.0173
3213.00,0.0172
3212.00,0.0171
3211.00,0.0170
3210.00,0.0170
3209.00,0.0169
3208.00,0.0168
3207.00,0.0167
3206.00,0.0166
3205.00,0.0166
3204.00,0.0165
3203.00,0.0164
3202.00,0.0163
3201.00,0.0162
3200.00,0.0162
3199.00,0.0161
3198.00,0.0160
3197.00,0.0159
3196.00,0.0158
3195.00,0.0157
3194.00,0.0157
3193.00,0.0156
3192.00,0.0155
3191.00,0.0154
3190.00,0.0153
3189.00,0.0152
3188.00,0.0152
3187.00,0.0151
3186.00,0.0150
3185.00,0.0150
3184.00,0.0149
3183.00,0.0148
3182.00,0.0148
3181.00,0.0147
3180.00,0.0146
3179.00,0.0146
3178.00,0.0145
3177.00,0.0144
3176.00,0.0143
3175.00,0.0143
3174.00,0.0142
3173.00,0.0141
3172.00,0.0141
3171.00,0.0140
3170.00,0.0139
3169.00,0.0139
3168.00,0.0138
3167.00,0.0137
3166.00,0.0136
3165.00,0.0135
3164.00,0.0135
3163.00,0.0134
3162.00,0.0134
3161.00,0.0133
3160.00,0.0132
3159.00,0.0132
3158.00,0.0131
3157.00,0.0130
3156.00,0.0130
3155.00,0.0129
3154.00,0.0128
3153.00,0.0128
3152.00,0.0127
3151.00,0.0127
3150.00,0.0126
3149.00,0.0126
3148.00,0.0125
3147.00,0.0125
3146.00,0.0125
3145.00,0.0124
3144.00,0.0123
3143.00,0.0122
3142.00,0.0122
3141.00,0.0121
3140.00,0.0121
3139.00,0.0121
3138.00,0.0121
3137.00,0.0120
3136.00,0.0120
3135.00,0.0120
3134.00,0.0120
3133.00,0.0119
3132.00,0.0119
3131.00,0.0119
3130.00,0.0118
3129.00,0.0118
3128.00,0.0118
3127.00,0.0117
3126.00,0.0117
3125.00,0.0117
3124.00,0.0117
3123.00,0.0116
3122.00,0.0115
3121.00,0.0115
3120.00,0.0115
3119.00,0.0115
3118.00,0.0115
3117.00,0.0115
3116.00,0.0115
3115.00,0.0115
3114.00,0.0115
3113.00,0.0115
3112.00,0.0116
3111.00,0.0116
3110.00,0.0116
3109.00,0.0116
3108.00,0.0116
3107.00,0.0116
3106.00,0.0116
3105.00,0.0117
3104.00,0.0117
3103.00,0.0117
3102.00,0.0117
3101.00,0.0117
3100.00,0.0117
3099.00,0.0118
3098.00,0.0118
3097.00,0.0119
3096.00,0.0119
3095.00,0.0119
3094.00,0.0120
3093.00,0.0119
3092.00,0.0119
3091.00,0.0120
3090.00,0.0120
3089.00,0.0120
3088.00,0.0121
3087.00,0.0120
3086.00,0.0120
3085.00,0.0120
3084.00,0.0120
3083.00,0.0121
3082.00,0.0121
3081.00,0.0121
3080.00,0.0121
3079.00,0.0121
3078.00,0.0121
3077.00,0.0121
3076.00,0.0121
3075.00,0.0121
3074.00,0.0122
3073.00,0.0122
3072.00,0.0122
3071.00,0.0122
3070.00,0.0121
3069.00,0.0121
3068.00,0.0120
3067.00,0.0120
3066.00,0.0120
3065.00,0.0120
3064.00,0.0119
3063.00,0.0119
3062.00,0.0119
3061.00,0.0118
3060.00,0.0118
3059.00,0.0118
3058.00,0.0117
3057.00,0.0116
3056.00,0.0115
3055.00,0.0115
3054.00,0.0114
3053.00,0.0114
3052.00,0.0113
3051.00,0.0112
3050.00,0.0112
3049.00,0.0111
3048.00,0.0111
3047.00,0.0110
3046.00,0.0110
3045.00,0.0109
3044.00,0.0108
3043.00,0.0107
3042.00,0.0107
3041.00,0.0106
3040.00,0.0106
3039.00,0.0106
3038.00,0.0105
3037.00,0.0105
3036.00,0.0104
3035.00,0.0103
3034.00,0.0103
3033.00,0.0103
3032.00,0.0102
3031.00,0.0102
3030.00,0.0102
3029.00,0.0102
3028.00,0.0101
3027.00,0.0100
3026.00,0.0100
3025.00,0.0099
3024.00,0.0098
3023.00,0.0098
3022.00,0.0097
3021.00,0.0097
3020.00,0.0096
3019.00,0.0096
3018.00,0.0095
3017.00,0.0095
3016.00,0.0094
3015.00,0.0094
3014.00,0.0093
3013.00,0.0093
3012.00,0.0092
3011.00,0.0092
3010.00,0.0092
3009.00,0.0092
3008.00,0.0092
3007.00,0.0092
3006.00,0.0091
3005.00,0.0091
3004.00,0.0091
3003.00,0.0091
3002.00,0.0090
3001.00,0.0090
3000.00,0.0090
2999.00,0.0090
2998.00,0.0090
2997.00,0.0090
2996.00,0.0091
2995.00,0.0091
2994.00,0.0091
2993.00,0.0092
2992.00,0.0092
2991.00,0.0093
2990.00,0.0094
2989.00,0.0095
2988.00,0.0097
2987.00,0.0097
2986.00,0.0098
2985.00,0.0099
2984.00,0.0100
2983.00,0.0100
2982.00,0.0101
2981.00,0.0102
2980.00,0.0103
2979.00,0.0105
2978.00,0.0107
2977.00,0.0108
2976.00,0.0110
2975.00,0.0112
2974.00,0.0114
2973.00,0.0115
2972.00,0.0116
2971.00,0.0118
2970.00,0.0119
2969.00,0.0121
2968.00,0.0123
2967.00,0.0124
2966.00,0.0125
2965.00,0.0126
2964.00,0.0127
2963.00,0.0128
2962.00,0.0128
2961.00,0.0128
2960.00,0.0128
2959.00,0.0128
2958.00,0.0127
2957.00,0.0126
2956.00,0.0126
2955.00,0.0125
2954.00,0.0124
2953.00,0.0123
2952.00,0.0122
2951.00,0.0121
2950.00,0.0120
2949.00,0.0120
2948.00,0.0120
2947.00,0.0120
2946.00,0.0120
2945.00,0.0121
2944.00,0.0121
2943.00,0.0122
2942.00,0.0123
2941.00,0.0124
2940.00,0.0125
2939.00,0.0126
2938.00,0.0127
2937.00,0.0128
2936.00,0.0129
2935.00,0.0130
2934.00,0.0130
2933.00,0.0131
2932.00,0.0131
2931.00,0.0131
2930.00,0.0131
2929.00,0.0131
2928.00,0.0131
2927.00,0.0131
2926.00,0.0131
2925.00,0.0130
2924.00,0.0129
2923.00,0.0129
2922.00,0.0128
2921.00,0.0127
2920.00,0.0126
2919.00,0.0124
2918.00,0.0123
2917.00,0.0122
2916.00,0.0120
2915.00,0.0118
2914.00,0.0117
2913.00,0.0115
2912.00,0.0114
2911.00,0.0113
2910.00,0.0111
2909.00,0.0110
2908.00,0.0109
2907.00,0.0107
2906.00,0.0106
2905.00,0.0105
2904.00,0.0104
2903.00,0.0103
2902.00,0.0103
2901.00,0.0102
2900.00,0.0101
2899.00,0.0100
2898.00,0.0099
2897.00,0.0099
2896.00,0.0098
2895.00,0.0097
2894.00,0.0097
2893.00,0.0096
2892.00,0.0095
2891.00,0.0095
2890.00,0.0095
2889.00,0.0095
2888.00,0.0095
2887.00,0.0095
2886.00,0.0095
2885.00,0.0095
2884.00,0.0096
2883.00,0.0096
2882.00,0.0097
2881.00,0.0097
2880.00,0.0098
2879.00,0.0098
2878.00,0.0099
2877.00,0.0100
2876.00,0.0100
2875.00,0.0100
2874.00,0.0099
2873.00,0.0099
2872.00,0.0099
2871.00,0.0098
2870.00,0.0097
2869.00,0.0096
2868.00,0.0095
2867.00,0.0094
2866.00,0.0093
2865.00,0.0092
2864.00,0.0091
2863.00,0.0090
2862.00,0.0090
2861.00,0.0089
2860.00,0.0089
2859.00,0.0089
2858.00,0.0088
2857.00,0.0088
2856.00,0.0088
2855.00,0.0087
2854.00,0.0087
2853.00,0.0086
2852.00,0.0086
2851.00,0.0085
2850.00,0.0084
2849.00,0.0083
2848.00,0.0082
2847.00,0.0080
2846.00,0.0079
2845.00,0.0077
2844.00,0.0076
2843.00,0.0075
2842.00,0.0074
2841.00,0.0073
2840.00,0.0072
2839.00,0.0071
2838.00,0.0071
2837.00,0.0070
2836.00,0.0070
2835.00,0.0069
2834.00,0.0069
2833.00,0.0068
2832.00,0.0068
2831.00,0.0068
2830.00,0.0068
2829.00,0.0067
2828.00,0.0067
2827.00,0.0067
2826.00,0.0066
2825.00,0.0066
2824.00,0.0066
2823.00,0.0066
2822.00,0.0065
2821.00,0.0065
2820.00,0.0065
2819.00,0.0065
2818.00,0.0065
2817.00,0.0065
2816.00,0.0064
2815.00,0.0064
2814.00,0.0064
2813.00,0.0064
2812.00,0.0063
2811.00,0.0063
2810.00,0.0063
2809.00,0.0063
2808.00,0.0063
2807.00,0.0063
2806.00,0.0063
2805.00,0.0062
2804.00,0.0062
2803.00,0.0062
2802.00,0.0062
2801.00,0.0061
2800.00,0.0061
2799.00,0.0061
2798.00,0.0061
2797.00,0.0060
2796.00,0.0060
2795.00,0.0060
2794.00,0.0060
2793.00,0.0060
2792.00,0.0060
2791.00,0.0059
2790.00,0.0059
2789.00,0.0059
2788.00,0.0059
2787.00,0.0058
2786.00,0.0058
2785.00,0.0058
2784.00,0.0058
2783.00,0.0058
2782.00,0.0058
2781.00,0.0058
2780.00,0.0058
2779.00,0.0057
2778.00,0.0057
2777.00,0.0056
2776.00,0.0056
2775.00,0.0056
2774.00,0.0056
2773.00,0.0056
2772.00,0.0056
2771.00,0.0056
2770.00,0.0056
2769.00,0.0055
2768.00,0.0055
2767.00,0.0054
2766.00,0.0054
2765.00,0.0054
2764.00,0.0054
2763.00,0.0054
2762.00,0.0054
2761.00,0.0054
2760.00,0.0053
2759.00,0.0053
2758.00,0.0053
2757.00,0.0052
2756.00,0.0052
2755.00,0.0052
2754.00,0.0052
2753.00,0.0052
2752.00,0.0052
2751.00,0.0051
2750.00,0.0051
2749.00,0.0051
2748.00,0.0051
2747.00,0.0051
2746.00,0.0051
2745.00,0.0051
2744.00,0.0051
2743.00,0.0050
2742.00,0.0050
2741.00,0.0050
2740.00,0.0050
2739.00,0.0050
2738.00,0.0049
2737.00,0.0049
2736.00,0.0049
2735.00,0.0049
2734.00,0.0048
2733.00,0.0048
2732.00,0.0048
2731.00,0.0048
2730.00,0.0047
2729.00,0.0047
2728.00,0.0047
2727.00,0.0047
2726.00,0.0047
2725.00,0.0047
2724.00,0.0047
2723.00,0.0046
2722.00,0.0046
2721.00,0.0046
2720.00,0.0046
2719.00,0.0046
2718.00,0.0045
2717.00,0.0045
2716.00,0.0045
2715.00,0.0045
2714.00,0.0045
2713.00,0.0044
2712.00,0.0044
2711.00,0.0044
2710.00,0.0044
2709.00,0.0044
2708.00,0.0044
2707.00,0.0044
2706.00,0.0044
2705.00,0.0043
2704.00,0.0043
2703.00,0.0043
2702.00,0.0043
2701.00,0.0043
2700.00,0.0043
2699.00,0.0043
2698.00,0.0043
2697.00,0.0043
2696.00,0.0043
2695.00,0.0042
2694.00,0.0042
2693.00,0.0042
2692.00,0.0042
2691.00,0.0042
2690.00,0.0042
2689.00,0.0042
2688.00,0.0042
2687.00,0.0042
2686.00,0.0042
2685.00,0.0042
2684.00,0.0042
2683.00,0.0042
2682.00,0.0041
2681.00,0.0041
2680.00,0.0041
2679.00,0.0042
2678.00,0.0042
2677.00,0.0042
2676.00,0.0041
2675.00,0.0041
2674.00,0.0041
2673.00,0.0041
2672.00,0.0041
2671.00,0.0041
2670.00,0.0041
2669.00,0.0041
2668.00,0.0041
2667.00,0.0041
2666.00,0.0041
2665.00,0.0042
2664.00,0.0042
2663.00,0.0042
2662.00,0.0043
2661.00,0.0043
2660.00,0.0044
2659.00,0.0044
2658.00,0.0044
2657.00,0.0044
2656.00,0.0044
2655.00,0.0044
2654.00,0.0044
2653.00,0.0044
2652.00,0.0044
2651.00,0.0044
2650.00,0.0044
2649.00,0.0044
2648.00,0.0044
2647.00,0.0044
2646.00,0.0044
2645.00,0.0044
2644.00,0.0044
2643.00,0.0044
2642.00,0.0043
2641.00,0.0043
2640.00,0.0043
2639.00,0.0043
2638.00,0.0043
2637.00,0.0043
2636.00,0.0043
2635.00,0.0043
2634.00,0.0043
2633.00,0.0042
2632.00,0.0042
2631.00,0.0042
2630.00,0.0042
2629.00,0.0041
2628.00,0.0041
2627.00,0.0041
2626.00,0.0041
2625.00,0.0041
2624.00,0.0041
2623.00,0.0041
2622.00,0.0041
2621.00,0.0041
2620.00,0.0041
2619.00,0.0041
2618.00,0.0040
2617.00,0.0040
2616.00,0.0040
2615.00,0.0040
2614.00,0.0040
2613.00,0.0040
2612.00,0.0039
2611.00,0.0039
2610.00,0.0039
2609.00,0.0038
2608.00,0.0038
2607.00,0.0038
2606.00,0.0038
2605.00,0.0038
2604.00,0.0038
2603.00,0.0038
2602.00,0.0038
2601.00,0.0038
2600.00,0.0037
2599.00,0.0037
2598.00,0.0037
2597.00,0.0037
2596.00,0.0037
2595.00,0.0037
2594.00,0.0037
2593.00,0.0037
2592.00,0.0037
2591.00,0.0036
2590.00,0.0036
2589.00,0.0036
2588.00,0.0036
2587.00,0.0036
2586.00,0.0036
2585.00,0.0035
2584.00,0.0035
2583.00,0.0035
2582.00,0.0035
2581.00,0.0035
2580.00,0.0034
2579.00,0.0034
2578.00,0.0034
2577.00,0.0034
2576.00,0.0034
2575.00,0.0034
2574.00,0.0034
2573.00,0.0034
2572.00,0.0034
2571.00,0.0034
2570.00,0.0033
2569.00,0.0033
2568.00,0.0033
2567.00,0.0033
2566.00,0.0033
2565.00,0.0033
2564.00,0.0033
2563.00,0.0033
2562.00,0.0033
2561.00,0.0033
2560.00,0.0032
2559.00,0.0032
2558.00,0.0032
2557.00,0.0032
2556.00,0.0032
2555.00,0.0032
2554.00,0.0032
2553.00,0.0032
2552.00,0.0032
2551.00,0.0032
2550.00,0.0032
2549.00,0.0031
2548.00,0.0031
2547.00,0.0031
2546.00,0.0031
2545.00,0.0030
2544.00,0.0030
2543.00,0.0030
2542.00,0.0030
2541.00,0.0030
2540.00,0.0030
2539.00,0.0030
2538.00,0.0030
2537.00,0.0030
2536.00,0.0030
2535.00,0.0030
2534.00,0.0030
2533.00,0.0030
2532.00,0.0030
2531.00,0.0029
2530.00,0.0029
2529.00,0.0029
2528.00,0.0029
2527.00,0.0029
2526.00,0.0029
2525.00,0.0029
2524.00,0.0029
2523.00,0.0029
2522.00,0.0029
2521.00,0.0029
2520.00,0.0028
2519.00,0.0028
2518.00,0.0028
2517.00,0.0028
2516.00,0.0029
2515.00,0.0029
2514.00,0.0028
2513.00,0.0028
2512.00,0.0028
2511.00,0.0028
2510.00,0.0028
2509.00,0.0028
2508.00,0.0028
2507.00,0.0028
2506.00,0.0027
2505.00,0.0027
2504.00,0.0027
2503.00,0.0027
2502.00,0.0027
2501.00,0.0027
2500.00,0.0027
2499.00,0.0027
2498.00,0.0027
2497.00,0.0027
2496.00,0.0026
2495.00,0.0026
2494.00,0.0026
2493.00,0.0026
2492.00,0.0026
2491.00,0.0026
2490.00,0.0026
2489.00,0.0026
2488.00,0.0026
2487.00,0.0026
2486.00,0.0026
2485.00,0.0025
2484.00,0.0025
2483.00,0.0025
2482.00,0.0025
2481.00,0.0026
2480.00,0.0026
2479.00,0.0026
2478.00,0.0026
2477.00,0.0025
2476.00,0.0025
2475.00,0.0026
2474.00,0.0026
2473.00,0.0025
2472.00,0.0025
2471.00,0.0025
2470.00,0.0025
2469.00,0.0025
2468.00,0.0025
2467.00,0.0024
2466.00,0.0024
2465.00,0.0025
2464.00,0.0025
2463.00,0.0025
2462.00,0.0025
2461.00,0.0025
2460.00,0.0025
2459.00,0.0025
2458.00,0.0025
2457.00,0.0025
2456.00,0.0025
2455.00,0.0025
2454.00,0.0025
2453.00,0.0024
2452.00,0.0024
2451.00,0.0024
2450.00,0.0024
2449.00,0.0024
2448.00,0.0024
2447.00,0.0024
2446.00,0.0024
2445.00,0.0023
2444.00,0.0023
2443.00,0.0023
2442.00,0.0022
2441.00,0.0022
2440.00,0.0022
2439.00,0.0022
2438.00,0.0022
2437.00,0.0022
2436.00,0.0022
2435.00,0.0022
2434.00,0.0022
2433.00,0.0022
2432.00,0.0022
2431.00,0.0021
2430.00,0.0021
2429.00,0.0021
2428.00,0.0021
2427.00,0.0021
2426.00,0.0020
2425.00,0.0020
2424.00,0.0020
2423.00,0.0020
2422.00,0.0020
2421.00,0.0020
2420.00,0.0020
2419.00,0.0020
2418.00,0.0019
2417.00,0.0019
2416.00,0.0020
2415.00,0.0020
2414.00,0.0019
2413.00,0.0019
2412.00,0.0019
2411.00,0.0019
2410.00,0.0019
2409.00,0.0018
2408.00,0.0018
2407.00,0.0017
2406.00,0.0017
2405.00,0.0017
2404.00,0.0017
2403.00,0.0017
2402.00,0.0017
2401.00,0.0017
2400.00,0.0017
2399.00,0.0017
2398.00,0.0017
2397.00,0.0017
2396.00,0.0017
2395.00,0.0017
2394.00,0.0017
2393.00,0.0016
2392.00,0.0016
2391.00,0.0016
2390.00,0.0016
2389.00,0.0016
2388.00,0.0016
2387.00,0.0015
2386.00,0.0015
2385.00,0.0014
2384.00,0.0014
2383.00,0.0014
2382.00,0.0014
2381.00,0.0014
2380.00,0.0014
2379.00,0.0013
2378.00,0.0013
2377.00,0.0013
2376.00,0.0013
2375.00,0.0013
2374.00,0.0013
2373.00,0.0014
2372.00,0.0014
2371.00,0.0013
2370.00,0.0013
2369.00,0.0013
2368.00,0.0013
2367.00,0.0013
2366.00,0.0013
2365.00,0.0013
2364.00,0.0013
2363.00,0.0014
2362.00,0.0014
2361.00,0.0015
2360.00,0.0015
2359.00,0.0015
2358.00,0.0014
2357.00,0.0013
2356.00,0.0013
2355.00,0.0012
2354.00,0.0012
2353.00,0.0012
2352.00,0.0012
2351.00,0.0012
2350.00,0.0014
2349.00,0.0015
2348.00,0.0016
2347.00,0.0016
2346.00,0.0016
2345.00,0.0016
2344.00,0.0016
2343.00,0.0017
2342.00,0.0017
2341.00,0.0017
2340.00,0.0017
2339.00,0.0017
2338.00,0.0017
2337.00,0.0017
2336.00,0.0017
2335.00,0.0017
2334.00,0.0016
2333.00,0.0016
2332.00,0.0016
2331.00,0.0017
2330.00,0.0018
2329.00,0.0020
2328.00,0.0023
2327.00,0.0026
2326.00,0.0029
2325.00,0.0031
2324.00,0.0030
2323.00,0.0028
2322.00,0.0026
2321.00,0.0025
2320.00,0.0024
2319.00,0.0023
2318.00,0.0022
2317.00,0.0022
2316.00,0.0021
2315.00,0.0020
2314.00,0.0019
2313.00,0.0019
2312.00,0.0018
2311.00,0.0018
2310.00,0.0018
2309.00,0.0018
2308.00,0.0018
2307.00,0.0018
2306.00,0.0019
2305.00,0.0019
2304.00,0.0019
2303.00,0.0020
2302.00,0.0020
2301.00,0.0020
2300.00,0.0020
2299.00,0.0021
2298.00,0.0021
2297.00,0.0022
2296.00,0.0022
2295.00,0.0023
2294.00,0.0024
2293.00,0.0025
2292.00,0.0025
2291.00,0.0026
2290.00,0.0027
2289.00,0.0027
2288.00,0.0027
2287.00,0.0028
2286.00,0.0027
2285.00,0.0027
2284.00,0.0026
2283.00,0.0025
2282.00,0.0024
2281.00,0.0024
2280.00,0.0024
2279.00,0.0024
2278.00,0.0023
2277.00,0.0023
2276.00,0.0022
2275.00,0.0021
2274.00,0.0020
2273.00,0.0020
2272.00,0.0021
2271.00,0.0022
2270.00,0.0022
2269.00,0.0022
2268.00,0.0021
2267.00,0.0020
2266.00,0.0019
2265.00,0.0018
2264.00,0.0018
2263.00,0.0019
2262.00,0.0020
2261.00,0.0020
2260.00,0.0020
2259.00,0.0020
2258.00,0.0019
2257.00,0.0019
2256.00,0.0018
2255.00,0.0017
2254.00,0.0017
2253.00,0.0017
2252.00,0.0018
2251.00,0.0018
2250.00,0.0018
2249.00,0.0018
2248.00,0.0018
2247.00,0.0018
2246.00,0.0017
2245.00,0.0017
2244.00,0.0017
2243.00,0.0017
2242.00,0.0018
2241.00,0.0018
2240.00,0.0018
2239.00,0.0018
2238.00,0.0019
2237.00,0.0019
2236.00,0.0019
2235.00,0.0019
2234.00,0.0018
2233.00,0.0017
2232.00,0.0017
2231.00,0.0016
2230.00,0.0016
2229.00,0.0016
2228.00,0.0016
2227.00,0.0017
2226.00,0.0017
2225.00,0.0016
2224.00,0.0015
2223.00,0.0015
2222.00,0.0015
2221.00,0.0015
2220.00,0.0016
2219.00,0.0016
2218.00,0.0017
2217.00,0.0017
2216.00,0.0018
2215.00,0.0018
2214.00,0.0018
2213.00,0.0018
2212.00,0.0017
2211.00,0.0017
2210.00,0.0018
2209.00,0.0018
2208.00,0.0018
2207.00,0.0017
2206.00,0.0017
2205.00,0.0016
2204.00,0.0016
2203.00,0.0016
2202.00,0.0015
2201.00,0.0016
2200.00,0.0016
2199.00,0.0016
2198.00,0.0016
2197.00,0.0015
2196.00,0.0015
2195.00,0.0015
2194.00,0.0015
2193.00,0.0016
2192.00,0.0017
2191.00,0.0017
2190.00,0.0017
2189.00,0.0018
2188.00,0.0018
2187.00,0.0018
2186.00,0.0018
2185.00,0.0017
2184.00,0.0016
2183.00,0.0014
2182.00,0.0012
2181.00,0.0012
2180.00,0.0012
2179.00,0.0013
2178.00,0.0013
2177.00,0.0013
2176.00,0.0013
2175.00,0.0013
2174.00,0.0014
2173.00,0.0014
2172.00,0.0015
2171.00,0.0017
2170.00,0.0020
2169.00,0.0022
2168.00,0.0022
2167.00,0.0021
2166.00,0.0020
2165.00,0.0020
2164.00,0.0023
2163.00,0.0025
2162.00,0.0022
2161.00,0.0014
2160.00,0.0001
2159.00,-0.0010
2158.00,-0.0015
2157.00,-0.0015
2156.00,-0.0012
2155.00,-0.0009
2154.00,-0.0008
2153.00,-0.0006
2152.00,-0.0004
2151.00,-0.0002
2150.00,-0.0000
2149.00,0.0001
2148.00,0.0001
2147.00,0.0000
2146.00,-0.0001
2145.00,-0.0002
2144.00,-0.0002
2143.00,-0.0001
2142.00,-0.0001
2141.00,-0.0000
2140.00,0.0000
2139.00,0.0000
2138.00,-0.0001
2137.00,-0.0002
2136.00,-0.0004
2135.00,-0.0005
2134.00,-0.0006
2133.00,-0.0005
2132.00,-0.0003
2131.00,-0.0002
2130.00,-0.0000
2129.00,0.0001
2128.00,0.0002
2127.00,0.0003
2126.00,0.0004
2125.00,0.0006
2124.00,0.0007
2123.00,0.0009
2122.00,0.0010
2121.00,0.0010
2120.00,0.0011
2119.00,0.0011
2118.00,0.0011
2117.00,0.0012
2116.00,0.0013
2115.00,0.0014
2114.00,0.0014
2113.00,0.0015
2112.00,0.0015
2111.00,0.0014
2110.00,0.0014
2109.00,0.0014
2108.00,0.0014
2107.00,0.0014
2106.00,0.0014
2105.00,0.0014
2104.00,0.0014
2103.00,0.0014
2102.00,0.0013
2101.00,0.0013
2100.00,0.0012
2099.00,0.0012
2098.00,0.0011
2097.00,0.0010
2096.00,0.0009
2095.00,0.0009
2094.00,0.0009
2093.00,0.0010
2092.00,0.0011
2091.00,0.0011
2090.00,0.0012
2089.00,0.0013
2088.00,0.0013
2087.00,0.0014
2086.00,0.0014
2085.00,0.0015
2084.00,0.0015
2083.00,0.0016
2082.00,0.0016
2081.00,0.0016
2080.00,0.0016
2079.00,0.0015
2078.00,0.0015
2077.00,0.0014
2076.00,0.0014
2075.00,0.0014
2074.00,0.0014
2073.00,0.0014
2072.00,0.0014
2071.00,0.0015
2070.00,0.0015
2069.00,0.0014
2068.00,0.0014
2067.00,0.0013
2066.00,0.0012
2065.00,0.0012
2064.00,0.0012
2063.00,0.0013
2062.00,0.0012
2061.00,0.0012
2060.00,0.0013
2059.00,0.0014
2058.00,0.0015
2057.00,0.0015
2056.00,0.0016
2055.00,0.0016
2054.00,0.0018
2053.00,0.0021
2052.00,0.0024
2051.00,0.0025
2050.00,0.0023
2049.00,0.0019
2048.00,0.0017
2047.00,0.0015
2046.00,0.0014
2045.00,0.0015
2044.00,0.0015
2043.00,0.0015
2042.00,0.0015
2041.00,0.0014
2040.00,0.0014
2039.00,0.0014
2038.00,0.0015
2037.00,0.0015
2036.00,0.0015
2035.00,0.0013
2034.00,0.0010
2033.00,0.0007
2032.00,0.0006
2031.00,0.0006
2030.00,0.0007
2029.00,0.0009
2028.00,0.0009
2027.00,0.0009
2026.00,0.0007
2025.00,0.0007
2024.00,0.0007
2023.00,0.0008
2022.00,0.0008
2021.00,0.0007
2020.00,0.0006
2019.00,0.0005
2018.00,0.0004
2017.00,0.0004
2016.00,0.0005
2015.00,0.0005
2014.00,0.0004
2013.00,0.0005
2012.00,0.0006
2011.00,0.0007
2010.00,0.0008
2009.00,0.0008
2008.00,0.0006
2007.00,0.0004
2006.00,0.0001
2005.00,-0.0000
2004.00,0.0000
2003.00,0.0001
2002.00,0.0003
2001.00,0.0005
2000.00,0.0007
1999.00,0.0007
1998.00,0.0007
1997.00,0.0008
1996.00,0.0009
1995.00,0.0010
1994.00,0.0011
1993.00,0.0011
1992.00,0.0010
1991.00,0.0010
1990.00,0.0011
1989.00,0.0012
1988.00,0.0013
1987.00,0.0014
1986.00,0.0015
1985.00,0.0016
1984.00,0.0019
1983.00,0.0021
1982.00,0.0023
1981.00,0.0022
1980.00,0.0020
1979.00,0.0015
1978.00,0.0009
1977.00,0.0005
1976.00,0.0002
1975.00,0.0002
1974.00,0.0003
1973.00,0.0004
1972.00,0.0005
1971.00,0.0004
1970.00,0.0003
1969.00,0.0001
1968.00,0.0001
1967.00,0.0002
1966.00,0.0002
1965.00,0.0002
1964.00,0.0002
1963.00,0.0001
1962.00,0.0000
1961.00,-0.0000
1960.00,-0.0001
1959.00,-0.0001
1958.00,-0.0001
1957.00,0.0000
1956.00,0.0002
1955.00,0.0003
1954.00,0.0003
1953.00,0.0004
1952.00,0.0004
1951.00,0.0004
1950.00,0.0003
1949.00,0.0003
1948.00,0.0002
1947.00,0.0002
1946.00,0.0002
1945.00,0.0002
1944.00,0.0003
1943.00,0.0003
1942.00,0.0004
1941.00,0.0004
1940.00,0.0004
1939.00,0.0004
1938.00,0.0004
1937.00,0.0004
1936.00,0.0005
1935.00,0.0006
1934.00,0.0006
1933.00,0.0006
1932.00,0.0006
1931.00,0.0006
1930.00,0.0005
1929.00,0.0005
1928.00,0.0005
1927.00,0.0005
1926.00,0.0005
1925.00,0.0005
1924.00,0.0005
1923.00,0.0006
1922.00,0.0006
1921.00,0.0007
1920.00,0.0007
1919.00,0.0008
1918.00,0.0008
1917.00,0.0009
1916.00,0.0010
1915.00,0.0010
1914.00,0.0009
1913.00,0.0009
1912.00,0.0009
1911.00,0.0009
1910.00,0.0009
1909.00,0.0009
1908.00,0.0009
1907.00,0.0009
1906.00,0.0009
1905.00,0.0008
1904.00,0.0008
1903.00,0.0008
1902.00,0.0008
1901.00,0.0009
1900.00,0.0009
1899.00,0.0010
1898.00,0.0010
1897.00,0.0010
1896.00,0.0010
1895.00,0.0010
1894.00,0.0010
1893.00,0.0010
1892.00,0.0010
1891.00,0.0009
1890.00,0.0009
1889.00,0.0009
1888.00,0.0010
1887.00,0.0010
1886.00,0.0010
1885.00,0.0010
1884.00,0.0011
1883.00,0.0011
1882.00,0.0011
1881.00,0.0010
1880.00,0.0010
1879.00,0.0010
1878.00,0.0010
1877.00,0.0011
1876.00,0.0011
1875.00,0.0011
1874.00,0.0011
1873.00,0.0011
1872.00,0.0010
1871.00,0.0010
1870.00,0.0010
1869.00,0.0010
1868.00,0.0010
1867.00,0.0010
1866.00,0.0010
1865.00,0.0011
1864.00,0.0011
1863.00,0.0012
1862.00,0.0012
1861.00,0.0012
1860.00,0.0012
1859.00,0.0011
1858.00,0.0011
1857.00,0.0010
1856.00,0.0010
1855.00,0.0010
1854.00,0.0011
1853.00,0.0011
1852.00,0.0011
1851.00,0.0011
1850.00,0.0011
1849.00,0.0011
1848.00,0.0011
1847.00,0.0011
1846.00,0.0012
1845.00,0.0012
1844.00,0.0013
1843.00,0.0013
1842.00,0.0012
1841.00,0.0012
1840.00,0.0012
1839.00,0.0012
1838.00,0.0012
1837.00,0.0012
1836.00,0.0013
1835.00,0.0013
1834.00,0.0013
1833.00,0.0012
1832.00,0.0012
1831.00,0.0012
1830.00,0.0012
1829.00,0.0013
1828.00,0.0013
1827.00,0.0013
1826.00,0.0014
1825.00,0.0014
1824.00,0.0015
1823.00,0.0015
1822.00,0.0015
1821.00,0.0014
1820.00,0.0013
1819.00,0.0013
1818.00,0.0012
1817.00,0.0011
1816.00,0.0012
1815.00,0.0013
1814.00,0.0013
1813.00,0.0014
1812.00,0.0014
1811.00,0.0015
1810.00,0.0015
1809.00,0.0016
1808.00,0.0016
1807.00,0.0016
1806.00,0.0016
1805.00,0.0016
1804.00,0.0016
1803.00,0.0017
1802.00,0.0017
1801.00,0.0018
1800.00,0.0018
1799.00,0.0018
1798.00,0.0018
1797.00,0.0018
1796.00,0.0018
1795.00,0.0019
1794.00,0.0019
1793.00,0.0020
1792.00,0.0020
1791.00,0.0021
1790.00,0.0021
1789.00,0.0021
1788.00,0.0021
1787.00,0.0021
1786.00,0.0021
1785.00,0.0021
1784.00,0.0021
1783.00,0.0022
1782.00,0.0022
1781.00,0.0022
1780.00,0.0023
1779.00,0.0023
1778.00,0.0023
1777.00,0.0023
1776.00,0.0023
1775.00,0.0024
1774.00,0.0024
1773.00,0.0025
1772.00,0.0026
1771.00,0.0028
1770.00,0.0029
1769.00,0.0030
1768.00,0.0032
1767.00,0.0033
1766.00,0.0034
1765.00,0.0035
1764.00,0.0037
1763.00,0.0039
1762.00,0.0041
1761.00,0.0042
1760.00,0.0044
1759.00,0.0046
1758.00,0.0047
1757.00,0.0049
1756.00,0.0051
1755.00,0.0052
1754.00,0.0054
1753.00,0.0055
1752.00,0.0057
1751.00,0.0058
1750.00,0.0059
1749.00,0.0060
1748.00,0.0062
1747.00,0.0063
1746.00,0.0064
1745.00,0.0066
1744.00,0.0067
1743.00,0.0068
1742.00,0.0069
1741.00,0.0071
1740.00,0.0072
1739.00,0.0073
1738.00,0.0074
1737.00,0.0076
1736.00,0.0078
1735.00,0.0080
1734.00,0.0081
1733.00,0.0082
1732.00,0.0082
1731.00,0.0082
1730.00,0.0082
1729.00,0.0084
1728.00,0.0085
1727.00,0.0087
1726.00,0.0088
1725.00,0.0089
1724.00,0.0090
1723.00,0.0092
1722.00,0.0093
1721.00,0.0095
1720.00,0.0097
1719.00,0.0099
1718.00,0.0100
1717.00,0.0102
1716.00,0.0104
1715.00,0.0106
1714.00,0.0107
1713.00,0.0109
1712.00,0.0112
1711.00,0.0115
1710.00,0.0118
1709.00,0.0122
1708.00,0.0126
1707.00,0.0131
1706.00,0.0137
1705.00,0.0144
1704.00,0.0152
1703.00,0.0162
1702.00,0.0172
1701.00,0.0186
1700.00,0.0201
1699.00,0.0214
1698.00,0.0225
1697.00,0.0235
1696.00,0.0245
1695.00,0.0254
1694.00,0.0260
1693.00,0.0265
1692.00,0.0270
1691.00,0.0275
1690.00,0.0281
1689.00,0.0287
1688.00,0.0294
1687.00,0.0302
1686.00,0.0310
1685.00,0.0317
1684.00,0.0323
1683.00,0.0330
1682.00,0.0337
1681.00,0.0345
1680.00,0.0354
1679.00,0.0363
1678.00,0.0371
1677.00,0.0380
1676.00,0.0388
1675.00,0.0396
1674.00,0.0403
1673.00,0.0411
1672.00,0.0420
1671.00,0.0428
1670.00,0.0435
1669.00,0.0443
1668.00,0.0452
1667.00,0.0461
1666.00,0.0470
1665.00,0.0479
1664.00,0.0488
1663.00,0.0496
1662.00,0.0504
1661.00,0.0512
1660.00,0.0521
1659.00,0.0530
1658.00,0.0539
1657.00,0.0549
1656.00,0.0560
1655.00,0.0570
1654.00,0.0574
1653.00,0.0575
1652.00,0.0576
1651.00,0.0581
1650.00,0.0587
1649.00,0.0593
1648.00,0.0597
1647.00,0.0599
1646.00,0.0600
1645.00,0.0603
1644.00,0.0607
1643.00,0.0612
1642.00,0.0616
1641.00,0.0621
1640.00,0.0626
1639.00,0.0632
1638.00,0.0639
1637.00,0.0644
1636.00,0.0648
1635.00,0.0653
1634.00,0.0660
1633.00,0.0669
1632.00,0.0681
1631.00,0.0692
1630.00,0.0703
1629.00,0.0713
1628.00,0.0723
1627.00,0.0733
1626.00,0.0743
1625.00,0.0751
1624.00,0.0757
1623.00,0.0761
1622.00,0.0762
1621.00,0.0764
1620.00,0.0767
1619.00,0.0767
1618.00,0.0760
1617.00,0.0745
1616.00,0.0726
1615.00,0.0709
1614.00,0.0695
1613.00,0.0680
1612.00,0.0663
1611.00,0.0643
1610.00,0.0622
1609.00,0.0599
1608.00,0.0577
1607.00,0.0556
1606.00,0.0536
1605.00,0.0518
1604.00,0.0500
1603.00,0.0482
1602.00,0.0467
1601.00,0.0452
1600.00,0.0439
1599.00,0.0427
1598.00,0.0415
1597.00,0.0405
1596.00,0.0395
1595.00,0.0386
1594.00,0.0378
1593.00,0.0370
1592.00,0.0363
1591.00,0.0357
1590.00,0.0351
1589.00,0.0346
1588.00,0.0342
1587.00,0.0339
1586.00,0.0336
1585.00,0.0334
1584.00,0.0333
1583.00,0.0332
1582.00,0.0332
1581.00,0.0332
1580.00,0.0334
1579.00,0.0336
1578.00,0.0339
1577.00,0.0342
1576.00,0.0345
1575.00,0.0347
1574.00,0.0351
1573.00,0.0356
1572.00,0.0362
1571.00,0.0367
1570.00,0.0373
1569.00,0.0379
1568.00,0.0386
1567.00,0.0392
1566.00,0.0399
1565.00,0.0407
1564.00,0.0414
1563.00,0.0423
1562.00,0.0433
1561.00,0.0442
1560.00,0.0449
1559.00,0.0454
1558.00,0.0462
1557.00,0.0471
1556.00,0.0480
1555.00,0.0488
1554.00,0.0497
1553.00,0.0506
1552.00,0.0515
1551.00,0.0523
1550.00,0.0531
1549.00,0.0539
1548.00,0.0548
1547.00,0.0557
1546.00,0.0565
1545.00,0.0572
1544.00,0.0580
1543.00,0.0587
1542.00,0.0594
1541.00,0.0600
1540.00,0.0604
1539.00,0.0608
1538.00,0.0614
1537.00,0.0621
1536.00,0.0628
1535.00,0.0635
1534.00,0.0638
1533.00,0.0641
1532.00,0.0645
1531.00,0.0651
1530.00,0.0656
1529.00,0.0660
1528.00,0.0663
1527.00,0.0665
1526.00,0.0667
1525.00,0.0669
1524.00,0.0671
1523.00,0.0673
1522.00,0.0673
1521.00,0.0671
1520.00,0.0670
1519.00,0.0671
1518.00,0.0672
1517.00,0.0671
1516.00,0.0669
1515.00,0.0666
1514.00,0.0663
1513.00,0.0657
1512.00,0.0650
1511.00,0.0641
1510.00,0.0634
1509.00,0.0626
1508.00,0.0613
1507.00,0.0594
1506.00,0.0575
1505.00,0.0561
1504.00,0.0551
1503.00,0.0543
1502.00,0.0534
1501.00,0.0524
1500.00,0.0513
1499.00,0.0502
1498.00,0.0490
1497.00,0.0477
1496.00,0.0463
1495.00,0.0450
1494.00,0.0439
1493.00,0.0429
1492.00,0.0419
1491.00,0.0406
1490.00,0.0393
1489.00,0.0380
1488.00,0.0370
1487.00,0.0361
1486.00,0.0353
1485.00,0.0345
1484.00,0.0339
1483.00,0.0333
1482.00,0.0327
1481.00,0.0321
1480.00,0.0318
1479.00,0.0315
1478.00,0.0314
1477.00,0.0313
1476.00,0.0313
1475.00,0.0315
1474.00,0.0317
1473.00,0.0320
1472.00,0.0324
1471.00,0.0328
1470.00,0.0331
1469.00,0.0334
1468.00,0.0336
1467.00,0.0338
1466.00,0.0338
1465.00,0.0338
1464.00,0.0337
1463.00,0.0338
1462.00,0.0339
1461.00,0.0342
1460.00,0.0345
1459.00,0.0348
1458.00,0.0352
1457.00,0.0355
1456.00,0.0358
1455.00,0.0361
1454.00,0.0362
1453.00,0.0364
1452.00,0.0365
1451.00,0.0366
1450.00,0.0367
1449.00,0.0367
1448.00,0.0366
1447.00,0.0365
1446.00,0.0365
1445.00,0.0364
1444.00,0.0363
1443.00,0.0362
1442.00,0.0361
1441.00,0.0359
1440.00,0.0358
1439.00,0.0357
1438.00,0.0355
1437.00,0.0350
1436.00,0.0344
1435.00,0.0339
1434.00,0.0335
1433.00,0.0331
1432.00,0.0327
1431.00,0.0322
1430.00,0.0318
1429.00,0.0315
1428.00,0.0313
1427.00,0.0311
1426.00,0.0311
1425.00,0.0310
1424.00,0.0310
1423.00,0.0311
1422.00,0.0313
1421.00,0.0316
1420.00,0.0318
1419.00,0.0320
1418.00,0.0323
1417.00,0.0325
1416.00,0.0328
1415.00,0.0332
1414.00,0.0335
1413.00,0.0338
1412.00,0.0341
1411.00,0.0344
1410.00,0.0346
1409.00,0.0349
1408.00,0.0351
1407.00,0.0353
1406.00,0.0355
1405.00,0.0357
1404.00,0.0358
1403.00,0.0360
1402.00,0.0362
1401.00,0.0363
1400.00,0.0364
1399.00,0.0365
1398.00,0.0365
1397.00,0.0366
1396.00,0.0367
1395.00,0.0368
1394.00,0.0369
1393.00,0.0370
1392.00,0.0372
1391.00,0.0373
1390.00,0.0374
1389.00,0.0374
1388.00,0.0374
1387.00,0.0372
1386.00,0.0369
1385.00,0.0366
1384.00,0.0363
1383.00,0.0360
1382.00,0.0356
1381.00,0.0352
1380.00,0.0348
1379.00,0.0345
1378.00,0.0342
1377.00,0.0339
1376.00,0.0336
1375.00,0.0333
1374.00,0.0331
1373.00,0.0330
1372.00,0.0329
1371.00,0.0329
1370.00,0.0328
1369.00,0.0326
1368.00,0.0324
1367.00,0.0321
1366.00,0.0317
1365.00,0.0313
1364.00,0.0309
1363.00,0.0305
1362.00,0.0302
1361.00,0.0299
1360.00,0.0297
1359.00,0.0296
1358.00,0.0295
1357.00,0.0294
1356.00,0.0293
1355.00,0.0291
1354.00,0.0291
1353.00,0.0290
1352.00,0.0290
1351.00,0.0289
1350.00,0.0289
1349.00,0.0289
1348.00,0.0289
1347.00,0.0289
1346.00,0.0289
1345.00,0.0289
1344.00,0.0289
1343.00,0.0289
1342.00,0.0289
1341.00,0.0289
1340.00,0.0288
1339.00,0.0287
1338.00,0.0287
1337.00,0.0286
1336.00,0.0286
1335.00,0.0285
1334.00,0.0284
1333.00,0.0284
1332.00,0.0283
1331.00,0.0282
1330.00,0.0282
1329.00,0.0281
1328.00,0.0282
1327.00,0.0282
1326.00,0.0282
1325.00,0.0283
1324.00,0.0283
1323.00,0.0284
1322.00,0.0284
1321.00,0.0285
1320.00,0.0285
1319.00,0.0286
1318.00,0.0287
1317.00,0.0288
1316.00,0.0289
1315.00,0.0290
1314.00,0.0290
1313.00,0.0290
1312.00,0.0291
1311.00,0.0291
1310.00,0.0291
1309.00,0.0291
1308.00,0.0291
1307.00,0.0291
1306.00,0.0291
1305.00,0.0291
1304.00,0.0292
1303.00,0.0292
1302.00,0.0292
1301.00,0.0293
1300.00,0.0293
1299.00,0.0294
1298.00,0.0294
1297.00,0.0295
1296.00,0.0296
1295.00,0.0297
1294.00,0.0299
1293.00,0.0300
1292.00,0.0302
1291.00,0.0304
1290.00,0.0305
1289.00,0.0307
1288.00,0.0308
1287.00,0.0310
1286.00,0.0311
1285.00,0.0313
1284.00,0.0314
1283.00,0.0315
1282.00,0.0317
1281.00,0.0318
1280.00,0.0319
1279.00,0.0320
1278.00,0.0321
1277.00,0.0322
1276.00,0.0322
1275.00,0.0323
1274.00,0.0323
1273.00,0.0324
1272.00,0.0326
1271.00,0.0327
1270.00,0.0329
1269.00,0.0331
1268.00,0.0333
1267.00,0.0336
1266.00,0.0339
1265.00,0.0342
1264.00,0.0345
1263.00,0.0349
1262.00,0.0352
1261.00,0.0356
1260.00,0.0359
1259.00,0.0363
1258.00,0.0366
1257.00,0.0369
1256.00,0.0372
1255.00,0.0376
1254.00,0.0379
1253.00,0.0383
1252.00,0.0386
1251.00,0.0389
1250.00,0.0392
1249.00,0.0396
1248.00,0.0399
1247.00,0.0402
1246.00,0.0405
1245.00,0.0407
1244.00,0.0410
1243.00,0.0413
1242.00,0.0416
1241.00,0.0418
1240.00,0.0421
1239.00,0.0424
1238.00,0.0426
1237.00,0.0428
1236.00,0.0431
1235.00,0.0432
1234.00,0.0434
1233.00,0.0435
1232.00,0.0436
1231.00,0.0437
1230.00,0.0437
1229.00,0.0438
1228.00,0.0437
1227.00,0.0437
1226.00,0.0436
1225.00,0.0435
1224.00,0.0433
1223.00,0.0431
1222.00,0.0429
1221.00,0.0427
1220.00,0.0424
1219.00,0.0422
1218.00,0.0419
1217.00,0.0415
1216.00,0.0412
1215.00,0.0408
1214.00,0.0403
1213.00,0.0399
1212.00,0.0395
1211.00,0.0390
1210.00,0.0386
1209.00,0.0381
1208.00,0.0377
1207.00,0.0373
1206.00,0.0369
1205.00,0.0365
1204.00,0.0361
1203.00,0.0358
1202.00,0.0354
1201.00,0.0350
1200.00,0.0347
1199.00,0.0344
1198.00,0.0342
1197.00,0.0339
1196.00,0.0337
1195.00,0.0335
1194.00,0.0333
1193.00,0.0331
1192.00,0.0329
1191.00,0.0327
1190.00,0.0325
1189.00,0.0324
1188.00,0.0323
1187.00,0.0322
1186.00,0.0322
1185.00,0.0322
1184.00,0.0321
1183.00,0.0321
1182.00,0.0321
1181.00,0.0321
1180.00,0.0322
1179.00,0.0324
1178.00,0.0326
1177.00,0.0328
1176.00,0.0330
1175.00,0.0332
1174.00,0.0335
1173.00,0.0336
1172.00,0.0338
1171.00,0.0339
1170.00,0.0340
1169.00,0.0341
1168.00,0.0342
1167.00,0.0342
1166.00,0.0343
1165.00,0.0343
1164.00,0.0343
1163.00,0.0344
1162.00,0.0344
1161.00,0.0345
1160.00,0.0346
1159.00,0.0346
1158.00,0.0346
1157.00,0.0346
1156.00,0.0345
1155.00,0.0344
1154.00,0.0343
1153.00,0.0342
1152.00,0.0340
1151.00,0.0337
1150.00,0.0335
1149.00,0.0332
1148.00,0.0329
1147.00,0.0326
1146.00,0.0323
1145.00,0.0320
1144.00,0.0317
1143.00,0.0314
1142.00,0.0312
1141.00,0.0309
1140.00,0.0308
1139.00,0.0306
1138.00,0.0305
1137.00,0.0304
1136.00,0.0304
1135.00,0.0304
1134.00,0.0305
1133.00,0.0306
1132.00,0.0307
1131.00,0.0308
1130.00,0.0309
1129.00,0.0311
1128.00,0.0312
1127.00,0.0314
1126.00,0.0315
1125.00,0.0317
1124.00,0.0318
1123.00,0.0320
1122.00,0.0321
1121.00,0.0322
1120.00,0.0324
1119.00,0.0325
1118.00,0.0327
1117.00,0.0328
1116.00,0.0330
1115.00,0.0331
1114.00,0.0332
1113.00,0.0333
1112.00,0.0334
1111.00,0.0334
1110.00,0.0335
1109.00,0.0336
1108.00,0.0337
1107.00,0.0337
1106.00,0.0338
1105.00,0.0340
1104.00,0.0341
1103.00,0.0342
1102.00,0.0344
1101.00,0.0345
1100.00,0.0347
1099.00,0.0349
1098.00,0.0351
1097.00,0.0353
1096.00,0.0355
1095.00,0.0358
1094.00,0.0361
1093.00,0.0364
1092.00,0.0367
1091.00,0.0371
1090.00,0.0375
1089.00,0.0380
1088.00,0.0385
1087.00,0.0390
1086.00,0.0395
1085.00,0.0400
1084.00,0.0405
1083.00,0.0410
1082.00,0.0414
1081.00,0.0418
1080.00,0.0422
1079.00,0.0425
1078.00,0.0428
1077.00,0.0430
1076.00,0.0432
1075.00,0.0433
1074.00,0.0433
1073.00,0.0433
1072.00,0.0434
1071.00,0.0434
1070.00,0.0434
1069.00,0.0434
1068.00,0.0435
1067.00,0.0436
1066.00,0.0437
1065.00,0.0438
1064.00,0.0439
1063.00,0.0439
1062.00,0.0440
1061.00,0.0442
1060.00,0.0443
1059.00,0.0444
1058.00,0.0445
1057.00,0.0445
1056.00,0.0444
1055.00,0.0444
1054.00,0.0443
1053.00,0.0442
1052.00,0.0442
1051.00,0.0441
1050.00,0.0440
1049.00,0.0439
1048.00,0.0438
1047.00,0.0436
1046.00,0.0435
1045.00,0.0434
1044.00,0.0433
1043.00,0.0431
1042.00,0.0429
1041.00,0.0427
1040.00,0.0426
1039.00,0.0424
1038.00,0.0422
1037.00,0.0420
1036.00,0.0418
1035.00,0.0417
1034.00,0.0416
1033.00,0.0415
1032.00,0.0414
1031.00,0.0413
1030.00,0.0412
1029.00,0.0411
1028.00,0.0410
1027.00,0.0409
1026.00,0.0407
1025.00,0.0405
1024.00,0.0403
1023.00,0.0401
1022.00,0.0399
1021.00,0.0396
1020.00,0.0392
1019.00,0.0389
1018.00,0.0385
1017.00,0.0382
1016.00,0.0378
1015.00,0.0375
1014.00,0.0371
1013.00,0.0368
1012.00,0.0363
1011.00,0.0359
1010.00,0.0355
1009.00,0.0350
1008.00,0.0346
1007.00,0.0342
1006.00,0.0338
1005.00,0.0334
1004.00,0.0330
1003.00,0.0327
1002.00,0.0323
1001.00,0.0320
1000.00,0.0316
999.00,0.0313
998.00,0.0309
997.00,0.0306
996.00,0.0302
995.00,0.0298
994.00,0.0295
993.00,0.0291
992.00,0.0288
991.00,0.0285
990.00,0.0281
989.00,0.0278
988.00,0.0275
987.00,0.0273
986.00,0.0270
985.00,0.0268
984.00,0.0266
983.00,0.0265
982.00,0.0264
981.00,0.0263
980.00,0.0262
979.00,0.0261
978.00,0.0261
977.00,0.0261
976.00,0.0261
975.00,0.0261
974.00,0.0262
973.00,0.0262
972.00,0.0263
971.00,0.0264
970.00,0.0264
969.00,0.0265
968.00,0.0265
967.00,0.0265
966.00,0.0266
965.00,0.0266
964.00,0.0266
963.00,0.0265
962.00,0.0265
961.00,0.0265
960.00,0.0265
959.00,0.0265
958.00,0.0264
957.00,0.0264
956.00,0.0263
955.00,0.0262
954.00,0.0262
953.00,0.0261
952.00,0.0261
951.00,0.0260
950.00,0.0260
949.00,0.0260
948.00,0.0261
947.00,0.0261
946.00,0.0262
945.00,0.0263
944.00,0.0264
943.00,0.0265
942.00,0.0266
941.00,0.0267
940.00,0.0268
939.00,0.0269
938.00,0.0270
937.00,0.0271
936.00,0.0272
935.00,0.0273
934.00,0.0274
933.00,0.0275
932.00,0.0275
931.00,0.0275
930.00,0.0275
929.00,0.0275
928.00,0.0275
927.00,0.0275
926.00,0.0274
925.00,0.0274
924.00,0.0273
923.00,0.0272
922.00,0.0271
921.00,0.0271
920.00,0.0270
919.00,0.0269
918.00,0.0268
917.00,0.0267
916.00,0.0266
915.00,0.0264
914.00,0.0263
913.00,0.0262
912.00,0.0261
911.00,0.0261
910.00,0.0260
909.00,0.0260
908.00,0.0259
907.00,0.0258
906.00,0.0258
905.00,0.0257
904.00,0.0257
903.00,0.0256
902.00,0.0255
901.00,0.0255
900.00,0.0254
899.00,0.0254
898.00,0.0253
897.00,0.0253
896.00,0.0252
895.00,0.0252
894.00,0.0252
893.00,0.0252
892.00,0.0252
891.00,0.0252
890.00,0.0251
889.00,0.0251
888.00,0.0252
887.00,0.0252
886.00,0.0253
885.00,0.0253
884.00,0.0253
883.00,0.0253
882.00,0.0253
881.00,0.0253
880.00,0.0253
879.00,0.0252
878.00,0.0251
877.00,0.0251
876.00,0.0250
875.00,0.0250
874.00,0.0249
873.00,0.0249
872.00,0.0249
871.00,0.0248
870.00,0.0248
869.00,0.0248
868.00,0.0249
867.00,0.0250
866.00,0.0251
865.00,0.0252
864.00,0.0253
863.00,0.0255
862.00,0.0256
861.00,0.0257
860.00,0.0258
859.00,0.0260
858.00,0.0262
857.00,0.0263
856.00,0.0265
855.00,0.0267
854.00,0.0268
853.00,0.0270
852.00,0.0271
851.00,0.0272
850.00,0.0272
849.00,0.0272
848.00,0.0272
847.00,0.0272
846.00,0.0273
845.00,0.0273
844.00,0.0274
843.00,0.0276
842.00,0.0277
841.00,0.0279
840.00,0.0280
839.00,0.0282
838.00,0.0284
837.00,0.0286
836.00,0.0289
835.00,0.0291
834.00,0.0293
833.00,0.0296
832.00,0.0298
831.00,0.0300
830.00,0.0302
829.00,0.0303
828.00,0.0305
827.00,0.0306
826.00,0.0307
825.00,0.0308
824.00,0.0309
823.00,0.0310
822.00,0.0310
821.00,0.0311
820.00,0.0312
819.00,0.0312
818.00,0.0314
817.00,0.0315
816.00,0.0317
815.00,0.0318
814.00,0.0320
813.00,0.0321
812.00,0.0323
811.00,0.0325
810.00,0.0326
809.00,0.0328
808.00,0.0330
807.00,0.0332
806.00,0.0334
805.00,0.0336
804.00,0.0338
803.00,0.0339
802.00,0.0342
801.00,0.0344
800.00,0.0347
799.00,0.0350
798.00,0.0353
797.00,0.0355
796.00,0.0358
795.00,0.0360
794.00,0.0363
793.00,0.0366
792.00,0.0369
791.00,0.0373
790.00,0.0376
789.00,0.0380
788.00,0.0383
787.00,0.0387
786.00,0.0391
785.00,0.0395
784.00,0.0398
783.00,0.0401
782.00,0.0404
781.00,0.0406
780.00,0.0407
779.00,0.0409
778.00,0.0410
777.00,0.0411
776.00,0.0412
775.00,0.0414
774.00,0.0415
773.00,0.0415
772.00,0.0416
771.00,0.0417
770.00,0.0418
769.00,0.0420
768.00,0.0421
767.00,0.0423
766.00,0.0424
765.00,0.0425
764.00,0.0426
763.00,0.0428
762.00,0.0430
761.00,0.0432
760.00,0.0434
759.00,0.0436
758.00,0.0438
757.00,0.0440
756.00,0.0442
755.00,0.0445
754.00,0.0448
753.00,0.0451
752.00,0.0455
751.00,0.0459
750.00,0.0462
749.00,0.0465
748.00,0.0469
747.00,0.0472
746.00,0.0476
745.00,0.0479
744.00,0.0482
743.00,0.0485
742.00,0.0488
741.00,0.0490
740.00,0.0492
739.00,0.0494
738.00,0.0495
737.00,0.0497
736.00,0.0499
735.00,0.0502
734.00,0.0505
733.00,0.0509
732.00,0.0514
731.00,0.0519
730.00,0.0524
729.00,0.0529
728.00,0.0535
727.00,0.0541
726.00,0.0547
725.00,0.0554
724.00,0.0561
723.00,0.0568
722.00,0.0575
721.00,0.0581
720.00,0.0587
719.00,0.0593
718.00,0.0599
717.00,0.0604
716.00,0.0609
715.00,0.0615
714.00,0.0620
713.00,0.0625
712.00,0.0630
711.00,0.0635
710.00,0.0640
709.00,0.0645
708.00,0.0651
707.00,0.0657
706.00,0.0665
705.00,0.0672
704.00,0.0679
703.00,0.0686
702.00,0.0693
701.00,0.0698
700.00,0.0702
699.00,0.0705
698.00,0.0707
697.00,0.0708
696.00,0.0709
695.00,0.0709
694.00,0.0708
693.00,0.0708
692.00,0.0707
691.00,0.0706
690.00,0.0706
689.00,0.0706
688.00,0.0707
687.00,0.0708
686.00,0.0709
685.00,0.0711
684.00,0.0713
683.00,0.0715
682.00,0.0716
681.00,0.0717
680.00,0.0718
679.00,0.0719
678.00,0.0721
677.00,0.0722
676.00,0.0723
675.00,0.0724
674.00,0.0725
673.00,0.0727
672.00,0.0729
671.00,0.0732
670.00,0.0734
669.00,0.0737
668.00,0.0739
667.00,0.0741
666.00,0.0743
665.00,0.0744
664.00,0.0746
663.00,0.0747
662.00,0.0749
661.00,0.0750
660.00,0.0751
659.00,0.0753
658.00,0.0755
657.00,0.0757
656.00,0.0759
655.00,0.0760
654.00,0.0762
653.00,0.0764
652.00,0.0766
651.00,0.0767
650.00,0.0769
649.00,0.0770
648.00,0.0771
647.00,0.0773
646.00,0.0774
645.00,0.0776
644.00,0.0778
643.00,0.0781
642.00,0.0783
641.00,0.0785
640.00,0.0787
639.00,0.0789
638.00,0.0791
637.00,0.0793
636.00,0.0795
635.00,0.0797
634.00,0.0799
633.00,0.0802
632.00,0.0804
631.00,0.0806
630.00,0.0809
629.00,0.0813
628.00,0.0816
627.00,0.0819
626.00,0.0821
625.00,0.0823
624.00,0.0824
623.00,0.0825
622.00,0.0827
621.00,0.0829
620.00,0.0831
619.00,0.0832
618.00,0.0832
617.00,0.0831
616.00,0.0831
615.00,0.0831
614.00,0.0831
613.00,0.0832
612.00,0.0832
611.00,0.0832
610.00,0.0832
609.00,0.0834
608.00,0.0836
607.00,0.0838
606.00,0.0839
605.00,0.0840
604.00,0.0842
603.00,0.0844
602.00,0.0846
601.00,0.0848
600.00,0.0849
599.00,0.0849
598.00,0.0849
597.00,0.0851
596.00,0.0854
595.00,0.0856
594.00,0.0859
593.00,0.0860
592.00,0.0861
591.00,0.0862
590.00,0.0862
589.00,0.0862
588.00,0.0863
587.00,0.0864
586.00,0.0866
585.00,0.0869
584.00,0.0873
583.00,0.0876
582.00,0.0879
581.00,0.0880
580.00,0.0882
579.00,0.0884
578.00,0.0887
577.00,0.0890
576.00,0.0894
575.00,0.0897
574.00,0.0900
573.00,0.0903
572.00,0.0904
571.00,0.0905
570.00,0.0907
569.00,0.0909
568.00,0.0912
567.00,0.0915
566.00,0.0918
565.00,0.0920
564.00,0.0922
563.00,0.0924
562.00,0.0925
561.00,0.0926
560.00,0.0927
559.00,0.0929
558.00,0.0932
557.00,0.0936
556.00,0.0941
555.00,0.0945
554.00,0.0948
553.00,0.0949
552.00,0.0951
551.00,0.0953
550.00,0.0956
549.00,0.0959
548.00,0.0963
547.00,0.0965
546.00,0.0967
545.00,0.0968
544.00,0.0969
543.00,0.0971
542.00,0.0975
541.00,0.0979
540.00,0.0982
539.00,0.0985
538.00,0.0988
537.00,0.0991
536.00,0.0993
535.00,0.0994
534.00,0.0996
533.00,0.0999
532.00,0.1003
531.00,0.1005
530.00,0.1006
529.00,0.1008
528.00,0.1009
527.00,0.1010
526.00,0.1011
525.00,0.1012
524.00,0.1013
523.00,0.1015
522.00,0.1017
521.00,0.1020
520.00,0.1023
519.00,0.1026
518.00,0.1030
517.00,0.1033
516.00,0.1036
515.00,0.1037
514.00,0.1038
513.00,0.1040
512.00,0.1041
511.00,0.1042
510.00,0.1043
509.00,0.1044
508.00,0.1046
507.00,0.1048
506.00,0.1048
505.00,0.1048
504.00,0.1048
503.00,0.1048
502.00,0.1049
501.00,0.1051
500.00,0.1054
499.00,0.1057
498.00,0.1058
497.00,0.1058
496.00,0.1058
495.00,0.1058
494.00,0.1059
493.00,0.1060
492.00,0.1062
491.00,0.1062
490.00,0.1062
489.00,0.1062
488.00,0.1064
487.00,0.1065
486.00,0.1065
485.00,0.1064
484.00,0.1063
483.00,0.1062
482.00,0.1062
481.00,0.1061
480.00,0.1060
479.00,0.1058
478.00,0.1058
477.00,0.1060
476.00,0.1063
475.00,0.1067
474.00,0.1069
473.00,0.1069
472.00,0.1070
471.00,0.1070
470.00,0.1070
469.00,0.1070
468.00,0.1070
467.00,0.1070
466.00,0.1070
465.00,0.1070
464.00,0.1072
463.00,0.1073
462.00,0.1073
461.00,0.1073
460.00,0.1074
459.00,0.1076
458.00,0.1077
457.00,0.1076
456.00,0.1071
455.00,0.1068
454.00,0.1067
453.00,0.1070
452.00,0.1074
451.00,0.1075
450.00,0.1071
449.00,0.1066
448.00,0.1062
447.00,0.1061
446.00,0.1059
445.00,0.1057
444.00,0.1054
443.00,0.1050
442.00,0.1046
441.00,0.1045
440.00,0.1045
439.00,0.1045
438.00,0.1045
437.00,0.1046
436.00,0.1046
435.00,0.1046
434.00,0.1045
433.00,0.1044
432.00,0.1045
431.00,0.1046
430.00,0.1046
429.00,0.1045
428.00,0.1043
427.00,0.1041
426.00,0.1038
425.00,0.1035
424.00,0.1033
423.00,0.1033
422.00,0.1035
421.00,0.1036
420.00,0.1036
419.00,0.1036
418.00,0.1040
417.00,0.1046
416.00,0.1049
415.00,0.1047
414.00,0.1041
413.00,0.1035
412.00,0.1033
411.00,0.1034
410.00,0.1036
409.00,0.1038
408.00,0.1039
407.00,0.1038
406.00,0.1035
405.00,0.1030
404.00,0.1022
403.00,0.1013
402.00,0.1008
401.00,0.1009
400.00,0.1012
