Created as New Dataset,Sample 586 By YargerLab Date Thursday, June 05 2025
cm-1,A
4000.00,0.0193
3999.00,0.0193
3998.00,0.0193
3997.00,0.0193
3996.00,0.0192
3995.00,0.0192
3994.00,0.0192
3993.00,0.0192
3992.00,0.0192
3991.00,0.0192
3990.00,0.0192
3989.00,0.0192
3988.00,0.0192
3987.00,0.0192
3986.00,0.0192
3985.00,0.0192
3984.00,0.0192
3983.00,0.0192
3982.00,0.0192
3981.00,0.0192
3980.00,0.0192
3979.00,0.0192
3978.00,0.0192
3977.00,0.0192
3976.00,0.0192
3975.00,0.0192
3974.00,0.0192
3973.00,0.0192
3972.00,0.0192
3971.00,0.0191
3970.00,0.0191
3969.00,0.0191
3968.00,0.0191
3967.00,0.0191
3966.00,0.0191
3965.00,0.0191
3964.00,0.0191
3963.00,0.0191
3962.00,0.0191
3961.00,0.0191
3960.00,0.0192
3959.00,0.0192
3958.00,0.0192
3957.00,0.0192
3956.00,0.0192
3955.00,0.0192
3954.00,0.0192
3953.00,0.0192
3952.00,0.0192
3951.00,0.0192
3950.00,0.0191
3949.00,0.0191
3948.00,0.0191
3947.00,0.0191
3946.00,0.0191
3945.00,0.0191
3944.00,0.0191
3943.00,0.0191
3942.00,0.0191
3941.00,0.0191
3940.00,0.0191
3939.00,0.0190
3938.00,0.0190
3937.00,0.0190
3936.00,0.0190
3935.00,0.0190
3934.00,0.0190
3933.00,0.0190
3932.00,0.0190
3931.00,0.0190
3930.00,0.0190
3929.00,0.0190
3928.00,0.0190
3927.00,0.0190
3926.00,0.0190
3925.00,0.0190
3924.00,0.0190
3923.00,0.0190
3922.00,0.0190
3921.00,0.0190
3920.00,0.0189
3919.00,0.0189
3918.00,0.0189
3917.00,0.0189
3916.00,0.0189
3915.00,0.0189
3914.00,0.0189
3913.00,0.0189
3912.00,0.0189
3911.00,0.0189
3910.00,0.0189
3909.00,0.0189
3908.00,0.0189
3907.00,0.0189
3906.00,0.0189
3905.00,0.0189
3904.00,0.0188
3903.00,0.0188
3902.00,0.0188
3901.00,0.0187
3900.00,0.0188
3899.00,0.0188
3898.00,0.0188
3897.00,0.0188
3896.00,0.0188
3895.00,0.0188
3894.00,0.0188
3893.00,0.0188
3892.00,0.0188
3891.00,0.0188
3890.00,0.0188
3889.00,0.0187
3888.00,0.0187
3887.00,0.0187
3886.00,0.0186
3885.00,0.0187
3884.00,0.0186
3883.00,0.0186
3882.00,0.0186
3881.00,0.0186
3880.00,0.0186
3879.00,0.0187
3878.00,0.0187
3877.00,0.0187
3876.00,0.0187
3875.00,0.0186
3874.00,0.0186
3873.00,0.0186
3872.00,0.0186
3871.00,0.0186
3870.00,0.0186
3869.00,0.0186
3868.00,0.0186
3867.00,0.0185
3866.00,0.0185
3865.00,0.0185
3864.00,0.0185
3863.00,0.0186
3862.00,0.0186
3861.00,0.0185
3860.00,0.0185
3859.00,0.0186
3858.00,0.0186
3857.00,0.0186
3856.00,0.0185
3855.00,0.0185
3854.00,0.0185
3853.00,0.0185
3852.00,0.0185
3851.00,0.0185
3850.00,0.0185
3849.00,0.0185
3848.00,0.0185
3847.00,0.0185
3846.00,0.0185
3845.00,0.0185
3844.00,0.0184
3843.00,0.0184
3842.00,0.0184
3841.00,0.0184
3840.00,0.0184
3839.00,0.0184
3838.00,0.0184
3837.00,0.0184
3836.00,0.0184
3835.00,0.0184
3834.00,0.0184
3833.00,0.0184
3832.00,0.0184
3831.00,0.0183
3830.00,0.0183
3829.00,0.0183
3828.00,0.0183
3827.00,0.0183
3826.00,0.0183
3825.00,0.0183
3824.00,0.0183
3823.00,0.0183
3822.00,0.0183
3821.00,0.0183
3820.00,0.0183
3819.00,0.0183
3818.00,0.0182
3817.00,0.0182
3816.00,0.0182
3815.00,0.0182
3814.00,0.0182
3813.00,0.0182
3812.00,0.0182
3811.00,0.0182
3810.00,0.0181
3809.00,0.0181
3808.00,0.0181
3807.00,0.0181
3806.00,0.0182
3805.00,0.0182
3804.00,0.0182
3803.00,0.0182
3802.00,0.0182
3801.00,0.0182
3800.00,0.0181
3799.00,0.0181
3798.00,0.0181
3797.00,0.0180
3796.00,0.0180
3795.00,0.0180
3794.00,0.0180
3793.00,0.0181
3792.00,0.0181
3791.00,0.0181
3790.00,0.0181
3789.00,0.0181
3788.00,0.0180
3787.00,0.0180
3786.00,0.0180
3785.00,0.0180
3784.00,0.0180
3783.00,0.0180
3782.00,0.0180
3781.00,0.0179
3780.00,0.0179
3779.00,0.0179
3778.00,0.0179
3777.00,0.0179
3776.00,0.0179
3775.00,0.0179
3774.00,0.0179
3773.00,0.0179
3772.00,0.0179
3771.00,0.0179
3770.00,0.0179
3769.00,0.0179
3768.00,0.0179
3767.00,0.0179
3766.00,0.0179
3765.00,0.0179
3764.00,0.0180
3763.00,0.0180
3762.00,0.0180
3761.00,0.0180
3760.00,0.0180
3759.00,0.0180
3758.00,0.0180
3757.00,0.0180
3756.00,0.0179
3755.00,0.0179
3754.00,0.0179
3753.00,0.0179
3752.00,0.0179
3751.00,0.0179
3750.00,0.0178
3749.00,0.0179
3748.00,0.0179
3747.00,0.0179
3746.00,0.0178
3745.00,0.0178
3744.00,0.0178
3743.00,0.0178
3742.00,0.0177
3741.00,0.0177
3740.00,0.0176
3739.00,0.0175
3738.00,0.0175
3737.00,0.0174
3736.00,0.0174
3735.00,0.0173
3734.00,0.0173
3733.00,0.0172
3732.00,0.0172
3731.00,0.0172
3730.00,0.0173
3729.00,0.0172
3728.00,0.0172
3727.00,0.0172
3726.00,0.0172
3725.00,0.0172
3724.00,0.0172
3723.00,0.0172
3722.00,0.0171
3721.00,0.0171
3720.00,0.0171
3719.00,0.0171
3718.00,0.0171
3717.00,0.0172
3716.00,0.0172
3715.00,0.0172
3714.00,0.0173
3713.00,0.0173
3712.00,0.0172
3711.00,0.0172
3710.00,0.0172
3709.00,0.0171
3708.00,0.0171
3707.00,0.0170
3706.00,0.0170
3705.00,0.0170
3704.00,0.0170
3703.00,0.0170
3702.00,0.0169
3701.00,0.0169
3700.00,0.0169
3699.00,0.0169
3698.00,0.0169
3697.00,0.0169
3696.00,0.0169
3695.00,0.0170
3694.00,0.0170
3693.00,0.0170
3692.00,0.0170
3691.00,0.0169
3690.00,0.0169
3689.00,0.0168
3688.00,0.0168
3687.00,0.0168
3686.00,0.0168
3685.00,0.0168
3684.00,0.0168
3683.00,0.0168
3682.00,0.0168
3681.00,0.0168
3680.00,0.0168
3679.00,0.0168
3678.00,0.0168
3677.00,0.0168
3676.00,0.0167
3675.00,0.0167
3674.00,0.0167
3673.00,0.0167
3672.00,0.0167
3671.00,0.0167
3670.00,0.0167
3669.00,0.0167
3668.00,0.0167
3667.00,0.0167
3666.00,0.0166
3665.00,0.0166
3664.00,0.0166
3663.00,0.0166
3662.00,0.0166
3661.00,0.0165
3660.00,0.0165
3659.00,0.0165
3658.00,0.0165
3657.00,0.0165
3656.00,0.0165
3655.00,0.0165
3654.00,0.0165
3653.00,0.0165
3652.00,0.0166
3651.00,0.0166
3650.00,0.0166
3649.00,0.0166
3648.00,0.0166
3647.00,0.0167
3646.00,0.0167
3645.00,0.0167
3644.00,0.0167
3643.00,0.0167
3642.00,0.0167
3641.00,0.0167
3640.00,0.0167
3639.00,0.0167
3638.00,0.0167
3637.00,0.0167
3636.00,0.0167
3635.00,0.0167
3634.00,0.0168
3633.00,0.0168
3632.00,0.0168
3631.00,0.0168
3630.00,0.0168
3629.00,0.0168
3628.00,0.0168
3627.00,0.0168
3626.00,0.0168
3625.00,0.0168
3624.00,0.0168
3623.00,0.0168
3622.00,0.0168
3621.00,0.0168
3620.00,0.0168
3619.00,0.0169
3618.00,0.0169
3617.00,0.0170
3616.00,0.0170
3615.00,0.0170
3614.00,0.0171
3613.00,0.0171
3612.00,0.0171
3611.00,0.0170
3610.00,0.0170
3609.00,0.0170
3608.00,0.0170
3607.00,0.0170
3606.00,0.0170
3605.00,0.0170
3604.00,0.0169
3603.00,0.0169
3602.00,0.0169
3601.00,0.0170
3600.00,0.0170
3599.00,0.0170
3598.00,0.0170
3597.00,0.0170
3596.00,0.0170
3595.00,0.0170
3594.00,0.0170
3593.00,0.0170
3592.00,0.0170
3591.00,0.0170
3590.00,0.0170
3589.00,0.0170
3588.00,0.0170
3587.00,0.0171
3586.00,0.0171
3585.00,0.0170
3584.00,0.0170
3583.00,0.0171
3582.00,0.0171
3581.00,0.0171
3580.00,0.0171
3579.00,0.0171
3578.00,0.0172
3577.00,0.0172
3576.00,0.0172
3575.00,0.0172
3574.00,0.0172
3573.00,0.0172
3572.00,0.0172
3571.00,0.0171
3570.00,0.0171
3569.00,0.0171
3568.00,0.0172
3567.00,0.0172
3566.00,0.0173
3565.00,0.0173
3564.00,0.0173
3563.00,0.0173
3562.00,0.0173
3561.00,0.0173
3560.00,0.0173
3559.00,0.0173
3558.00,0.0174
3557.00,0.0174
3556.00,0.0174
3555.00,0.0174
3554.00,0.0174
3553.00,0.0174
3552.00,0.0174
3551.00,0.0174
3550.00,0.0174
3549.00,0.0174
3548.00,0.0174
3547.00,0.0174
3546.00,0.0174
3545.00,0.0175
3544.00,0.0175
3543.00,0.0175
3542.00,0.0176
3541.00,0.0176
3540.00,0.0176
3539.00,0.0176
3538.00,0.0176
3537.00,0.0176
3536.00,0.0176
3535.00,0.0176
3534.00,0.0176
3533.00,0.0177
3532.00,0.0177
3531.00,0.0177
3530.00,0.0177
3529.00,0.0177
3528.00,0.0177
3527.00,0.0177
3526.00,0.0177
3525.00,0.0177
3524.00,0.0177
3523.00,0.0177
3522.00,0.0177
3521.00,0.0178
3520.00,0.0178
3519.00,0.0178
3518.00,0.0178
3517.00,0.0178
3516.00,0.0178
3515.00,0.0178
3514.00,0.0178
3513.00,0.0179
3512.00,0.0179
3511.00,0.0179
3510.00,0.0179
3509.00,0.0180
3508.00,0.0180
3507.00,0.0180
3506.00,0.0180
3505.00,0.0180
3504.00,0.0180
3503.00,0.0180
3502.00,0.0181
3501.00,0.0181
3500.00,0.0181
3499.00,0.0181
3498.00,0.0181
3497.00,0.0181
3496.00,0.0182
3495.00,0.0182
3494.00,0.0183
3493.00,0.0183
3492.00,0.0183
3491.00,0.0183
3490.00,0.0183
3489.00,0.0183
3488.00,0.0183
3487.00,0.0184
3486.00,0.0184
3485.00,0.0184
3484.00,0.0184
3483.00,0.0185
3482.00,0.0185
3481.00,0.0185
3480.00,0.0185
3479.00,0.0185
3478.00,0.0186
3477.00,0.0186
3476.00,0.0186
3475.00,0.0187
3474.00,0.0187
3473.00,0.0187
3472.00,0.0187
3471.00,0.0187
3470.00,0.0187
3469.00,0.0187
3468.00,0.0187
3467.00,0.0187
3466.00,0.0187
3465.00,0.0188
3464.00,0.0188
3463.00,0.0188
3462.00,0.0189
3461.00,0.0189
3460.00,0.0189
3459.00,0.0189
3458.00,0.0189
3457.00,0.0189
3456.00,0.0190
3455.00,0.0190
3454.00,0.0190
3453.00,0.0190
3452.00,0.0190
3451.00,0.0190
3450.00,0.0191
3449.00,0.0191
3448.00,0.0191
3447.00,0.0191
3446.00,0.0191
3445.00,0.0192
3444.00,0.0192
3443.00,0.0192
3442.00,0.0192
3441.00,0.0192
3440.00,0.0192
3439.00,0.0192
3438.00,0.0192
3437.00,0.0192
3436.00,0.0192
3435.00,0.0192
3434.00,0.0192
3433.00,0.0192
3432.00,0.0193
3431.00,0.0193
3430.00,0.0193
3429.00,0.0194
3428.00,0.0194
3427.00,0.0194
3426.00,0.0194
3425.00,0.0195
3424.00,0.0195
3423.00,0.0195
3422.00,0.0195
3421.00,0.0195
3420.00,0.0196
3419.00,0.0196
3418.00,0.0196
3417.00,0.0196
3416.00,0.0196
3415.00,0.0196
3414.00,0.0197
3413.00,0.0197
3412.00,0.0197
3411.00,0.0198
3410.00,0.0198
3409.00,0.0199
3408.00,0.0199
3407.00,0.0200
3406.00,0.0200
3405.00,0.0200
3404.00,0.0199
3403.00,0.0198
3402.00,0.0197
3401.00,0.0197
3400.00,0.0198
3399.00,0.0200
3398.00,0.0201
3397.00,0.0202
3396.00,0.0202
3395.00,0.0202
3394.00,0.0201
3393.00,0.0200
3392.00,0.0200
3391.00,0.0202
3390.00,0.0203
3389.00,0.0205
3388.00,0.0206
3387.00,0.0207
3386.00,0.0208
3385.00,0.0208
3384.00,0.0208
3383.00,0.0207
3382.00,0.0207
3381.00,0.0207
3380.00,0.0207
3379.00,0.0207
3378.00,0.0208
3377.00,0.0208
3376.00,0.0209
3375.00,0.0209
3374.00,0.0209
3373.00,0.0208
3372.00,0.0206
3371.00,0.0205
3370.00,0.0203
3369.00,0.0203
3368.00,0.0204
3367.00,0.0206
3366.00,0.0208
3365.00,0.0210
3364.00,0.0211
3363.00,0.0212
3362.00,0.0212
3361.00,0.0212
3360.00,0.0213
3359.00,0.0215
3358.00,0.0216
3357.00,0.0217
3356.00,0.0218
3355.00,0.0218
3354.00,0.0217
3353.00,0.0216
3352.00,0.0215
3351.00,0.0215
3350.00,0.0217
3349.00,0.0219
3348.00,0.0221
3347.00,0.0223
3346.00,0.0223
3345.00,0.0223
3344.00,0.0223
3343.00,0.0223
3342.00,0.0223
3341.00,0.0224
3340.00,0.0224
3339.00,0.0224
3338.00,0.0225
3337.00,0.0227
3336.00,0.0229
3335.00,0.0231
3334.00,0.0232
3333.00,0.0232
3332.00,0.0233
3331.00,0.0232
3330.00,0.0232
3329.00,0.0231
3328.00,0.0230
3327.00,0.0229
3326.00,0.0229
3325.00,0.0230
3324.00,0.0231
3323.00,0.0233
3322.00,0.0234
3321.00,0.0235
3320.00,0.0236
3319.00,0.0236
3318.00,0.0237
3317.00,0.0237
3316.00,0.0238
3315.00,0.0239
3314.00,0.0240
3313.00,0.0240
3312.00,0.0240
3311.00,0.0239
3310.00,0.0239
3309.00,0.0238
3308.00,0.0238
3307.00,0.0238
3306.00,0.0240
3305.00,0.0242
3304.00,0.0244
3303.00,0.0246
3302.00,0.0248
3301.00,0.0249
3300.00,0.0251
3299.00,0.0251
3298.00,0.0252
3297.00,0.0252
3296.00,0.0253
3295.00,0.0254
3294.00,0.0255
3293.00,0.0257
3292.00,0.0259
3291.00,0.0262
3290.00,0.0264
3289.00,0.0266
3288.00,0.0268
3287.00,0.0270
3286.00,0.0271
3285.00,0.0273
3284.00,0.0274
3283.00,0.0276
3282.00,0.0277
3281.00,0.0279
3280.00,0.0281
3279.00,0.0282
3278.00,0.0283
3277.00,0.0284
3276.00,0.0284
3275.00,0.0285
3274.00,0.0285
3273.00,0.0285
3272.00,0.0285
3271.00,0.0287
3270.00,0.0289
3269.00,0.0292
3268.00,0.0296
3267.00,0.0298
3266.00,0.0300
3265.00,0.0302
3264.00,0.0303
3263.00,0.0304
3262.00,0.0305
3261.00,0.0306
3260.00,0.0307
3259.00,0.0307
3258.00,0.0308
3257.00,0.0309
3256.00,0.0310
3255.00,0.0311
3254.00,0.0313
3253.00,0.0315
3252.00,0.0317
3251.00,0.0317
3250.00,0.0318
3249.00,0.0318
3248.00,0.0318
3247.00,0.0319
3246.00,0.0321
3245.00,0.0324
3244.00,0.0326
3243.00,0.0329
3242.00,0.0330
3241.00,0.0332
3240.00,0.0333
3239.00,0.0334
3238.00,0.0335
3237.00,0.0335
3236.00,0.0335
3235.00,0.0336
3234.00,0.0337
3233.00,0.0339
3232.00,0.0342
3231.00,0.0345
3230.00,0.0347
3229.00,0.0349
3228.00,0.0351
3227.00,0.0353
3226.00,0.0355
3225.00,0.0357
3224.00,0.0359
3223.00,0.0360
3222.00,0.0362
3221.00,0.0364
3220.00,0.0366
3219.00,0.0368
3218.00,0.0370
3217.00,0.0372
3216.00,0.0373
3215.00,0.0375
3214.00,0.0377
3213.00,0.0379
3212.00,0.0381
3211.00,0.0383
3210.00,0.0385
3209.00,0.0387
3208.00,0.0388
3207.00,0.0390
3206.00,0.0391
3205.00,0.0393
3204.00,0.0395
3203.00,0.0397
3202.00,0.0399
3201.00,0.0400
3200.00,0.0402
3199.00,0.0403
3198.00,0.0405
3197.00,0.0406
3196.00,0.0408
3195.00,0.0409
3194.00,0.0410
3193.00,0.0412
3192.00,0.0413
3191.00,0.0414
3190.00,0.0416
3189.00,0.0417
3188.00,0.0419
3187.00,0.0421
3186.00,0.0422
3185.00,0.0424
3184.00,0.0426
3183.00,0.0428
3182.00,0.0429
3181.00,0.0431
3180.00,0.0433
3179.00,0.0434
3178.00,0.0436
3177.00,0.0438
3176.00,0.0440
3175.00,0.0441
3174.00,0.0443
3173.00,0.0445
3172.00,0.0446
3171.00,0.0448
3170.00,0.0449
3169.00,0.0451
3168.00,0.0453
3167.00,0.0454
3166.00,0.0456
3165.00,0.0458
3164.00,0.0460
3163.00,0.0461
3162.00,0.0463
3161.00,0.0465
3160.00,0.0467
3159.00,0.0469
3158.00,0.0471
3157.00,0.0472
3156.00,0.0474
3155.00,0.0475
3154.00,0.0476
3153.00,0.0478
3152.00,0.0481
3151.00,0.0484
3150.00,0.0487
3149.00,0.0490
3148.00,0.0493
3147.00,0.0495
3146.00,0.0498
3145.00,0.0500
3144.00,0.0502
3143.00,0.0504
3142.00,0.0506
3141.00,0.0508
3140.00,0.0510
3139.00,0.0513
3138.00,0.0516
3137.00,0.0519
3136.00,0.0523
3135.00,0.0525
3134.00,0.0528
3133.00,0.0530
3132.00,0.0532
3131.00,0.0535
3130.00,0.0537
3129.00,0.0539
3128.00,0.0542
3127.00,0.0545
3126.00,0.0547
3125.00,0.0550
3124.00,0.0552
3123.00,0.0554
3122.00,0.0556
3121.00,0.0558
3120.00,0.0561
3119.00,0.0564
3118.00,0.0567
3117.00,0.0570
3116.00,0.0574
3115.00,0.0578
3114.00,0.0582
3113.00,0.0586
3112.00,0.0589
3111.00,0.0593
3110.00,0.0596
3109.00,0.0599
3108.00,0.0603
3107.00,0.0607
3106.00,0.0611
3105.00,0.0615
3104.00,0.0618
3103.00,0.0622
3102.00,0.0625
3101.00,0.0628
3100.00,0.0632
3099.00,0.0636
3098.00,0.0639
3097.00,0.0643
3096.00,0.0647
3095.00,0.0651
3094.00,0.0655
3093.00,0.0659
3092.00,0.0662
3091.00,0.0666
3090.00,0.0670
3089.00,0.0675
3088.00,0.0679
3087.00,0.0684
3086.00,0.0688
3085.00,0.0692
3084.00,0.0697
3083.00,0.0701
3082.00,0.0706
3081.00,0.0711
3080.00,0.0716
3079.00,0.0721
3078.00,0.0726
3077.00,0.0731
3076.00,0.0736
3075.00,0.0740
3074.00,0.0745
3073.00,0.0749
3072.00,0.0753
3071.00,0.0756
3070.00,0.0760
3069.00,0.0763
3068.00,0.0766
3067.00,0.0770
3066.00,0.0773
3065.00,0.0776
3064.00,0.0779
3063.00,0.0782
3062.00,0.0784
3061.00,0.0787
3060.00,0.0789
3059.00,0.0792
3058.00,0.0794
3057.00,0.0797
3056.00,0.0800
3055.00,0.0802
3054.00,0.0805
3053.00,0.0808
3052.00,0.0810
3051.00,0.0812
3050.00,0.0814
3049.00,0.0816
3048.00,0.0817
3047.00,0.0818
3046.00,0.0818
3045.00,0.0818
3044.00,0.0819
3043.00,0.0819
3042.00,0.0819
3041.00,0.0820
3040.00,0.0821
3039.00,0.0823
3038.00,0.0825
3037.00,0.0829
3036.00,0.0835
3035.00,0.0844
3034.00,0.0855
3033.00,0.0869
3032.00,0.0887
3031.00,0.0907
3030.00,0.0930
3029.00,0.0953
3028.00,0.0975
3027.00,0.0993
3026.00,0.1006
3025.00,0.1013
3024.00,0.1017
3023.00,0.1019
3022.00,0.1019
3021.00,0.1019
3020.00,0.1017
3019.00,0.1012
3018.00,0.1004
3017.00,0.0992
3016.00,0.0978
3015.00,0.0965
3014.00,0.0952
3013.00,0.0942
3012.00,0.0935
3011.00,0.0930
3010.00,0.0927
3009.00,0.0925
3008.00,0.0924
3007.00,0.0924
3006.00,0.0924
3005.00,0.0924
3004.00,0.0925
3003.00,0.0926
3002.00,0.0926
3001.00,0.0927
3000.00,0.0928
2999.00,0.0929
2998.00,0.0931
2997.00,0.0932
2996.00,0.0934
2995.00,0.0936
2994.00,0.0938
2993.00,0.0940
2992.00,0.0942
2991.00,0.0944
2990.00,0.0946
2989.00,0.0949
2988.00,0.0951
2987.00,0.0954
2986.00,0.0957
2985.00,0.0959
2984.00,0.0961
2983.00,0.0963
2982.00,0.0967
2981.00,0.0974
2980.00,0.0983
2979.00,0.0994
2978.00,0.1006
2977.00,0.1020
2976.00,0.1036
2975.00,0.1052
2974.00,0.1068
2973.00,0.1084
2972.00,0.1097
2971.00,0.1107
2970.00,0.1114
2969.00,0.1115
2968.00,0.1113
2967.00,0.1107
2966.00,0.1100
2965.00,0.1092
2964.00,0.1084
2963.00,0.1078
2962.00,0.1073
2961.00,0.1071
2960.00,0.1070
2959.00,0.1070
2958.00,0.1072
2957.00,0.1074
2956.00,0.1076
2955.00,0.1077
2954.00,0.1077
2953.00,0.1073
2952.00,0.1067
2951.00,0.1058
2950.00,0.1048
2949.00,0.1037
2948.00,0.1027
2947.00,0.1018
2946.00,0.1010
2945.00,0.1004
2944.00,0.0999
2943.00,0.0995
2942.00,0.0992
2941.00,0.0991
2940.00,0.0990
2939.00,0.0990
2938.00,0.0991
2937.00,0.0992
2936.00,0.0994
2935.00,0.0996
2934.00,0.0999
2933.00,0.1001
2932.00,0.1004
2931.00,0.1008
2930.00,0.1012
2929.00,0.1017
2928.00,0.1022
2927.00,0.1028
2926.00,0.1034
2925.00,0.1041
2924.00,0.1047
2923.00,0.1052
2922.00,0.1055
2921.00,0.1056
2920.00,0.1056
2919.00,0.1053
2918.00,0.1050
2917.00,0.1046
2916.00,0.1043
2915.00,0.1040
2914.00,0.1038
2913.00,0.1037
2912.00,0.1037
2911.00,0.1037
2910.00,0.1039
2909.00,0.1041
2908.00,0.1044
2907.00,0.1046
2906.00,0.1049
2905.00,0.1051
2904.00,0.1054
2903.00,0.1056
2902.00,0.1058
2901.00,0.1059
2900.00,0.1061
2899.00,0.1062
2898.00,0.1062
2897.00,0.1063
2896.00,0.1063
2895.00,0.1063
2894.00,0.1063
2893.00,0.1062
2892.00,0.1061
2891.00,0.1060
2890.00,0.1058
2889.00,0.1057
2888.00,0.1055
2887.00,0.1054
2886.00,0.1052
2885.00,0.1051
2884.00,0.1051
2883.00,0.1050
2882.00,0.1050
2881.00,0.1050
2880.00,0.1049
2879.00,0.1049
2878.00,0.1048
2877.00,0.1046
2876.00,0.1044
2875.00,0.1042
2874.00,0.1039
2873.00,0.1036
2872.00,0.1033
2871.00,0.1029
2870.00,0.1026
2869.00,0.1023
2868.00,0.1019
2867.00,0.1016
2866.00,0.1014
2865.00,0.1011
2864.00,0.1010
2863.00,0.1009
2862.00,0.1008
2861.00,0.1008
2860.00,0.1009
2859.00,0.1010
2858.00,0.1012
2857.00,0.1015
2856.00,0.1018
2855.00,0.1021
2854.00,0.1024
2853.00,0.1028
2852.00,0.1033
2851.00,0.1037
2850.00,0.1043
2849.00,0.1048
2848.00,0.1054
2847.00,0.1060
2846.00,0.1066
2845.00,0.1072
2844.00,0.1079
2843.00,0.1085
2842.00,0.1092
2841.00,0.1097
2840.00,0.1103
2839.00,0.1108
2838.00,0.1113
2837.00,0.1118
2836.00,0.1123
2835.00,0.1126
2834.00,0.1129
2833.00,0.1131
2832.00,0.1133
2831.00,0.1134
2830.00,0.1134
2829.00,0.1134
2828.00,0.1134
2827.00,0.1133
2826.00,0.1132
2825.00,0.1131
2824.00,0.1130
2823.00,0.1128
2822.00,0.1126
2821.00,0.1124
2820.00,0.1121
2819.00,0.1119
2818.00,0.1115
2817.00,0.1112
2816.00,0.1108
2815.00,0.1104
2814.00,0.1099
2813.00,0.1095
2812.00,0.1090
2811.00,0.1085
2810.00,0.1080
2809.00,0.1076
2808.00,0.1071
2807.00,0.1066
2806.00,0.1061
2805.00,0.1056
2804.00,0.1051
2803.00,0.1046
2802.00,0.1041
2801.00,0.1035
2800.00,0.1030
2799.00,0.1025
2798.00,0.1019
2797.00,0.1013
2796.00,0.1008
2795.00,0.1001
2794.00,0.0995
2793.00,0.0989
2792.00,0.0982
2791.00,0.0976
2790.00,0.0970
2789.00,0.0965
2788.00,0.0959
2787.00,0.0953
2786.00,0.0948
2785.00,0.0943
2784.00,0.0938
2783.00,0.0933
2782.00,0.0930
2781.00,0.0927
2780.00,0.0924
2779.00,0.0922
2778.00,0.0921
2777.00,0.0920
2776.00,0.0920
2775.00,0.0920
2774.00,0.0921
2773.00,0.0922
2772.00,0.0924
2771.00,0.0926
2770.00,0.0927
2769.00,0.0929
2768.00,0.0932
2767.00,0.0934
2766.00,0.0936
2765.00,0.0938
2764.00,0.0939
2763.00,0.0941
2762.00,0.0942
2761.00,0.0943
2760.00,0.0944
2759.00,0.0944
2758.00,0.0945
2757.00,0.0944
2756.00,0.0944
2755.00,0.0943
2754.00,0.0942
2753.00,0.0940
2752.00,0.0939
2751.00,0.0937
2750.00,0.0935
2749.00,0.0934
2748.00,0.0934
2747.00,0.0934
2746.00,0.0934
2745.00,0.0936
2744.00,0.0938
2743.00,0.0941
2742.00,0.0944
2741.00,0.0948
2740.00,0.0952
2739.00,0.0957
2738.00,0.0961
2737.00,0.0965
2736.00,0.0969
2735.00,0.0971
2734.00,0.0973
2733.00,0.0973
2732.00,0.0973
2731.00,0.0971
2730.00,0.0969
2729.00,0.0966
2728.00,0.0963
2727.00,0.0959
2726.00,0.0955
2725.00,0.0951
2724.00,0.0947
2723.00,0.0942
2722.00,0.0938
2721.00,0.0934
2720.00,0.0930
2719.00,0.0926
2718.00,0.0924
2717.00,0.0922
2716.00,0.0920
2715.00,0.0920
2714.00,0.0920
2713.00,0.0921
2712.00,0.0923
2711.00,0.0925
2710.00,0.0928
2709.00,0.0931
2708.00,0.0935
2707.00,0.0939
2706.00,0.0944
2705.00,0.0948
2704.00,0.0953
2703.00,0.0957
2702.00,0.0961
2701.00,0.0965
2700.00,0.0969
2699.00,0.0972
2698.00,0.0976
2697.00,0.0980
2696.00,0.0983
2695.00,0.0987
2694.00,0.0990
2693.00,0.0993
2692.00,0.0996
2691.00,0.0998
2690.00,0.0999
2689.00,0.1000
2688.00,0.1001
2687.00,0.1000
2686.00,0.1000
2685.00,0.0999
2684.00,0.0998
2683.00,0.0997
2682.00,0.0996
2681.00,0.0995
2680.00,0.0994
2679.00,0.0994
2678.00,0.0994
2677.00,0.0994
2676.00,0.0995
2675.00,0.0996
2674.00,0.0997
2673.00,0.1000
2672.00,0.1003
2671.00,0.1006
2670.00,0.1010
2669.00,0.1013
2668.00,0.1017
2667.00,0.1020
2666.00,0.1024
2665.00,0.1027
2664.00,0.1030
2663.00,0.1032
2662.00,0.1035
2661.00,0.1037
2660.00,0.1039
2659.00,0.1042
2658.00,0.1046
2657.00,0.1050
2656.00,0.1055
2655.00,0.1061
2654.00,0.1067
2653.00,0.1073
2652.00,0.1080
2651.00,0.1085
2650.00,0.1090
2649.00,0.1095
2648.00,0.1098
2647.00,0.1101
2646.00,0.1102
2645.00,0.1103
2644.00,0.1103
2643.00,0.1102
2642.00,0.1100
2641.00,0.1098
2640.00,0.1095
2639.00,0.1092
2638.00,0.1088
2637.00,0.1084
2636.00,0.1080
2635.00,0.1076
2634.00,0.1072
2633.00,0.1068
2632.00,0.1065
2631.00,0.1061
2630.00,0.1058
2629.00,0.1056
2628.00,0.1055
2627.00,0.1055
2626.00,0.1056
2625.00,0.1058
2624.00,0.1061
2623.00,0.1063
2622.00,0.1065
2621.00,0.1067
2620.00,0.1067
2619.00,0.1068
2618.00,0.1067
2617.00,0.1066
2616.00,0.1065
2615.00,0.1064
2614.00,0.1063
2613.00,0.1062
2612.00,0.1062
2611.00,0.1061
2610.00,0.1060
2609.00,0.1059
2608.00,0.1057
2607.00,0.1055
2606.00,0.1053
2605.00,0.1051
2604.00,0.1048
2603.00,0.1046
2602.00,0.1043
2601.00,0.1040
2600.00,0.1038
2599.00,0.1036
2598.00,0.1033
2597.00,0.1032
2596.00,0.1030
2595.00,0.1030
2594.00,0.1030
2593.00,0.1031
2592.00,0.1033
2591.00,0.1037
2590.00,0.1041
2589.00,0.1047
2588.00,0.1053
2587.00,0.1060
2586.00,0.1069
2585.00,0.1079
2584.00,0.1089
2583.00,0.1099
2582.00,0.1109
2581.00,0.1118
2580.00,0.1126
2579.00,0.1131
2578.00,0.1134
2577.00,0.1136
2576.00,0.1136
2575.00,0.1134
2574.00,0.1133
2573.00,0.1130
2572.00,0.1128
2571.00,0.1127
2570.00,0.1125
2569.00,0.1124
2568.00,0.1124
2567.00,0.1123
2566.00,0.1123
2565.00,0.1124
2564.00,0.1125
2563.00,0.1125
2562.00,0.1126
2561.00,0.1126
2560.00,0.1126
2559.00,0.1126
2558.00,0.1126
2557.00,0.1127
2556.00,0.1127
2555.00,0.1128
2554.00,0.1128
2553.00,0.1128
2552.00,0.1127
2551.00,0.1125
2550.00,0.1121
2549.00,0.1118
2548.00,0.1113
2547.00,0.1108
2546.00,0.1103
2545.00,0.1097
2544.00,0.1092
2543.00,0.1086
2542.00,0.1080
2541.00,0.1075
2540.00,0.1070
2539.00,0.1066
2538.00,0.1062
2537.00,0.1058
2536.00,0.1055
2535.00,0.1052
2534.00,0.1049
2533.00,0.1047
2532.00,0.1047
2531.00,0.1046
2530.00,0.1046
2529.00,0.1047
2528.00,0.1049
2527.00,0.1051
2526.00,0.1053
2525.00,0.1056
2524.00,0.1059
2523.00,0.1063
2522.00,0.1066
2521.00,0.1070
2520.00,0.1073
2519.00,0.1075
2518.00,0.1075
2517.00,0.1074
2516.00,0.1071
2515.00,0.1067
2514.00,0.1062
2513.00,0.1056
2512.00,0.1050
2511.00,0.1044
2510.00,0.1037
2509.00,0.1031
2508.00,0.1024
2507.00,0.1018
2506.00,0.1013
2505.00,0.1008
2504.00,0.1003
2503.00,0.0999
2502.00,0.0995
2501.00,0.0992
2500.00,0.0989
2499.00,0.0986
2498.00,0.0984
2497.00,0.0981
2496.00,0.0979
2495.00,0.0976
2494.00,0.0974
2493.00,0.0971
2492.00,0.0968
2491.00,0.0966
2490.00,0.0963
2489.00,0.0961
2488.00,0.0959
2487.00,0.0957
2486.00,0.0956
2485.00,0.0956
2484.00,0.0956
2483.00,0.0955
2482.00,0.0955
2481.00,0.0954
2480.00,0.0953
2479.00,0.0951
2478.00,0.0949
2477.00,0.0946
2476.00,0.0942
2475.00,0.0938
2474.00,0.0934
2473.00,0.0930
2472.00,0.0926
2471.00,0.0922
2470.00,0.0918
2469.00,0.0914
2468.00,0.0911
2467.00,0.0908
2466.00,0.0906
2465.00,0.0904
2464.00,0.0903
2463.00,0.0901
2462.00,0.0900
2461.00,0.0898
2460.00,0.0897
2459.00,0.0896
2458.00,0.0894
2457.00,0.0892
2456.00,0.0890
2455.00,0.0889
2454.00,0.0888
2453.00,0.0887
2452.00,0.0886
2451.00,0.0885
2450.00,0.0883
2449.00,0.0882
2448.00,0.0880
2447.00,0.0877
2446.00,0.0874
2445.00,0.0871
2444.00,0.0867
2443.00,0.0863
2442.00,0.0858
2441.00,0.0854
2440.00,0.0851
2439.00,0.0847
2438.00,0.0844
2437.00,0.0840
2436.00,0.0837
2435.00,0.0834
2434.00,0.0832
2433.00,0.0829
2432.00,0.0826
2431.00,0.0824
2430.00,0.0821
2429.00,0.0819
2428.00,0.0817
2427.00,0.0816
2426.00,0.0814
2425.00,0.0813
2424.00,0.0811
2423.00,0.0811
2422.00,0.0810
2421.00,0.0810
2420.00,0.0811
2419.00,0.0812
2418.00,0.0812
2417.00,0.0813
2416.00,0.0814
2415.00,0.0815
2414.00,0.0814
2413.00,0.0813
2412.00,0.0811
2411.00,0.0809
2410.00,0.0806
2409.00,0.0803
2408.00,0.0800
2407.00,0.0797
2406.00,0.0794
2405.00,0.0791
2404.00,0.0788
2403.00,0.0785
2402.00,0.0782
2401.00,0.0779
2400.00,0.0776
2399.00,0.0773
2398.00,0.0770
2397.00,0.0766
2396.00,0.0763
2395.00,0.0761
2394.00,0.0758
2393.00,0.0755
2392.00,0.0752
2391.00,0.0750
2390.00,0.0747
2389.00,0.0744
2388.00,0.0742
2387.00,0.0738
2386.00,0.0735
2385.00,0.0732
2384.00,0.0729
2383.00,0.0725
2382.00,0.0722
2381.00,0.0719
2380.00,0.0716
2379.00,0.0714
2378.00,0.0712
2377.00,0.0710
2376.00,0.0709
2375.00,0.0708
2374.00,0.0707
2373.00,0.0706
2372.00,0.0705
2371.00,0.0703
2370.00,0.0701
2369.00,0.0699
2368.00,0.0697
2367.00,0.0695
2366.00,0.0693
2365.00,0.0691
2364.00,0.0689
2363.00,0.0688
2362.00,0.0686
2361.00,0.0684
2360.00,0.0682
2359.00,0.0681
2358.00,0.0680
2357.00,0.0679
2356.00,0.0678
2355.00,0.0678
2354.00,0.0676
2353.00,0.0674
2352.00,0.0672
2351.00,0.0669
2350.00,0.0668
2349.00,0.0667
2348.00,0.0666
2347.00,0.0663
2346.00,0.0660
2345.00,0.0657
2344.00,0.0656
2343.00,0.0656
2342.00,0.0656
2341.00,0.0656
2340.00,0.0656
2339.00,0.0656
2338.00,0.0655
2337.00,0.0654
2336.00,0.0653
2335.00,0.0651
2334.00,0.0649
2333.00,0.0647
2332.00,0.0646
2331.00,0.0644
2330.00,0.0643
2329.00,0.0644
2328.00,0.0648
2327.00,0.0651
2326.00,0.0653
2325.00,0.0652
2324.00,0.0649
2323.00,0.0645
2322.00,0.0642
2321.00,0.0640
2320.00,0.0639
2319.00,0.0639
2318.00,0.0639
2317.00,0.0639
2316.00,0.0639
2315.00,0.0638
2314.00,0.0636
2313.00,0.0635
2312.00,0.0634
2311.00,0.0635
2310.00,0.0636
2309.00,0.0637
2308.00,0.0639
2307.00,0.0641
2306.00,0.0643
2305.00,0.0645
2304.00,0.0647
2303.00,0.0648
2302.00,0.0648
2301.00,0.0647
2300.00,0.0645
2299.00,0.0642
2298.00,0.0639
2297.00,0.0636
2296.00,0.0633
2295.00,0.0629
2294.00,0.0625
2293.00,0.0622
2292.00,0.0620
2291.00,0.0617
2290.00,0.0614
2289.00,0.0612
2288.00,0.0610
2287.00,0.0607
2286.00,0.0605
2285.00,0.0602
2284.00,0.0600
2283.00,0.0597
2282.00,0.0595
2281.00,0.0593
2280.00,0.0592
2279.00,0.0591
2278.00,0.0590
2277.00,0.0589
2276.00,0.0589
2275.00,0.0588
2274.00,0.0588
2273.00,0.0588
2272.00,0.0588
2271.00,0.0587
2270.00,0.0585
2269.00,0.0582
2268.00,0.0579
2267.00,0.0577
2266.00,0.0574
2265.00,0.0573
2264.00,0.0571
2263.00,0.0570
2262.00,0.0569
2261.00,0.0567
2260.00,0.0566
2259.00,0.0565
2258.00,0.0563
2257.00,0.0560
2256.00,0.0558
2255.00,0.0556
2254.00,0.0554
2253.00,0.0554
2252.00,0.0554
2251.00,0.0554
2250.00,0.0554
2249.00,0.0553
2248.00,0.0553
2247.00,0.0552
2246.00,0.0551
2245.00,0.0551
2244.00,0.0552
2243.00,0.0552
2242.00,0.0553
2241.00,0.0554
2240.00,0.0556
2239.00,0.0557
2238.00,0.0558
2237.00,0.0559
2236.00,0.0561
2235.00,0.0561
2234.00,0.0562
2233.00,0.0562
2232.00,0.0563
2231.00,0.0563
2230.00,0.0561
2229.00,0.0560
2228.00,0.0558
2227.00,0.0556
2226.00,0.0553
2225.00,0.0550
2224.00,0.0547
2223.00,0.0544
2222.00,0.0540
2221.00,0.0536
2220.00,0.0534
2219.00,0.0532
2218.00,0.0530
2217.00,0.0528
2216.00,0.0527
2215.00,0.0527
2214.00,0.0526
2213.00,0.0525
2212.00,0.0525
2211.00,0.0524
2210.00,0.0523
2209.00,0.0521
2208.00,0.0522
2207.00,0.0522
2206.00,0.0521
2205.00,0.0521
2204.00,0.0521
2203.00,0.0521
2202.00,0.0520
2201.00,0.0519
2200.00,0.0518
2199.00,0.0517
2198.00,0.0516
2197.00,0.0515
2196.00,0.0514
2195.00,0.0513
2194.00,0.0510
2193.00,0.0509
2192.00,0.0508
2191.00,0.0508
2190.00,0.0507
2189.00,0.0507
2188.00,0.0507
2187.00,0.0507
2186.00,0.0505
2185.00,0.0503
2184.00,0.0500
2183.00,0.0497
2182.00,0.0494
2181.00,0.0494
2180.00,0.0496
2179.00,0.0496
2178.00,0.0494
2177.00,0.0492
2176.00,0.0490
2175.00,0.0490
2174.00,0.0489
2173.00,0.0490
2172.00,0.0492
2171.00,0.0494
2170.00,0.0496
2169.00,0.0497
2168.00,0.0497
2167.00,0.0494
2166.00,0.0491
2165.00,0.0490
2164.00,0.0491
2163.00,0.0489
2162.00,0.0480
2161.00,0.0466
2160.00,0.0451
2159.00,0.0439
2158.00,0.0432
2157.00,0.0433
2156.00,0.0437
2155.00,0.0441
2154.00,0.0443
2153.00,0.0447
2152.00,0.0451
2151.00,0.0454
2150.00,0.0455
2149.00,0.0455
2148.00,0.0455
2147.00,0.0455
2146.00,0.0453
2145.00,0.0454
2144.00,0.0455
2143.00,0.0456
2142.00,0.0456
2141.00,0.0457
2140.00,0.0457
2139.00,0.0457
2138.00,0.0456
2137.00,0.0455
2136.00,0.0454
2135.00,0.0453
2134.00,0.0452
2133.00,0.0453
2132.00,0.0456
2131.00,0.0458
2130.00,0.0459
2129.00,0.0459
2128.00,0.0460
2127.00,0.0460
2126.00,0.0459
2125.00,0.0458
2124.00,0.0458
2123.00,0.0458
2122.00,0.0457
2121.00,0.0456
2120.00,0.0456
2119.00,0.0455
2118.00,0.0453
2117.00,0.0452
2116.00,0.0451
2115.00,0.0450
2114.00,0.0447
2113.00,0.0445
2112.00,0.0444
2111.00,0.0442
2110.00,0.0441
2109.00,0.0440
2108.00,0.0439
2107.00,0.0438
2106.00,0.0437
2105.00,0.0436
2104.00,0.0437
2103.00,0.0437
2102.00,0.0436
2101.00,0.0437
2100.00,0.0439
2099.00,0.0440
2098.00,0.0439
2097.00,0.0438
2096.00,0.0437
2095.00,0.0436
2094.00,0.0435
2093.00,0.0436
2092.00,0.0437
2091.00,0.0437
2090.00,0.0435
2089.00,0.0433
2088.00,0.0432
2087.00,0.0431
2086.00,0.0430
2085.00,0.0428
2084.00,0.0427
2083.00,0.0426
2082.00,0.0424
2081.00,0.0422
2080.00,0.0422
2079.00,0.0421
2078.00,0.0420
2077.00,0.0418
2076.00,0.0418
2075.00,0.0416
2074.00,0.0414
2073.00,0.0413
2072.00,0.0412
2071.00,0.0411
2070.00,0.0410
2069.00,0.0408
2068.00,0.0408
2067.00,0.0408
2066.00,0.0407
2065.00,0.0406
2064.00,0.0405
2063.00,0.0404
2062.00,0.0403
2061.00,0.0402
2060.00,0.0402
2059.00,0.0402
2058.00,0.0402
2057.00,0.0402
2056.00,0.0403
2055.00,0.0404
2054.00,0.0407
2053.00,0.0411
2052.00,0.0413
2051.00,0.0411
2050.00,0.0405
2049.00,0.0400
2048.00,0.0398
2047.00,0.0396
2046.00,0.0395
2045.00,0.0395
2044.00,0.0397
2043.00,0.0399
2042.00,0.0398
2041.00,0.0398
2040.00,0.0400
2039.00,0.0402
2038.00,0.0401
2037.00,0.0401
2036.00,0.0401
2035.00,0.0401
2034.00,0.0398
2033.00,0.0397
2032.00,0.0398
2031.00,0.0397
2030.00,0.0392
2029.00,0.0388
2028.00,0.0386
2027.00,0.0384
2026.00,0.0382
2025.00,0.0382
2024.00,0.0384
2023.00,0.0384
2022.00,0.0381
2021.00,0.0379
2020.00,0.0379
2019.00,0.0378
2018.00,0.0377
2017.00,0.0378
2016.00,0.0381
2015.00,0.0382
2014.00,0.0381
2013.00,0.0381
2012.00,0.0382
2011.00,0.0382
2010.00,0.0379
2009.00,0.0376
2008.00,0.0372
2007.00,0.0367
2006.00,0.0361
2005.00,0.0358
2004.00,0.0359
2003.00,0.0359
2002.00,0.0357
2001.00,0.0356
2000.00,0.0357
1999.00,0.0357
1998.00,0.0356
1997.00,0.0356
1996.00,0.0357
1995.00,0.0357
1994.00,0.0356
1993.00,0.0356
1992.00,0.0358
1991.00,0.0360
1990.00,0.0361
1989.00,0.0364
1988.00,0.0369
1987.00,0.0374
1986.00,0.0376
1985.00,0.0379
1984.00,0.0384
1983.00,0.0388
1982.00,0.0388
1981.00,0.0386
1980.00,0.0383
1979.00,0.0376
1978.00,0.0368
1977.00,0.0364
1976.00,0.0366
1975.00,0.0369
1974.00,0.0369
1973.00,0.0371
1972.00,0.0375
1971.00,0.0377
1970.00,0.0377
1969.00,0.0377
1968.00,0.0378
1967.00,0.0377
1966.00,0.0375
1965.00,0.0375
1964.00,0.0377
1963.00,0.0379
1962.00,0.0378
1961.00,0.0379
1960.00,0.0383
1959.00,0.0386
1958.00,0.0388
1957.00,0.0391
1956.00,0.0396
1955.00,0.0399
1954.00,0.0401
1953.00,0.0404
1952.00,0.0408
1951.00,0.0412
1950.00,0.0415
1949.00,0.0419
1948.00,0.0425
1947.00,0.0429
1946.00,0.0430
1945.00,0.0431
1944.00,0.0432
1943.00,0.0432
1942.00,0.0429
1941.00,0.0426
1940.00,0.0424
1939.00,0.0421
1938.00,0.0417
1937.00,0.0414
1936.00,0.0412
1935.00,0.0411
1934.00,0.0408
1933.00,0.0407
1932.00,0.0408
1931.00,0.0408
1930.00,0.0406
1929.00,0.0406
1928.00,0.0407
1927.00,0.0407
1926.00,0.0406
1925.00,0.0407
1924.00,0.0409
1923.00,0.0410
1922.00,0.0410
1921.00,0.0411
1920.00,0.0413
1919.00,0.0414
1918.00,0.0414
1917.00,0.0415
1916.00,0.0418
1915.00,0.0420
1914.00,0.0422
1913.00,0.0424
1912.00,0.0427
1911.00,0.0430
1910.00,0.0430
1909.00,0.0430
1908.00,0.0432
1907.00,0.0433
1906.00,0.0433
1905.00,0.0434
1904.00,0.0436
1903.00,0.0436
1902.00,0.0435
1901.00,0.0435
1900.00,0.0437
1899.00,0.0437
1898.00,0.0437
1897.00,0.0437
1896.00,0.0437
1895.00,0.0436
1894.00,0.0434
1893.00,0.0433
1892.00,0.0432
1891.00,0.0432
1890.00,0.0430
1889.00,0.0428
1888.00,0.0429
1887.00,0.0430
1886.00,0.0430
1885.00,0.0430
1884.00,0.0431
1883.00,0.0430
1882.00,0.0429
1881.00,0.0429
1880.00,0.0430
1879.00,0.0430
1878.00,0.0430
1877.00,0.0431
1876.00,0.0433
1875.00,0.0434
1874.00,0.0434
1873.00,0.0434
1872.00,0.0434
1871.00,0.0434
1870.00,0.0432
1869.00,0.0430
1868.00,0.0427
1867.00,0.0423
1866.00,0.0419
1865.00,0.0415
1864.00,0.0412
1863.00,0.0410
1862.00,0.0407
1861.00,0.0404
1860.00,0.0404
1859.00,0.0403
1858.00,0.0401
1857.00,0.0400
1856.00,0.0401
1855.00,0.0402
1854.00,0.0401
1853.00,0.0401
1852.00,0.0402
1851.00,0.0402
1850.00,0.0401
1849.00,0.0400
1848.00,0.0402
1847.00,0.0404
1846.00,0.0406
1845.00,0.0411
1844.00,0.0420
1843.00,0.0429
1842.00,0.0437
1841.00,0.0444
1840.00,0.0449
1839.00,0.0451
1838.00,0.0450
1837.00,0.0446
1836.00,0.0443
1835.00,0.0438
1834.00,0.0432
1833.00,0.0427
1832.00,0.0425
1831.00,0.0422
1830.00,0.0418
1829.00,0.0415
1828.00,0.0414
1827.00,0.0414
1826.00,0.0413
1825.00,0.0413
1824.00,0.0415
1823.00,0.0416
1822.00,0.0417
1821.00,0.0418
1820.00,0.0418
1819.00,0.0418
1818.00,0.0417
1817.00,0.0417
1816.00,0.0420
1815.00,0.0423
1814.00,0.0424
1813.00,0.0426
1812.00,0.0429
1811.00,0.0431
1810.00,0.0432
1809.00,0.0434
1808.00,0.0437
1807.00,0.0438
1806.00,0.0439
1805.00,0.0439
1804.00,0.0440
1803.00,0.0441
1802.00,0.0441
1801.00,0.0442
1800.00,0.0444
1799.00,0.0445
1798.00,0.0445
1797.00,0.0446
1796.00,0.0447
1795.00,0.0448
1794.00,0.0448
1793.00,0.0447
1792.00,0.0448
1791.00,0.0449
1790.00,0.0450
1789.00,0.0453
1788.00,0.0455
1787.00,0.0455
1786.00,0.0454
1785.00,0.0454
1784.00,0.0456
1783.00,0.0457
1782.00,0.0456
1781.00,0.0454
1780.00,0.0452
1779.00,0.0450
1778.00,0.0446
1777.00,0.0443
1776.00,0.0442
1775.00,0.0440
1774.00,0.0437
1773.00,0.0431
1772.00,0.0424
1771.00,0.0415
1770.00,0.0407
1769.00,0.0401
1768.00,0.0397
1767.00,0.0393
1766.00,0.0389
1765.00,0.0385
1764.00,0.0382
1763.00,0.0376
1762.00,0.0369
1761.00,0.0363
1760.00,0.0361
1759.00,0.0359
1758.00,0.0355
1757.00,0.0352
1756.00,0.0351
1755.00,0.0350
1754.00,0.0348
1753.00,0.0346
1752.00,0.0345
1751.00,0.0342
1750.00,0.0338
1749.00,0.0335
1748.00,0.0333
1747.00,0.0330
1746.00,0.0325
1745.00,0.0319
1744.00,0.0315
1743.00,0.0310
1742.00,0.0305
1741.00,0.0302
1740.00,0.0300
1739.00,0.0298
1738.00,0.0296
1737.00,0.0296
1736.00,0.0299
1735.00,0.0300
1734.00,0.0296
1733.00,0.0294
1732.00,0.0298
1731.00,0.0300
1730.00,0.0300
1729.00,0.0301
1728.00,0.0304
1727.00,0.0306
1726.00,0.0307
1725.00,0.0309
1724.00,0.0314
1723.00,0.0317
1722.00,0.0319
1721.00,0.0324
1720.00,0.0336
1719.00,0.0350
1718.00,0.0362
1717.00,0.0376
1716.00,0.0397
1715.00,0.0420
1714.00,0.0443
1713.00,0.0474
1712.00,0.0514
1711.00,0.0560
1710.00,0.0611
1709.00,0.0674
1708.00,0.0755
1707.00,0.0855
1706.00,0.0978
1705.00,0.1115
1704.00,0.1244
1703.00,0.1354
1702.00,0.1468
1701.00,0.1629
1700.00,0.1826
1699.00,0.1984
1698.00,0.2079
1697.00,0.2158
1696.00,0.2258
1695.00,0.2366
1694.00,0.2446
1693.00,0.2497
1692.00,0.2545
1691.00,0.2603
1690.00,0.2671
1689.00,0.2740
1688.00,0.2799
1687.00,0.2846
1686.00,0.2900
1685.00,0.2999
1684.00,0.3151
1683.00,0.3294
1682.00,0.3387
1681.00,0.3458
1680.00,0.3533
1679.00,0.3609
1678.00,0.3668
1677.00,0.3714
1676.00,0.3763
1675.00,0.3807
1674.00,0.3808
1673.00,0.3753
1672.00,0.3660
1671.00,0.3549
1670.00,0.3428
1669.00,0.3301
1668.00,0.3175
1667.00,0.3054
1666.00,0.2932
1665.00,0.2810
1664.00,0.2688
1663.00,0.2569
1662.00,0.2454
1661.00,0.2344
1660.00,0.2238
1659.00,0.2137
1658.00,0.2041
1657.00,0.1950
1656.00,0.1864
1655.00,0.1778
1654.00,0.1676
1653.00,0.1562
1652.00,0.1472
1651.00,0.1415
1650.00,0.1376
1649.00,0.1362
1648.00,0.1393
1647.00,0.1495
1646.00,0.1663
1645.00,0.1852
1644.00,0.2030
1643.00,0.2198
1642.00,0.2367
1641.00,0.2540
1640.00,0.2710
1639.00,0.2866
1638.00,0.3003
1637.00,0.3117
1636.00,0.3194
1635.00,0.3216
1634.00,0.3175
1633.00,0.3089
1632.00,0.2980
1631.00,0.2863
1630.00,0.2748
1629.00,0.2639
1628.00,0.2536
1627.00,0.2445
1626.00,0.2370
1625.00,0.2310
1624.00,0.2268
1623.00,0.2249
1622.00,0.2248
1621.00,0.2256
1620.00,0.2265
1619.00,0.2282
1618.00,0.2317
1617.00,0.2372
1616.00,0.2434
1615.00,0.2486
1614.00,0.2522
1613.00,0.2550
1612.00,0.2576
1611.00,0.2598
1610.00,0.2607
1609.00,0.2598
1608.00,0.2570
1607.00,0.2531
1606.00,0.2484
1605.00,0.2434
1604.00,0.2385
1603.00,0.2337
1602.00,0.2288
1601.00,0.2233
1600.00,0.2172
1599.00,0.2109
1598.00,0.2048
1597.00,0.1989
1596.00,0.1935
1595.00,0.1890
1594.00,0.1852
1593.00,0.1820
1592.00,0.1793
1591.00,0.1770
1590.00,0.1750
1589.00,0.1728
1588.00,0.1705
1587.00,0.1682
1586.00,0.1657
1585.00,0.1629
1584.00,0.1598
1583.00,0.1565
1582.00,0.1531
1581.00,0.1493
1580.00,0.1456
1579.00,0.1423
1578.00,0.1392
1577.00,0.1361
1576.00,0.1326
1575.00,0.1295
1574.00,0.1266
1573.00,0.1239
1572.00,0.1213
1571.00,0.1189
1570.00,0.1168
1569.00,0.1149
1568.00,0.1131
1567.00,0.1116
1566.00,0.1102
1565.00,0.1089
1564.00,0.1074
1563.00,0.1061
1562.00,0.1048
1561.00,0.1037
1560.00,0.1031
1559.00,0.1029
1558.00,0.1028
1557.00,0.1023
1556.00,0.1012
1555.00,0.1000
1554.00,0.0988
1553.00,0.0976
1552.00,0.0964
1551.00,0.0954
1550.00,0.0946
1549.00,0.0938
1548.00,0.0929
1547.00,0.0919
1546.00,0.0911
1545.00,0.0902
1544.00,0.0893
1543.00,0.0886
1542.00,0.0881
1541.00,0.0874
1540.00,0.0859
1539.00,0.0843
1538.00,0.0828
1537.00,0.0814
1536.00,0.0799
1535.00,0.0787
1534.00,0.0776
1533.00,0.0766
1532.00,0.0758
1531.00,0.0752
1530.00,0.0747
1529.00,0.0741
1528.00,0.0736
1527.00,0.0733
1526.00,0.0732
1525.00,0.0732
1524.00,0.0733
1523.00,0.0734
1522.00,0.0734
1521.00,0.0731
1520.00,0.0728
1519.00,0.0724
1518.00,0.0719
1517.00,0.0711
1516.00,0.0701
1515.00,0.0691
1514.00,0.0681
1513.00,0.0671
1512.00,0.0660
1511.00,0.0650
1510.00,0.0642
1509.00,0.0637
1508.00,0.0633
1507.00,0.0625
1506.00,0.0616
1505.00,0.0612
1504.00,0.0607
1503.00,0.0603
1502.00,0.0598
1501.00,0.0593
1500.00,0.0589
1499.00,0.0586
1498.00,0.0584
1497.00,0.0581
1496.00,0.0577
1495.00,0.0573
1494.00,0.0569
1493.00,0.0564
1492.00,0.0558
1491.00,0.0553
1490.00,0.0547
1489.00,0.0541
1488.00,0.0535
1487.00,0.0529
1486.00,0.0522
1485.00,0.0516
1484.00,0.0509
1483.00,0.0502
1482.00,0.0494
1481.00,0.0486
1480.00,0.0477
1479.00,0.0468
1478.00,0.0460
1477.00,0.0453
1476.00,0.0446
1475.00,0.0442
1474.00,0.0438
1473.00,0.0433
1472.00,0.0429
1471.00,0.0428
1470.00,0.0429
1469.00,0.0431
1468.00,0.0432
1467.00,0.0432
1466.00,0.0432
1465.00,0.0433
1464.00,0.0436
1463.00,0.0441
1462.00,0.0447
1461.00,0.0454
1460.00,0.0462
1459.00,0.0474
1458.00,0.0491
1457.00,0.0516
1456.00,0.0548
1455.00,0.0583
1454.00,0.0619
1453.00,0.0663
1452.00,0.0715
1451.00,0.0774
1450.00,0.0836
1449.00,0.0898
1448.00,0.0955
1447.00,0.0996
1446.00,0.1021
1445.00,0.1036
1444.00,0.1052
1443.00,0.1077
1442.00,0.1113
1441.00,0.1156
1440.00,0.1195
1439.00,0.1222
1438.00,0.1236
1437.00,0.1240
1436.00,0.1236
1435.00,0.1226
1434.00,0.1215
1433.00,0.1208
1432.00,0.1211
1431.00,0.1228
1430.00,0.1264
1429.00,0.1315
1428.00,0.1374
1427.00,0.1434
1426.00,0.1494
1425.00,0.1554
1424.00,0.1609
1423.00,0.1650
1422.00,0.1681
1421.00,0.1714
1420.00,0.1765
1419.00,0.1838
1418.00,0.1917
1417.00,0.1981
1416.00,0.2022
1415.00,0.2040
1414.00,0.2034
1413.00,0.2007
1412.00,0.1958
1411.00,0.1889
1410.00,0.1808
1409.00,0.1723
1408.00,0.1635
1407.00,0.1546
1406.00,0.1457
1405.00,0.1371
1404.00,0.1290
1403.00,0.1218
1402.00,0.1154
1401.00,0.1095
1400.00,0.1038
1399.00,0.0986
1398.00,0.0942
1397.00,0.0905
1396.00,0.0872
1395.00,0.0841
1394.00,0.0815
1393.00,0.0794
1392.00,0.0777
1391.00,0.0763
1390.00,0.0753
1389.00,0.0748
1388.00,0.0749
1387.00,0.0756
1386.00,0.0767
1385.00,0.0779
1384.00,0.0794
1383.00,0.0820
1382.00,0.0870
1381.00,0.0955
1380.00,0.1084
1379.00,0.1254
1378.00,0.1434
1377.00,0.1576
1376.00,0.1636
1375.00,0.1597
1374.00,0.1479
1373.00,0.1327
1372.00,0.1181
1371.00,0.1053
1370.00,0.0945
1369.00,0.0853
1368.00,0.0778
1367.00,0.0719
1366.00,0.0672
1365.00,0.0633
1364.00,0.0598
1363.00,0.0566
1362.00,0.0538
1361.00,0.0516
1360.00,0.0499
1359.00,0.0486
1358.00,0.0477
1357.00,0.0470
1356.00,0.0466
1355.00,0.0465
1354.00,0.0467
1353.00,0.0473
1352.00,0.0481
1351.00,0.0493
1350.00,0.0510
1349.00,0.0531
1348.00,0.0558
1347.00,0.0590
1346.00,0.0628
1345.00,0.0673
1344.00,0.0723
1343.00,0.0777
1342.00,0.0837
1341.00,0.0906
1340.00,0.0985
1339.00,0.1074
1338.00,0.1172
1337.00,0.1278
1336.00,0.1391
1335.00,0.1513
1334.00,0.1641
1333.00,0.1773
1332.00,0.1906
1331.00,0.2033
1330.00,0.2147
1329.00,0.2240
1328.00,0.2304
1327.00,0.2337
1326.00,0.2337
1325.00,0.2312
1324.00,0.2270
1323.00,0.2221
1322.00,0.2172
1321.00,0.2124
1320.00,0.2077
1319.00,0.2034
1318.00,0.2005
1317.00,0.2001
1316.00,0.2019
1315.00,0.2046
1314.00,0.2059
1313.00,0.2041
1312.00,0.1988
1311.00,0.1906
1310.00,0.1810
1309.00,0.1713
1308.00,0.1626
1307.00,0.1556
1306.00,0.1505
1305.00,0.1471
1304.00,0.1448
1303.00,0.1438
1302.00,0.1443
1301.00,0.1472
1300.00,0.1536
1299.00,0.1636
1298.00,0.1762
1297.00,0.1880
1296.00,0.1951
1295.00,0.1943
1294.00,0.1856
1293.00,0.1718
1292.00,0.1567
1291.00,0.1432
1290.00,0.1331
1289.00,0.1271
1288.00,0.1251
1287.00,0.1267
1286.00,0.1308
1285.00,0.1363
1284.00,0.1420
1283.00,0.1470
1282.00,0.1509
1281.00,0.1535
1280.00,0.1554
1279.00,0.1572
1278.00,0.1599
1277.00,0.1639
1276.00,0.1696
1275.00,0.1771
1274.00,0.1861
1273.00,0.1963
1272.00,0.2073
1271.00,0.2190
1270.00,0.2313
1269.00,0.2445
1268.00,0.2585
1267.00,0.2728
1266.00,0.2859
1265.00,0.2963
1264.00,0.3029
1263.00,0.3051
1262.00,0.3035
1261.00,0.2990
1260.00,0.2925
1259.00,0.2849
1258.00,0.2767
1257.00,0.2686
1256.00,0.2607
1255.00,0.2532
1254.00,0.2463
1253.00,0.2398
1252.00,0.2338
1251.00,0.2282
1250.00,0.2228
1249.00,0.2176
1248.00,0.2126
1247.00,0.2077
1246.00,0.2031
1245.00,0.1986
1244.00,0.1944
1243.00,0.1903
1242.00,0.1865
1241.00,0.1828
1240.00,0.1791
1239.00,0.1755
1238.00,0.1721
1237.00,0.1688
1236.00,0.1656
1235.00,0.1624
1234.00,0.1594
1233.00,0.1565
1232.00,0.1537
1231.00,0.1510
1230.00,0.1485
1229.00,0.1461
1228.00,0.1438
1227.00,0.1417
1226.00,0.1399
1225.00,0.1383
1224.00,0.1372
1223.00,0.1366
1222.00,0.1367
1221.00,0.1372
1220.00,0.1374
1219.00,0.1369
1218.00,0.1353
1217.00,0.1327
1216.00,0.1299
1215.00,0.1274
1214.00,0.1260
1213.00,0.1259
1212.00,0.1275
1211.00,0.1313
1210.00,0.1378
1209.00,0.1471
1208.00,0.1589
1207.00,0.1721
1206.00,0.1853
1205.00,0.1962
1204.00,0.2033
1203.00,0.2057
1202.00,0.2039
1201.00,0.1987
1200.00,0.1915
1199.00,0.1836
1198.00,0.1757
1197.00,0.1682
1196.00,0.1613
1195.00,0.1549
1194.00,0.1491
1193.00,0.1438
1192.00,0.1390
1191.00,0.1347
1190.00,0.1308
1189.00,0.1272
1188.00,0.1237
1187.00,0.1205
1186.00,0.1175
1185.00,0.1146
1184.00,0.1117
1183.00,0.1090
1182.00,0.1063
1181.00,0.1037
1180.00,0.1011
1179.00,0.0986
1178.00,0.0961
1177.00,0.0936
1176.00,0.0911
1175.00,0.0886
1174.00,0.0862
1173.00,0.0837
1172.00,0.0813
1171.00,0.0792
1170.00,0.0774
1169.00,0.0762
1168.00,0.0760
1167.00,0.0771
1166.00,0.0800
1165.00,0.0847
1164.00,0.0913
1163.00,0.0996
1162.00,0.1100
1161.00,0.1229
1160.00,0.1390
1159.00,0.1584
1158.00,0.1800
1157.00,0.2018
1156.00,0.2207
1155.00,0.2344
1154.00,0.2414
1153.00,0.2421
1152.00,0.2378
1151.00,0.2306
1150.00,0.2221
1149.00,0.2134
1148.00,0.2052
1147.00,0.1978
1146.00,0.1914
1145.00,0.1857
1144.00,0.1804
1143.00,0.1756
1142.00,0.1711
1141.00,0.1670
1140.00,0.1632
1139.00,0.1598
1138.00,0.1566
1137.00,0.1535
1136.00,0.1506
1135.00,0.1477
1134.00,0.1450
1133.00,0.1424
1132.00,0.1398
1131.00,0.1373
1130.00,0.1349
1129.00,0.1327
1128.00,0.1305
1127.00,0.1284
1126.00,0.1265
1125.00,0.1247
1124.00,0.1230
1123.00,0.1213
1122.00,0.1198
1121.00,0.1185
1120.00,0.1171
1119.00,0.1159
1118.00,0.1148
1117.00,0.1137
1116.00,0.1126
1115.00,0.1116
1114.00,0.1107
1113.00,0.1098
1112.00,0.1089
1111.00,0.1080
1110.00,0.1072
1109.00,0.1065
1108.00,0.1057
1107.00,0.1050
1106.00,0.1043
1105.00,0.1038
1104.00,0.1031
1103.00,0.1026
1102.00,0.1021
1101.00,0.1016
1100.00,0.1012
1099.00,0.1008
1098.00,0.1005
1097.00,0.1002
1096.00,0.0999
1095.00,0.0996
1094.00,0.0994
1093.00,0.0995
1092.00,0.0997
1091.00,0.1005
1090.00,0.1018
1089.00,0.1034
1088.00,0.1049
1087.00,0.1057
1086.00,0.1055
1085.00,0.1044
1084.00,0.1027
1083.00,0.1011
1082.00,0.0998
1081.00,0.0987
1080.00,0.0977
1079.00,0.0970
1078.00,0.0964
1077.00,0.0959
1076.00,0.0953
1075.00,0.0948
1074.00,0.0944
1073.00,0.0939
1072.00,0.0935
1071.00,0.0931
1070.00,0.0928
1069.00,0.0924
1068.00,0.0921
1067.00,0.0918
1066.00,0.0916
1065.00,0.0914
1064.00,0.0912
1063.00,0.0910
1062.00,0.0911
1061.00,0.0912
1060.00,0.0912
1059.00,0.0914
1058.00,0.0917
1057.00,0.0920
1056.00,0.0922
1055.00,0.0924
1054.00,0.0927
1053.00,0.0929
1052.00,0.0930
1051.00,0.0931
1050.00,0.0931
1049.00,0.0931
1048.00,0.0929
1047.00,0.0926
1046.00,0.0925
1045.00,0.0923
1044.00,0.0922
1043.00,0.0922
1042.00,0.0927
1041.00,0.0936
1040.00,0.0952
1039.00,0.0974
1038.00,0.0999
1037.00,0.1021
1036.00,0.1033
1035.00,0.1031
1034.00,0.1015
1033.00,0.0990
1032.00,0.0960
1031.00,0.0932
1030.00,0.0909
1029.00,0.0890
1028.00,0.0874
1027.00,0.0860
1026.00,0.0848
1025.00,0.0836
1024.00,0.0825
1023.00,0.0815
1022.00,0.0806
1021.00,0.0798
1020.00,0.0791
1019.00,0.0785
1018.00,0.0781
1017.00,0.0778
1016.00,0.0777
1015.00,0.0777
1014.00,0.0779
1013.00,0.0782
1012.00,0.0787
1011.00,0.0795
1010.00,0.0807
1009.00,0.0827
1008.00,0.0857
1007.00,0.0907
1006.00,0.0986
1005.00,0.1107
1004.00,0.1286
1003.00,0.1538
1002.00,0.1873
1001.00,0.2294
1000.00,0.2804
999.00,0.3397
998.00,0.4046
997.00,0.4686
996.00,0.5217
995.00,0.5538
994.00,0.5605
993.00,0.5434
992.00,0.5086
991.00,0.4629
990.00,0.4135
989.00,0.3657
988.00,0.3227
987.00,0.2860
986.00,0.2558
985.00,0.2313
984.00,0.2115
983.00,0.1957
982.00,0.1831
981.00,0.1735
980.00,0.1665
979.00,0.1623
978.00,0.1614
977.00,0.1639
976.00,0.1696
975.00,0.1773
974.00,0.1843
973.00,0.1878
972.00,0.1864
971.00,0.1806
970.00,0.1725
969.00,0.1641
968.00,0.1566
967.00,0.1504
966.00,0.1456
965.00,0.1419
964.00,0.1391
963.00,0.1371
962.00,0.1357
961.00,0.1349
960.00,0.1346
959.00,0.1350
958.00,0.1362
957.00,0.1386
956.00,0.1422
955.00,0.1475
954.00,0.1547
953.00,0.1645
952.00,0.1776
951.00,0.1952
950.00,0.2174
949.00,0.2407
948.00,0.2580
947.00,0.2623
946.00,0.2526
945.00,0.2346
944.00,0.2160
943.00,0.2015
942.00,0.1922
941.00,0.1872
940.00,0.1852
939.00,0.1854
938.00,0.1872
937.00,0.1903
936.00,0.1943
935.00,0.1993
934.00,0.2051
933.00,0.2116
932.00,0.2189
931.00,0.2268
930.00,0.2355
929.00,0.2449
928.00,0.2550
927.00,0.2658
926.00,0.2775
925.00,0.2900
924.00,0.3030
923.00,0.3164
922.00,0.3296
921.00,0.3415
920.00,0.3514
919.00,0.3587
918.00,0.3632
917.00,0.3653
916.00,0.3652
915.00,0.3634
914.00,0.3601
913.00,0.3553
912.00,0.3493
911.00,0.3422
910.00,0.3341
909.00,0.3254
908.00,0.3160
907.00,0.3064
906.00,0.2967
905.00,0.2870
904.00,0.2774
903.00,0.2680
902.00,0.2588
901.00,0.2500
900.00,0.2414
899.00,0.2333
898.00,0.2256
897.00,0.2183
896.00,0.2113
895.00,0.2047
894.00,0.1986
893.00,0.1928
892.00,0.1872
891.00,0.1820
890.00,0.1771
889.00,0.1724
888.00,0.1679
887.00,0.1636
886.00,0.1597
885.00,0.1560
884.00,0.1525
883.00,0.1495
882.00,0.1474
881.00,0.1468
880.00,0.1491
879.00,0.1555
878.00,0.1673
877.00,0.1862
876.00,0.2152
875.00,0.2571
874.00,0.3097
873.00,0.3610
872.00,0.3910
871.00,0.3869
870.00,0.3556
869.00,0.3154
868.00,0.2791
867.00,0.2510
866.00,0.2303
865.00,0.2146
864.00,0.2021
863.00,0.1919
862.00,0.1836
861.00,0.1769
860.00,0.1713
859.00,0.1664
858.00,0.1623
857.00,0.1587
856.00,0.1555
855.00,0.1527
854.00,0.1503
853.00,0.1481
852.00,0.1460
851.00,0.1441
850.00,0.1424
849.00,0.1409
848.00,0.1395
847.00,0.1382
846.00,0.1372
845.00,0.1363
844.00,0.1356
843.00,0.1349
842.00,0.1344
841.00,0.1340
840.00,0.1336
839.00,0.1332
838.00,0.1330
837.00,0.1329
836.00,0.1328
835.00,0.1328
834.00,0.1328
833.00,0.1328
832.00,0.1327
831.00,0.1327
830.00,0.1326
829.00,0.1326
828.00,0.1325
827.00,0.1323
826.00,0.1321
825.00,0.1319
824.00,0.1315
823.00,0.1311
822.00,0.1308
821.00,0.1305
820.00,0.1301
819.00,0.1298
818.00,0.1295
817.00,0.1293
816.00,0.1291
815.00,0.1292
814.00,0.1296
813.00,0.1304
812.00,0.1320
811.00,0.1346
810.00,0.1389
809.00,0.1455
808.00,0.1547
807.00,0.1660
806.00,0.1776
805.00,0.1859
804.00,0.1875
803.00,0.1816
802.00,0.1700
801.00,0.1561
800.00,0.1431
799.00,0.1324
798.00,0.1243
797.00,0.1183
796.00,0.1137
795.00,0.1103
794.00,0.1077
793.00,0.1057
792.00,0.1040
791.00,0.1025
790.00,0.1012
789.00,0.0999
788.00,0.0987
787.00,0.0976
786.00,0.0966
785.00,0.0958
784.00,0.0948
783.00,0.0939
782.00,0.0930
781.00,0.0922
780.00,0.0912
779.00,0.0903
778.00,0.0895
777.00,0.0888
776.00,0.0880
775.00,0.0873
774.00,0.0867
773.00,0.0860
772.00,0.0852
771.00,0.0844
770.00,0.0838
769.00,0.0831
768.00,0.0824
767.00,0.0818
766.00,0.0812
765.00,0.0806
764.00,0.0800
763.00,0.0794
762.00,0.0789
761.00,0.0784
760.00,0.0779
759.00,0.0774
758.00,0.0770
757.00,0.0766
756.00,0.0762
755.00,0.0758
754.00,0.0754
753.00,0.0750
752.00,0.0745
751.00,0.0741
750.00,0.0737
749.00,0.0734
748.00,0.0729
747.00,0.0724
746.00,0.0719
745.00,0.0714
744.00,0.0708
743.00,0.0702
742.00,0.0696
741.00,0.0691
740.00,0.0685
739.00,0.0678
738.00,0.0673
737.00,0.0667
736.00,0.0661
735.00,0.0654
734.00,0.0648
733.00,0.0641
732.00,0.0633
731.00,0.0624
730.00,0.0616
729.00,0.0608
728.00,0.0600
727.00,0.0591
726.00,0.0583
725.00,0.0574
724.00,0.0565
723.00,0.0555
722.00,0.0547
721.00,0.0540
720.00,0.0534
719.00,0.0532
718.00,0.0536
717.00,0.0547
716.00,0.0566
715.00,0.0593
714.00,0.0623
713.00,0.0647
712.00,0.0658
711.00,0.0657
710.00,0.0650
709.00,0.0647
708.00,0.0659
707.00,0.0702
706.00,0.0796
705.00,0.0966
704.00,0.1231
703.00,0.1593
702.00,0.2021
701.00,0.2438
700.00,0.2754
699.00,0.2919
698.00,0.2958
697.00,0.2935
696.00,0.2896
695.00,0.2841
694.00,0.2745
693.00,0.2592
692.00,0.2392
691.00,0.2180
690.00,0.1987
689.00,0.1824
688.00,0.1692
687.00,0.1586
686.00,0.1503
685.00,0.1437
684.00,0.1380
683.00,0.1332
682.00,0.1292
681.00,0.1258
680.00,0.1226
679.00,0.1198
678.00,0.1174
677.00,0.1152
676.00,0.1131
675.00,0.1112
674.00,0.1097
673.00,0.1081
672.00,0.1066
671.00,0.1053
670.00,0.1045
669.00,0.1039
668.00,0.1033
667.00,0.1025
666.00,0.1011
665.00,0.0994
664.00,0.0980
663.00,0.0969
662.00,0.0961
661.00,0.0954
660.00,0.0946
659.00,0.0938
658.00,0.0932
657.00,0.0925
656.00,0.0918
655.00,0.0912
654.00,0.0907
653.00,0.0901
652.00,0.0894
651.00,0.0887
650.00,0.0882
649.00,0.0877
648.00,0.0871
647.00,0.0866
646.00,0.0862
645.00,0.0857
644.00,0.0851
643.00,0.0845
642.00,0.0840
641.00,0.0834
640.00,0.0828
639.00,0.0823
638.00,0.0819
637.00,0.0814
636.00,0.0808
635.00,0.0802
634.00,0.0798
633.00,0.0795
632.00,0.0790
631.00,0.0787
630.00,0.0785
629.00,0.0782
628.00,0.0779
627.00,0.0776
626.00,0.0774
625.00,0.0772
624.00,0.0770
623.00,0.0768
622.00,0.0768
621.00,0.0768
620.00,0.0766
619.00,0.0765
618.00,0.0765
617.00,0.0767
616.00,0.0768
615.00,0.0771
614.00,0.0776
613.00,0.0783
612.00,0.0792
611.00,0.0804
610.00,0.0822
609.00,0.0844
608.00,0.0870
607.00,0.0901
606.00,0.0939
605.00,0.0982
604.00,0.1029
603.00,0.1082
602.00,0.1142
601.00,0.1208
600.00,0.1277
599.00,0.1350
598.00,0.1423
597.00,0.1490
596.00,0.1541
595.00,0.1573
594.00,0.1583
593.00,0.1571
592.00,0.1546
591.00,0.1519
590.00,0.1506
589.00,0.1517
588.00,0.1557
587.00,0.1629
586.00,0.1724
585.00,0.1817
584.00,0.1879
583.00,0.1890
582.00,0.1846
581.00,0.1760
580.00,0.1653
579.00,0.1546
578.00,0.1452
577.00,0.1370
576.00,0.1300
575.00,0.1241
574.00,0.1194
573.00,0.1154
572.00,0.1118
571.00,0.1085
570.00,0.1059
569.00,0.1035
568.00,0.1013
567.00,0.0993
566.00,0.0975
565.00,0.0959
564.00,0.0942
563.00,0.0926
562.00,0.0915
561.00,0.0904
560.00,0.0893
559.00,0.0883
558.00,0.0876
557.00,0.0868
556.00,0.0857
555.00,0.0847
554.00,0.0840
553.00,0.0833
552.00,0.0825
551.00,0.0818
550.00,0.0813
549.00,0.0807
548.00,0.0799
547.00,0.0792
546.00,0.0788
545.00,0.0785
544.00,0.0779
543.00,0.0774
542.00,0.0771
541.00,0.0768
540.00,0.0764
539.00,0.0760
538.00,0.0761
537.00,0.0761
536.00,0.0759
535.00,0.0755
534.00,0.0754
533.00,0.0751
532.00,0.0746
531.00,0.0740
530.00,0.0736
529.00,0.0731
528.00,0.0723
527.00,0.0714
526.00,0.0710
525.00,0.0705
524.00,0.0699
523.00,0.0694
522.00,0.0692
521.00,0.0690
520.00,0.0684
519.00,0.0679
518.00,0.0676
517.00,0.0672
516.00,0.0666
515.00,0.0661
514.00,0.0659
513.00,0.0657
512.00,0.0652
511.00,0.0650
510.00,0.0651
509.00,0.0654
508.00,0.0653
507.00,0.0653
506.00,0.0657
505.00,0.0660
504.00,0.0662
503.00,0.0664
502.00,0.0671
501.00,0.0679
500.00,0.0684
499.00,0.0690
498.00,0.0701
497.00,0.0713
496.00,0.0721
495.00,0.0728
494.00,0.0738
493.00,0.0747
492.00,0.0754
491.00,0.0762
490.00,0.0775
489.00,0.0788
488.00,0.0798
487.00,0.0809
486.00,0.0824
485.00,0.0845
484.00,0.0868
483.00,0.0901
482.00,0.0950
481.00,0.1015
480.00,0.1098
479.00,0.1207
478.00,0.1352
477.00,0.1532
476.00,0.1737
475.00,0.1962
474.00,0.2194
473.00,0.2408
472.00,0.2566
471.00,0.2642
470.00,0.2637
469.00,0.2569
468.00,0.2461
467.00,0.2334
466.00,0.2207
465.00,0.2084
464.00,0.1965
463.00,0.1857
462.00,0.1766
461.00,0.1687
460.00,0.1612
459.00,0.1543
458.00,0.1482
457.00,0.1426
456.00,0.1373
455.00,0.1329
454.00,0.1292
453.00,0.1255
452.00,0.1218
451.00,0.1188
450.00,0.1165
449.00,0.1141
448.00,0.1110
447.00,0.1083
446.00,0.1066
445.00,0.1052
444.00,0.1035
443.00,0.1021
442.00,0.1015
441.00,0.1006
440.00,0.0988
439.00,0.0970
438.00,0.0957
437.00,0.0946
436.00,0.0933
435.00,0.0926
434.00,0.0928
433.00,0.0928
432.00,0.0919
431.00,0.0908
430.00,0.0904
429.00,0.0899
428.00,0.0889
427.00,0.0880
426.00,0.0878
425.00,0.0874
424.00,0.0862
423.00,0.0854
422.00,0.0855
421.00,0.0855
420.00,0.0844
419.00,0.0834
418.00,0.0836
417.00,0.0836
416.00,0.0825
415.00,0.0816
414.00,0.0818
413.00,0.0818
412.00,0.0810
411.00,0.0804
410.00,0.0808
409.00,0.0809
408.00,0.0795
407.00,0.0786
406.00,0.0796
405.00,0.0806
404.00,0.0799
403.00,0.0787
402.00,0.0784
401.00,0.0775
400.00,0.0744
