Created as New Dataset,Sample 698 By YargerLab Date Wednesday, June 18 2025
cm-1,A
4000.00,0.0060
3999.00,0.0060
3998.00,0.0060
3997.00,0.0060
3996.00,0.0059
3995.00,0.0059
3994.00,0.0059
3993.00,0.0059
3992.00,0.0060
3991.00,0.0060
3990.00,0.0060
3989.00,0.0059
3988.00,0.0060
3987.00,0.0060
3986.00,0.0060
3985.00,0.0060
3984.00,0.0060
3983.00,0.0059
3982.00,0.0059
3981.00,0.0059
3980.00,0.0060
3979.00,0.0060
3978.00,0.0060
3977.00,0.0060
3976.00,0.0060
3975.00,0.0060
3974.00,0.0060
3973.00,0.0060
3972.00,0.0060
3971.00,0.0060
3970.00,0.0060
3969.00,0.0060
3968.00,0.0061
3967.00,0.0061
3966.00,0.0061
3965.00,0.0061
3964.00,0.0061
3963.00,0.0061
3962.00,0.0061
3961.00,0.0061
3960.00,0.0061
3959.00,0.0061
3958.00,0.0061
3957.00,0.0061
3956.00,0.0061
3955.00,0.0061
3954.00,0.0062
3953.00,0.0062
3952.00,0.0061
3951.00,0.0061
3950.00,0.0061
3949.00,0.0061
3948.00,0.0061
3947.00,0.0061
3946.00,0.0061
3945.00,0.0061
3944.00,0.0061
3943.00,0.0061
3942.00,0.0061
3941.00,0.0061
3940.00,0.0061
3939.00,0.0061
3938.00,0.0061
3937.00,0.0061
3936.00,0.0061
3935.00,0.0061
3934.00,0.0061
3933.00,0.0061
3932.00,0.0061
3931.00,0.0061
3930.00,0.0061
3929.00,0.0062
3928.00,0.0062
3927.00,0.0062
3926.00,0.0062
3925.00,0.0062
3924.00,0.0062
3923.00,0.0062
3922.00,0.0062
3921.00,0.0062
3920.00,0.0062
3919.00,0.0062
3918.00,0.0062
3917.00,0.0062
3916.00,0.0061
3915.00,0.0061
3914.00,0.0061
3913.00,0.0061
3912.00,0.0061
3911.00,0.0061
3910.00,0.0061
3909.00,0.0061
3908.00,0.0061
3907.00,0.0060
3906.00,0.0060
3905.00,0.0060
3904.00,0.0060
3903.00,0.0060
3902.00,0.0060
3901.00,0.0060
3900.00,0.0060
3899.00,0.0059
3898.00,0.0059
3897.00,0.0060
3896.00,0.0060
3895.00,0.0060
3894.00,0.0060
3893.00,0.0060
3892.00,0.0060
3891.00,0.0060
3890.00,0.0059
3889.00,0.0059
3888.00,0.0059
3887.00,0.0059
3886.00,0.0059
3885.00,0.0059
3884.00,0.0059
3883.00,0.0059
3882.00,0.0059
3881.00,0.0059
3880.00,0.0059
3879.00,0.0059
3878.00,0.0059
3877.00,0.0059
3876.00,0.0059
3875.00,0.0059
3874.00,0.0059
3873.00,0.0059
3872.00,0.0059
3871.00,0.0059
3870.00,0.0058
3869.00,0.0059
3868.00,0.0059
3867.00,0.0059
3866.00,0.0059
3865.00,0.0059
3864.00,0.0059
3863.00,0.0059
3862.00,0.0059
3861.00,0.0059
3860.00,0.0059
3859.00,0.0059
3858.00,0.0059
3857.00,0.0059
3856.00,0.0060
3855.00,0.0060
3854.00,0.0060
3853.00,0.0060
3852.00,0.0059
3851.00,0.0059
3850.00,0.0059
3849.00,0.0059
3848.00,0.0059
3847.00,0.0059
3846.00,0.0059
3845.00,0.0059
3844.00,0.0058
3843.00,0.0058
3842.00,0.0058
3841.00,0.0058
3840.00,0.0058
3839.00,0.0059
3838.00,0.0059
3837.00,0.0059
3836.00,0.0059
3835.00,0.0059
3834.00,0.0058
3833.00,0.0058
3832.00,0.0058
3831.00,0.0058
3830.00,0.0058
3829.00,0.0058
3828.00,0.0058
3827.00,0.0058
3826.00,0.0058
3825.00,0.0058
3824.00,0.0058
3823.00,0.0057
3822.00,0.0057
3821.00,0.0057
3820.00,0.0058
3819.00,0.0058
3818.00,0.0058
3817.00,0.0058
3816.00,0.0058
3815.00,0.0058
3814.00,0.0058
3813.00,0.0058
3812.00,0.0058
3811.00,0.0058
3810.00,0.0058
3809.00,0.0058
3808.00,0.0057
3807.00,0.0057
3806.00,0.0057
3805.00,0.0058
3804.00,0.0058
3803.00,0.0058
3802.00,0.0058
3801.00,0.0058
3800.00,0.0058
3799.00,0.0058
3798.00,0.0058
3797.00,0.0058
3796.00,0.0058
3795.00,0.0058
3794.00,0.0057
3793.00,0.0057
3792.00,0.0057
3791.00,0.0057
3790.00,0.0057
3789.00,0.0057
3788.00,0.0057
3787.00,0.0057
3786.00,0.0057
3785.00,0.0057
3784.00,0.0057
3783.00,0.0057
3782.00,0.0057
3781.00,0.0057
3780.00,0.0057
3779.00,0.0058
3778.00,0.0058
3777.00,0.0058
3776.00,0.0058
3775.00,0.0058
3774.00,0.0058
3773.00,0.0058
3772.00,0.0058
3771.00,0.0057
3770.00,0.0057
3769.00,0.0058
3768.00,0.0058
3767.00,0.0058
3766.00,0.0058
3765.00,0.0058
3764.00,0.0058
3763.00,0.0058
3762.00,0.0057
3761.00,0.0057
3760.00,0.0057
3759.00,0.0057
3758.00,0.0057
3757.00,0.0057
3756.00,0.0057
3755.00,0.0057
3754.00,0.0057
3753.00,0.0057
3752.00,0.0057
3751.00,0.0056
3750.00,0.0056
3749.00,0.0056
3748.00,0.0056
3747.00,0.0056
3746.00,0.0055
3745.00,0.0055
3744.00,0.0055
3743.00,0.0055
3742.00,0.0055
3741.00,0.0054
3740.00,0.0054
3739.00,0.0054
3738.00,0.0054
3737.00,0.0054
3736.00,0.0054
3735.00,0.0054
3734.00,0.0054
3733.00,0.0054
3732.00,0.0054
3731.00,0.0054
3730.00,0.0054
3729.00,0.0054
3728.00,0.0054
3727.00,0.0054
3726.00,0.0054
3725.00,0.0054
3724.00,0.0054
3723.00,0.0054
3722.00,0.0054
3721.00,0.0054
3720.00,0.0054
3719.00,0.0055
3718.00,0.0055
3717.00,0.0055
3716.00,0.0055
3715.00,0.0055
3714.00,0.0054
3713.00,0.0054
3712.00,0.0054
3711.00,0.0054
3710.00,0.0054
3709.00,0.0054
3708.00,0.0054
3707.00,0.0054
3706.00,0.0054
3705.00,0.0054
3704.00,0.0054
3703.00,0.0054
3702.00,0.0054
3701.00,0.0053
3700.00,0.0053
3699.00,0.0053
3698.00,0.0053
3697.00,0.0054
3696.00,0.0054
3695.00,0.0054
3694.00,0.0055
3693.00,0.0055
3692.00,0.0055
3691.00,0.0055
3690.00,0.0055
3689.00,0.0054
3688.00,0.0054
3687.00,0.0054
3686.00,0.0054
3685.00,0.0054
3684.00,0.0054
3683.00,0.0054
3682.00,0.0053
3681.00,0.0053
3680.00,0.0053
3679.00,0.0053
3678.00,0.0053
3677.00,0.0053
3676.00,0.0052
3675.00,0.0052
3674.00,0.0052
3673.00,0.0052
3672.00,0.0052
3671.00,0.0052
3670.00,0.0052
3669.00,0.0052
3668.00,0.0053
3667.00,0.0053
3666.00,0.0053
3665.00,0.0054
3664.00,0.0054
3663.00,0.0054
3662.00,0.0054
3661.00,0.0054
3660.00,0.0054
3659.00,0.0053
3658.00,0.0053
3657.00,0.0053
3656.00,0.0052
3655.00,0.0052
3654.00,0.0052
3653.00,0.0052
3652.00,0.0052
3651.00,0.0052
3650.00,0.0052
3649.00,0.0052
3648.00,0.0052
3647.00,0.0052
3646.00,0.0053
3645.00,0.0053
3644.00,0.0053
3643.00,0.0053
3642.00,0.0053
3641.00,0.0052
3640.00,0.0052
3639.00,0.0052
3638.00,0.0052
3637.00,0.0052
3636.00,0.0052
3635.00,0.0052
3634.00,0.0052
3633.00,0.0052
3632.00,0.0052
3631.00,0.0051
3630.00,0.0051
3629.00,0.0051
3628.00,0.0051
3627.00,0.0052
3626.00,0.0052
3625.00,0.0052
3624.00,0.0052
3623.00,0.0052
3622.00,0.0052
3621.00,0.0052
3620.00,0.0053
3619.00,0.0053
3618.00,0.0054
3617.00,0.0054
3616.00,0.0054
3615.00,0.0055
3614.00,0.0055
3613.00,0.0055
3612.00,0.0055
3611.00,0.0055
3610.00,0.0054
3609.00,0.0054
3608.00,0.0054
3607.00,0.0054
3606.00,0.0054
3605.00,0.0054
3604.00,0.0054
3603.00,0.0054
3602.00,0.0055
3601.00,0.0055
3600.00,0.0055
3599.00,0.0055
3598.00,0.0055
3597.00,0.0055
3596.00,0.0056
3595.00,0.0056
3594.00,0.0056
3593.00,0.0057
3592.00,0.0057
3591.00,0.0057
3590.00,0.0057
3589.00,0.0057
3588.00,0.0057
3587.00,0.0057
3586.00,0.0057
3585.00,0.0058
3584.00,0.0058
3583.00,0.0059
3582.00,0.0059
3581.00,0.0060
3580.00,0.0061
3579.00,0.0061
3578.00,0.0062
3577.00,0.0062
3576.00,0.0062
3575.00,0.0062
3574.00,0.0063
3573.00,0.0063
3572.00,0.0063
3571.00,0.0063
3570.00,0.0064
3569.00,0.0064
3568.00,0.0065
3567.00,0.0066
3566.00,0.0067
3565.00,0.0068
3564.00,0.0069
3563.00,0.0070
3562.00,0.0071
3561.00,0.0072
3560.00,0.0073
3559.00,0.0074
3558.00,0.0075
3557.00,0.0076
3556.00,0.0077
3555.00,0.0079
3554.00,0.0080
3553.00,0.0082
3552.00,0.0083
3551.00,0.0085
3550.00,0.0087
3549.00,0.0089
3548.00,0.0092
3547.00,0.0095
3546.00,0.0098
3545.00,0.0101
3544.00,0.0105
3543.00,0.0109
3542.00,0.0113
3541.00,0.0118
3540.00,0.0123
3539.00,0.0130
3538.00,0.0136
3537.00,0.0144
3536.00,0.0154
3535.00,0.0164
3534.00,0.0176
3533.00,0.0189
3532.00,0.0205
3531.00,0.0224
3530.00,0.0246
3529.00,0.0272
3528.00,0.0300
3527.00,0.0331
3526.00,0.0362
3525.00,0.0393
3524.00,0.0421
3523.00,0.0446
3522.00,0.0465
3521.00,0.0478
3520.00,0.0484
3519.00,0.0483
3518.00,0.0477
3517.00,0.0466
3516.00,0.0450
3515.00,0.0432
3514.00,0.0412
3513.00,0.0392
3512.00,0.0371
3511.00,0.0351
3510.00,0.0332
3509.00,0.0315
3508.00,0.0300
3507.00,0.0287
3506.00,0.0275
3505.00,0.0265
3504.00,0.0257
3503.00,0.0251
3502.00,0.0245
3501.00,0.0241
3500.00,0.0238
3499.00,0.0235
3498.00,0.0233
3497.00,0.0232
3496.00,0.0232
3495.00,0.0231
3494.00,0.0232
3493.00,0.0232
3492.00,0.0232
3491.00,0.0233
3490.00,0.0235
3489.00,0.0237
3488.00,0.0239
3487.00,0.0241
3486.00,0.0243
3485.00,0.0246
3484.00,0.0248
3483.00,0.0251
3482.00,0.0255
3481.00,0.0259
3480.00,0.0263
3479.00,0.0267
3478.00,0.0271
3477.00,0.0275
3476.00,0.0279
3475.00,0.0283
3474.00,0.0288
3473.00,0.0293
3472.00,0.0299
3471.00,0.0304
3470.00,0.0310
3469.00,0.0316
3468.00,0.0322
3467.00,0.0328
3466.00,0.0334
3465.00,0.0340
3464.00,0.0347
3463.00,0.0354
3462.00,0.0361
3461.00,0.0368
3460.00,0.0375
3459.00,0.0381
3458.00,0.0388
3457.00,0.0394
3456.00,0.0401
3455.00,0.0407
3454.00,0.0414
3453.00,0.0420
3452.00,0.0427
3451.00,0.0433
3450.00,0.0439
3449.00,0.0446
3448.00,0.0452
3447.00,0.0459
3446.00,0.0466
3445.00,0.0472
3444.00,0.0478
3443.00,0.0484
3442.00,0.0490
3441.00,0.0496
3440.00,0.0502
3439.00,0.0508
3438.00,0.0515
3437.00,0.0520
3436.00,0.0526
3435.00,0.0532
3434.00,0.0537
3433.00,0.0543
3432.00,0.0549
3431.00,0.0554
3430.00,0.0560
3429.00,0.0566
3428.00,0.0571
3427.00,0.0577
3426.00,0.0583
3425.00,0.0589
3424.00,0.0596
3423.00,0.0603
3422.00,0.0611
3421.00,0.0620
3420.00,0.0630
3419.00,0.0639
3418.00,0.0649
3417.00,0.0660
3416.00,0.0670
3415.00,0.0681
3414.00,0.0691
3413.00,0.0701
3412.00,0.0710
3411.00,0.0717
3410.00,0.0723
3409.00,0.0727
3408.00,0.0729
3407.00,0.0729
3406.00,0.0727
3405.00,0.0721
3404.00,0.0714
3403.00,0.0704
3402.00,0.0692
3401.00,0.0677
3400.00,0.0660
3399.00,0.0641
3398.00,0.0621
3397.00,0.0601
3396.00,0.0580
3395.00,0.0560
3394.00,0.0540
3393.00,0.0521
3392.00,0.0503
3391.00,0.0486
3390.00,0.0469
3389.00,0.0453
3388.00,0.0438
3387.00,0.0424
3386.00,0.0411
3385.00,0.0399
3384.00,0.0388
3383.00,0.0377
3382.00,0.0367
3381.00,0.0358
3380.00,0.0349
3379.00,0.0341
3378.00,0.0333
3377.00,0.0326
3376.00,0.0318
3375.00,0.0311
3374.00,0.0305
3373.00,0.0298
3372.00,0.0292
3371.00,0.0287
3370.00,0.0281
3369.00,0.0275
3368.00,0.0270
3367.00,0.0265
3366.00,0.0260
3365.00,0.0255
3364.00,0.0250
3363.00,0.0246
3362.00,0.0241
3361.00,0.0236
3360.00,0.0232
3359.00,0.0228
3358.00,0.0225
3357.00,0.0221
3356.00,0.0217
3355.00,0.0214
3354.00,0.0211
3353.00,0.0208
3352.00,0.0205
3351.00,0.0202
3350.00,0.0199
3349.00,0.0196
3348.00,0.0193
3347.00,0.0190
3346.00,0.0188
3345.00,0.0185
3344.00,0.0183
3343.00,0.0180
3342.00,0.0178
3341.00,0.0176
3340.00,0.0174
3339.00,0.0172
3338.00,0.0169
3337.00,0.0167
3336.00,0.0165
3335.00,0.0163
3334.00,0.0161
3333.00,0.0160
3332.00,0.0158
3331.00,0.0157
3330.00,0.0156
3329.00,0.0154
3328.00,0.0153
3327.00,0.0151
3326.00,0.0150
3325.00,0.0148
3324.00,0.0146
3323.00,0.0145
3322.00,0.0144
3321.00,0.0143
3320.00,0.0142
3319.00,0.0140
3318.00,0.0139
3317.00,0.0138
3316.00,0.0137
3315.00,0.0135
3314.00,0.0134
3313.00,0.0133
3312.00,0.0132
3311.00,0.0131
3310.00,0.0130
3309.00,0.0129
3308.00,0.0128
3307.00,0.0127
3306.00,0.0126
3305.00,0.0125
3304.00,0.0124
3303.00,0.0123
3302.00,0.0122
3301.00,0.0121
3300.00,0.0120
3299.00,0.0119
3298.00,0.0119
3297.00,0.0118
3296.00,0.0117
3295.00,0.0116
3294.00,0.0115
3293.00,0.0114
3292.00,0.0114
3291.00,0.0113
3290.00,0.0113
3289.00,0.0112
3288.00,0.0111
3287.00,0.0110
3286.00,0.0109
3285.00,0.0108
3284.00,0.0108
3283.00,0.0107
3282.00,0.0106
3281.00,0.0105
3280.00,0.0105
3279.00,0.0104
3278.00,0.0103
3277.00,0.0102
3276.00,0.0102
3275.00,0.0101
3274.00,0.0101
3273.00,0.0100
3272.00,0.0100
3271.00,0.0099
3270.00,0.0099
3269.00,0.0099
3268.00,0.0099
3267.00,0.0099
3266.00,0.0098
3265.00,0.0098
3264.00,0.0098
3263.00,0.0098
3262.00,0.0098
3261.00,0.0098
3260.00,0.0097
3259.00,0.0097
3258.00,0.0096
3257.00,0.0096
3256.00,0.0095
3255.00,0.0095
3254.00,0.0095
3253.00,0.0095
3252.00,0.0095
3251.00,0.0094
3250.00,0.0094
3249.00,0.0093
3248.00,0.0093
3247.00,0.0092
3246.00,0.0092
3245.00,0.0092
3244.00,0.0092
3243.00,0.0092
3242.00,0.0091
3241.00,0.0091
3240.00,0.0091
3239.00,0.0090
3238.00,0.0090
3237.00,0.0089
3236.00,0.0088
3235.00,0.0088
3234.00,0.0087
3233.00,0.0087
3232.00,0.0087
3231.00,0.0087
3230.00,0.0086
3229.00,0.0086
3228.00,0.0086
3227.00,0.0086
3226.00,0.0086
3225.00,0.0086
3224.00,0.0086
3223.00,0.0086
3222.00,0.0086
3221.00,0.0085
3220.00,0.0085
3219.00,0.0085
3218.00,0.0084
3217.00,0.0084
3216.00,0.0084
3215.00,0.0084
3214.00,0.0084
3213.00,0.0084
3212.00,0.0084
3211.00,0.0084
3210.00,0.0083
3209.00,0.0083
3208.00,0.0083
3207.00,0.0083
3206.00,0.0083
3205.00,0.0083
3204.00,0.0083
3203.00,0.0082
3202.00,0.0082
3201.00,0.0082
3200.00,0.0082
3199.00,0.0082
3198.00,0.0081
3197.00,0.0081
3196.00,0.0081
3195.00,0.0081
3194.00,0.0081
3193.00,0.0081
3192.00,0.0080
3191.00,0.0080
3190.00,0.0080
3189.00,0.0080
3188.00,0.0080
3187.00,0.0080
3186.00,0.0080
3185.00,0.0080
3184.00,0.0080
3183.00,0.0080
3182.00,0.0080
3181.00,0.0080
3180.00,0.0080
3179.00,0.0080
3178.00,0.0080
3177.00,0.0081
3176.00,0.0081
3175.00,0.0081
3174.00,0.0080
3173.00,0.0080
3172.00,0.0080
3171.00,0.0080
3170.00,0.0081
3169.00,0.0081
3168.00,0.0081
3167.00,0.0081
3166.00,0.0081
3165.00,0.0081
3164.00,0.0081
3163.00,0.0081
3162.00,0.0081
3161.00,0.0081
3160.00,0.0081
3159.00,0.0081
3158.00,0.0080
3157.00,0.0080
3156.00,0.0079
3155.00,0.0077
3154.00,0.0076
3153.00,0.0076
3152.00,0.0076
3151.00,0.0076
3150.00,0.0077
3149.00,0.0077
3148.00,0.0077
3147.00,0.0077
3146.00,0.0077
3145.00,0.0076
3144.00,0.0076
3143.00,0.0076
3142.00,0.0076
3141.00,0.0075
3140.00,0.0075
3139.00,0.0075
3138.00,0.0075
3137.00,0.0075
3136.00,0.0075
3135.00,0.0075
3134.00,0.0075
3133.00,0.0075
3132.00,0.0075
3131.00,0.0075
3130.00,0.0075
3129.00,0.0075
3128.00,0.0075
3127.00,0.0074
3126.00,0.0074
3125.00,0.0074
3124.00,0.0073
3123.00,0.0073
3122.00,0.0073
3121.00,0.0073
3120.00,0.0072
3119.00,0.0072
3118.00,0.0072
3117.00,0.0072
3116.00,0.0072
3115.00,0.0072
3114.00,0.0072
3113.00,0.0072
3112.00,0.0072
3111.00,0.0072
3110.00,0.0072
3109.00,0.0072
3108.00,0.0072
3107.00,0.0072
3106.00,0.0072
3105.00,0.0072
3104.00,0.0072
3103.00,0.0072
3102.00,0.0072
3101.00,0.0072
3100.00,0.0073
3099.00,0.0073
3098.00,0.0073
3097.00,0.0073
3096.00,0.0073
3095.00,0.0074
3094.00,0.0074
3093.00,0.0074
3092.00,0.0074
3091.00,0.0075
3090.00,0.0075
3089.00,0.0076
3088.00,0.0077
3087.00,0.0078
3086.00,0.0080
3085.00,0.0082
3084.00,0.0085
3083.00,0.0090
3082.00,0.0095
3081.00,0.0102
3080.00,0.0112
3079.00,0.0123
3078.00,0.0136
3077.00,0.0148
3076.00,0.0157
3075.00,0.0162
3074.00,0.0161
3073.00,0.0155
3072.00,0.0145
3071.00,0.0133
3070.00,0.0121
3069.00,0.0111
3068.00,0.0103
3067.00,0.0097
3066.00,0.0093
3065.00,0.0089
3064.00,0.0087
3063.00,0.0084
3062.00,0.0083
3061.00,0.0081
3060.00,0.0080
3059.00,0.0079
3058.00,0.0078
3057.00,0.0077
3056.00,0.0077
3055.00,0.0076
3054.00,0.0076
3053.00,0.0076
3052.00,0.0076
3051.00,0.0076
3050.00,0.0077
3049.00,0.0077
3048.00,0.0078
3047.00,0.0080
3046.00,0.0081
3045.00,0.0082
3044.00,0.0083
3043.00,0.0084
3042.00,0.0085
3041.00,0.0086
3040.00,0.0088
3039.00,0.0089
3038.00,0.0090
3037.00,0.0092
3036.00,0.0094
3035.00,0.0095
3034.00,0.0096
3033.00,0.0097
3032.00,0.0097
3031.00,0.0097
3030.00,0.0096
3029.00,0.0094
3028.00,0.0092
3027.00,0.0090
3026.00,0.0088
3025.00,0.0086
3024.00,0.0085
3023.00,0.0084
3022.00,0.0083
3021.00,0.0083
3020.00,0.0082
3019.00,0.0082
3018.00,0.0082
3017.00,0.0082
3016.00,0.0082
3015.00,0.0083
3014.00,0.0083
3013.00,0.0084
3012.00,0.0085
3011.00,0.0085
3010.00,0.0086
3009.00,0.0087
3008.00,0.0087
3007.00,0.0088
3006.00,0.0088
3005.00,0.0089
3004.00,0.0089
3003.00,0.0090
3002.00,0.0091
3001.00,0.0093
3000.00,0.0094
2999.00,0.0096
2998.00,0.0098
2997.00,0.0100
2996.00,0.0102
2995.00,0.0104
2994.00,0.0107
2993.00,0.0110
2992.00,0.0114
2991.00,0.0118
2990.00,0.0122
2989.00,0.0125
2988.00,0.0128
2987.00,0.0130
2986.00,0.0132
2985.00,0.0134
2984.00,0.0137
2983.00,0.0140
2982.00,0.0146
2981.00,0.0153
2980.00,0.0162
2979.00,0.0173
2978.00,0.0186
2977.00,0.0200
2976.00,0.0217
2975.00,0.0236
2974.00,0.0257
2973.00,0.0280
2972.00,0.0303
2971.00,0.0327
2970.00,0.0351
2969.00,0.0372
2968.00,0.0391
2967.00,0.0406
2966.00,0.0415
2965.00,0.0421
2964.00,0.0422
2963.00,0.0421
2962.00,0.0418
2961.00,0.0414
2960.00,0.0407
2959.00,0.0399
2958.00,0.0388
2957.00,0.0377
2956.00,0.0364
2955.00,0.0353
2954.00,0.0342
2953.00,0.0333
2952.00,0.0326
2951.00,0.0323
2950.00,0.0324
2949.00,0.0329
2948.00,0.0339
2947.00,0.0353
2946.00,0.0372
2945.00,0.0393
2944.00,0.0415
2943.00,0.0436
2942.00,0.0455
2941.00,0.0474
2940.00,0.0491
2939.00,0.0508
2938.00,0.0526
2937.00,0.0547
2936.00,0.0569
2935.00,0.0593
2934.00,0.0618
2933.00,0.0643
2932.00,0.0668
2931.00,0.0694
2930.00,0.0719
2929.00,0.0744
2928.00,0.0766
2927.00,0.0784
2926.00,0.0796
2925.00,0.0802
2924.00,0.0801
2923.00,0.0796
2922.00,0.0789
2921.00,0.0781
2920.00,0.0773
2919.00,0.0766
2918.00,0.0760
2917.00,0.0753
2916.00,0.0745
2915.00,0.0735
2914.00,0.0721
2913.00,0.0704
2912.00,0.0683
2911.00,0.0661
2910.00,0.0637
2909.00,0.0613
2908.00,0.0590
2907.00,0.0568
2906.00,0.0548
2905.00,0.0530
2904.00,0.0514
2903.00,0.0500
2902.00,0.0488
2901.00,0.0476
2900.00,0.0464
2899.00,0.0451
2898.00,0.0437
2897.00,0.0422
2896.00,0.0408
2895.00,0.0393
2894.00,0.0381
2893.00,0.0369
2892.00,0.0360
2891.00,0.0352
2890.00,0.0346
2889.00,0.0341
2888.00,0.0337
2887.00,0.0334
2886.00,0.0332
2885.00,0.0331
2884.00,0.0330
2883.00,0.0330
2882.00,0.0331
2881.00,0.0333
2880.00,0.0335
2879.00,0.0339
2878.00,0.0344
2877.00,0.0350
2876.00,0.0357
2875.00,0.0364
2874.00,0.0371
2873.00,0.0377
2872.00,0.0381
2871.00,0.0382
2870.00,0.0380
2869.00,0.0375
2868.00,0.0371
2867.00,0.0369
2866.00,0.0369
2865.00,0.0375
2864.00,0.0387
2863.00,0.0405
2862.00,0.0429
2861.00,0.0460
2860.00,0.0495
2859.00,0.0532
2858.00,0.0565
2857.00,0.0591
2856.00,0.0602
2855.00,0.0598
2854.00,0.0579
2853.00,0.0549
2852.00,0.0512
2851.00,0.0473
2850.00,0.0434
2849.00,0.0398
2848.00,0.0364
2847.00,0.0335
2846.00,0.0308
2845.00,0.0286
2844.00,0.0267
2843.00,0.0251
2842.00,0.0238
2841.00,0.0228
2840.00,0.0221
2839.00,0.0217
2838.00,0.0216
2837.00,0.0219
2836.00,0.0226
2835.00,0.0237
2834.00,0.0254
2833.00,0.0274
2832.00,0.0295
2831.00,0.0314
2830.00,0.0326
2829.00,0.0327
2828.00,0.0317
2827.00,0.0298
2826.00,0.0273
2825.00,0.0247
2824.00,0.0224
2823.00,0.0203
2822.00,0.0187
2821.00,0.0173
2820.00,0.0163
2819.00,0.0155
2818.00,0.0148
2817.00,0.0143
2816.00,0.0138
2815.00,0.0134
2814.00,0.0131
2813.00,0.0128
2812.00,0.0126
2811.00,0.0124
2810.00,0.0121
2809.00,0.0120
2808.00,0.0118
2807.00,0.0116
2806.00,0.0115
2805.00,0.0113
2804.00,0.0112
2803.00,0.0110
2802.00,0.0109
2801.00,0.0107
2800.00,0.0106
2799.00,0.0105
2798.00,0.0104
2797.00,0.0103
2796.00,0.0102
2795.00,0.0102
2794.00,0.0101
2793.00,0.0100
2792.00,0.0099
2791.00,0.0099
2790.00,0.0098
2789.00,0.0097
2788.00,0.0097
2787.00,0.0096
2786.00,0.0096
2785.00,0.0095
2784.00,0.0094
2783.00,0.0093
2782.00,0.0093
2781.00,0.0092
2780.00,0.0091
2779.00,0.0090
2778.00,0.0090
2777.00,0.0089
2776.00,0.0089
2775.00,0.0089
2774.00,0.0088
2773.00,0.0088
2772.00,0.0087
2771.00,0.0087
2770.00,0.0086
2769.00,0.0086
2768.00,0.0085
2767.00,0.0085
2766.00,0.0084
2765.00,0.0084
2764.00,0.0084
2763.00,0.0083
2762.00,0.0083
2761.00,0.0083
2760.00,0.0082
2759.00,0.0082
2758.00,0.0082
2757.00,0.0081
2756.00,0.0081
2755.00,0.0081
2754.00,0.0081
2753.00,0.0081
2752.00,0.0081
2751.00,0.0081
2750.00,0.0080
2749.00,0.0080
2748.00,0.0080
2747.00,0.0081
2746.00,0.0081
2745.00,0.0081
2744.00,0.0082
2743.00,0.0082
2742.00,0.0083
2741.00,0.0083
2740.00,0.0083
2739.00,0.0084
2738.00,0.0085
2737.00,0.0086
2736.00,0.0087
2735.00,0.0088
2734.00,0.0089
2733.00,0.0091
2732.00,0.0093
2731.00,0.0095
2730.00,0.0097
2729.00,0.0097
2728.00,0.0097
2727.00,0.0096
2726.00,0.0095
2725.00,0.0093
2724.00,0.0091
2723.00,0.0090
2722.00,0.0089
2721.00,0.0087
2720.00,0.0086
2719.00,0.0085
2718.00,0.0084
2717.00,0.0083
2716.00,0.0082
2715.00,0.0081
2714.00,0.0081
2713.00,0.0080
2712.00,0.0080
2711.00,0.0079
2710.00,0.0079
2709.00,0.0078
2708.00,0.0078
2707.00,0.0077
2706.00,0.0077
2705.00,0.0077
2704.00,0.0076
2703.00,0.0076
2702.00,0.0075
2701.00,0.0075
2700.00,0.0074
2699.00,0.0074
2698.00,0.0074
2697.00,0.0074
2696.00,0.0074
2695.00,0.0073
2694.00,0.0073
2693.00,0.0073
2692.00,0.0073
2691.00,0.0073
2690.00,0.0074
2689.00,0.0074
2688.00,0.0074
2687.00,0.0075
2686.00,0.0075
2685.00,0.0075
2684.00,0.0075
2683.00,0.0076
2682.00,0.0076
2681.00,0.0076
2680.00,0.0076
2679.00,0.0076
2678.00,0.0077
2677.00,0.0077
2676.00,0.0077
2675.00,0.0078
2674.00,0.0078
2673.00,0.0079
2672.00,0.0079
2671.00,0.0079
2670.00,0.0079
2669.00,0.0079
2668.00,0.0080
2667.00,0.0080
2666.00,0.0080
2665.00,0.0080
2664.00,0.0080
2663.00,0.0081
2662.00,0.0081
2661.00,0.0081
2660.00,0.0081
2659.00,0.0080
2658.00,0.0080
2657.00,0.0080
2656.00,0.0080
2655.00,0.0080
2654.00,0.0079
2653.00,0.0079
2652.00,0.0079
2651.00,0.0079
2650.00,0.0078
2649.00,0.0078
2648.00,0.0077
2647.00,0.0077
2646.00,0.0076
2645.00,0.0076
2644.00,0.0076
2643.00,0.0075
2642.00,0.0075
2641.00,0.0075
2640.00,0.0075
2639.00,0.0075
2638.00,0.0075
2637.00,0.0075
2636.00,0.0075
2635.00,0.0075
2634.00,0.0075
2633.00,0.0075
2632.00,0.0075
2631.00,0.0075
2630.00,0.0075
2629.00,0.0075
2628.00,0.0075
2627.00,0.0075
2626.00,0.0075
2625.00,0.0075
2624.00,0.0075
2623.00,0.0075
2622.00,0.0075
2621.00,0.0075
2620.00,0.0074
2619.00,0.0074
2618.00,0.0074
2617.00,0.0074
2616.00,0.0074
2615.00,0.0074
2614.00,0.0074
2613.00,0.0073
2612.00,0.0073
2611.00,0.0073
2610.00,0.0073
2609.00,0.0073
2608.00,0.0073
2607.00,0.0073
2606.00,0.0072
2605.00,0.0072
2604.00,0.0072
2603.00,0.0072
2602.00,0.0073
2601.00,0.0073
2600.00,0.0073
2599.00,0.0073
2598.00,0.0072
2597.00,0.0072
2596.00,0.0071
2595.00,0.0071
2594.00,0.0071
2593.00,0.0071
2592.00,0.0071
2591.00,0.0071
2590.00,0.0071
2589.00,0.0071
2588.00,0.0070
2587.00,0.0070
2586.00,0.0070
2585.00,0.0069
2584.00,0.0069
2583.00,0.0069
2582.00,0.0068
2581.00,0.0068
2580.00,0.0068
2579.00,0.0068
2578.00,0.0067
2577.00,0.0067
2576.00,0.0067
2575.00,0.0067
2574.00,0.0068
2573.00,0.0068
2572.00,0.0068
2571.00,0.0068
2570.00,0.0067
2569.00,0.0067
2568.00,0.0067
2567.00,0.0067
2566.00,0.0067
2565.00,0.0067
2564.00,0.0067
2563.00,0.0068
2562.00,0.0068
2561.00,0.0068
2560.00,0.0068
2559.00,0.0068
2558.00,0.0068
2557.00,0.0068
2556.00,0.0068
2555.00,0.0068
2554.00,0.0067
2553.00,0.0067
2552.00,0.0067
2551.00,0.0067
2550.00,0.0067
2549.00,0.0067
2548.00,0.0067
2547.00,0.0068
2546.00,0.0068
2545.00,0.0068
2544.00,0.0068
2543.00,0.0067
2542.00,0.0067
2541.00,0.0067
2540.00,0.0067
2539.00,0.0067
2538.00,0.0067
2537.00,0.0066
2536.00,0.0066
2535.00,0.0066
2534.00,0.0067
2533.00,0.0067
2532.00,0.0067
2531.00,0.0067
2530.00,0.0067
2529.00,0.0067
2528.00,0.0067
2527.00,0.0067
2526.00,0.0067
2525.00,0.0067
2524.00,0.0067
2523.00,0.0067
2522.00,0.0067
2521.00,0.0067
2520.00,0.0067
2519.00,0.0067
2518.00,0.0067
2517.00,0.0067
2516.00,0.0067
2515.00,0.0067
2514.00,0.0067
2513.00,0.0068
2512.00,0.0068
2511.00,0.0069
2510.00,0.0069
2509.00,0.0069
2508.00,0.0069
2507.00,0.0069
2506.00,0.0069
2505.00,0.0069
2504.00,0.0069
2503.00,0.0069
2502.00,0.0069
2501.00,0.0069
2500.00,0.0070
2499.00,0.0070
2498.00,0.0070
2497.00,0.0069
2496.00,0.0070
2495.00,0.0070
2494.00,0.0070
2493.00,0.0070
2492.00,0.0070
2491.00,0.0070
2490.00,0.0070
2489.00,0.0070
2488.00,0.0070
2487.00,0.0071
2486.00,0.0071
2485.00,0.0071
2484.00,0.0072
2483.00,0.0072
2482.00,0.0071
2481.00,0.0071
2480.00,0.0071
2479.00,0.0072
2478.00,0.0072
2477.00,0.0073
2476.00,0.0073
2475.00,0.0073
2474.00,0.0073
2473.00,0.0073
2472.00,0.0073
2471.00,0.0072
2470.00,0.0073
2469.00,0.0073
2468.00,0.0073
2467.00,0.0073
2466.00,0.0073
2465.00,0.0073
2464.00,0.0073
2463.00,0.0074
2462.00,0.0074
2461.00,0.0075
2460.00,0.0075
2459.00,0.0075
2458.00,0.0075
2457.00,0.0075
2456.00,0.0076
2455.00,0.0076
2454.00,0.0076
2453.00,0.0076
2452.00,0.0076
2451.00,0.0075
2450.00,0.0075
2449.00,0.0075
2448.00,0.0075
2447.00,0.0075
2446.00,0.0074
2445.00,0.0074
2444.00,0.0073
2443.00,0.0073
2442.00,0.0073
2441.00,0.0072
2440.00,0.0072
2439.00,0.0071
2438.00,0.0071
2437.00,0.0070
2436.00,0.0070
2435.00,0.0069
2434.00,0.0069
2433.00,0.0069
2432.00,0.0069
2431.00,0.0069
2430.00,0.0068
2429.00,0.0068
2428.00,0.0068
2427.00,0.0068
2426.00,0.0067
2425.00,0.0067
2424.00,0.0067
2423.00,0.0066
2422.00,0.0066
2421.00,0.0066
2420.00,0.0066
2419.00,0.0065
2418.00,0.0065
2417.00,0.0065
2416.00,0.0065
2415.00,0.0065
2414.00,0.0065
2413.00,0.0065
2412.00,0.0065
2411.00,0.0065
2410.00,0.0065
2409.00,0.0064
2408.00,0.0064
2407.00,0.0064
2406.00,0.0064
2405.00,0.0064
2404.00,0.0064
2403.00,0.0064
2402.00,0.0064
2401.00,0.0064
2400.00,0.0064
2399.00,0.0064
2398.00,0.0064
2397.00,0.0064
2396.00,0.0064
2395.00,0.0064
2394.00,0.0064
2393.00,0.0064
2392.00,0.0064
2391.00,0.0064
2390.00,0.0064
2389.00,0.0064
2388.00,0.0063
2387.00,0.0063
2386.00,0.0063
2385.00,0.0062
2384.00,0.0061
2383.00,0.0060
2382.00,0.0059
2381.00,0.0059
2380.00,0.0058
2379.00,0.0059
2378.00,0.0059
2377.00,0.0059
2376.00,0.0060
2375.00,0.0060
2374.00,0.0061
2373.00,0.0061
2372.00,0.0061
2371.00,0.0061
2370.00,0.0060
2369.00,0.0060
2368.00,0.0060
2367.00,0.0060
2366.00,0.0060
2365.00,0.0060
2364.00,0.0060
2363.00,0.0060
2362.00,0.0061
2361.00,0.0061
2360.00,0.0061
2359.00,0.0061
2358.00,0.0061
2357.00,0.0062
2356.00,0.0063
2355.00,0.0064
2354.00,0.0064
2353.00,0.0064
2352.00,0.0063
2351.00,0.0062
2350.00,0.0062
2349.00,0.0063
2348.00,0.0064
2347.00,0.0064
2346.00,0.0063
2345.00,0.0063
2344.00,0.0062
2343.00,0.0062
2342.00,0.0063
2341.00,0.0064
2340.00,0.0065
2339.00,0.0066
2338.00,0.0066
2337.00,0.0066
2336.00,0.0066
2335.00,0.0067
2334.00,0.0067
2333.00,0.0067
2332.00,0.0067
2331.00,0.0066
2330.00,0.0067
2329.00,0.0068
2328.00,0.0071
2327.00,0.0076
2326.00,0.0079
2325.00,0.0080
2324.00,0.0078
2323.00,0.0076
2322.00,0.0074
2321.00,0.0072
2320.00,0.0071
2319.00,0.0071
2318.00,0.0070
2317.00,0.0069
2316.00,0.0069
2315.00,0.0068
2314.00,0.0068
2313.00,0.0067
2312.00,0.0066
2311.00,0.0065
2310.00,0.0064
2309.00,0.0063
2308.00,0.0063
2307.00,0.0064
2306.00,0.0064
2305.00,0.0065
2304.00,0.0066
2303.00,0.0066
2302.00,0.0066
2301.00,0.0066
2300.00,0.0066
2299.00,0.0066
2298.00,0.0067
2297.00,0.0068
2296.00,0.0069
2295.00,0.0070
2294.00,0.0071
2293.00,0.0072
2292.00,0.0073
2291.00,0.0074
2290.00,0.0076
2289.00,0.0077
2288.00,0.0078
2287.00,0.0077
2286.00,0.0077
2285.00,0.0076
2284.00,0.0075
2283.00,0.0074
2282.00,0.0074
2281.00,0.0073
2280.00,0.0073
2279.00,0.0072
2278.00,0.0072
2277.00,0.0072
2276.00,0.0072
2275.00,0.0072
2274.00,0.0072
2273.00,0.0072
2272.00,0.0072
2271.00,0.0071
2270.00,0.0070
2269.00,0.0069
2268.00,0.0068
2267.00,0.0068
2266.00,0.0068
2265.00,0.0068
2264.00,0.0067
2263.00,0.0067
2262.00,0.0067
2261.00,0.0068
2260.00,0.0068
2259.00,0.0068
2258.00,0.0067
2257.00,0.0066
2256.00,0.0065
2255.00,0.0065
2254.00,0.0065
2253.00,0.0065
2252.00,0.0065
2251.00,0.0066
2250.00,0.0066
2249.00,0.0067
2248.00,0.0068
2247.00,0.0068
2246.00,0.0068
2245.00,0.0067
2244.00,0.0067
2243.00,0.0067
2242.00,0.0067
2241.00,0.0067
2240.00,0.0068
2239.00,0.0069
2238.00,0.0070
2237.00,0.0070
2236.00,0.0069
2235.00,0.0068
2234.00,0.0067
2233.00,0.0067
2232.00,0.0067
2231.00,0.0067
2230.00,0.0067
2229.00,0.0066
2228.00,0.0066
2227.00,0.0066
2226.00,0.0066
2225.00,0.0066
2224.00,0.0067
2223.00,0.0068
2222.00,0.0068
2221.00,0.0068
2220.00,0.0067
2219.00,0.0066
2218.00,0.0065
2217.00,0.0065
2216.00,0.0065
2215.00,0.0065
2214.00,0.0065
2213.00,0.0066
2212.00,0.0067
2211.00,0.0068
2210.00,0.0068
2209.00,0.0068
2208.00,0.0067
2207.00,0.0067
2206.00,0.0066
2205.00,0.0065
2204.00,0.0065
2203.00,0.0065
2202.00,0.0066
2201.00,0.0066
2200.00,0.0067
2199.00,0.0068
2198.00,0.0068
2197.00,0.0067
2196.00,0.0066
2195.00,0.0066
2194.00,0.0066
2193.00,0.0066
2192.00,0.0066
2191.00,0.0067
2190.00,0.0068
2189.00,0.0069
2188.00,0.0070
2187.00,0.0070
2186.00,0.0069
2185.00,0.0067
2184.00,0.0064
2183.00,0.0061
2182.00,0.0059
2181.00,0.0059
2180.00,0.0061
2179.00,0.0061
2178.00,0.0060
2177.00,0.0059
2176.00,0.0059
2175.00,0.0061
2174.00,0.0064
2173.00,0.0066
2172.00,0.0068
2171.00,0.0069
2170.00,0.0069
2169.00,0.0070
2168.00,0.0071
2167.00,0.0073
2166.00,0.0076
2165.00,0.0079
2164.00,0.0082
2163.00,0.0082
2162.00,0.0075
2161.00,0.0062
2160.00,0.0046
2159.00,0.0034
2158.00,0.0028
2157.00,0.0029
2156.00,0.0032
2155.00,0.0036
2154.00,0.0038
2153.00,0.0040
2152.00,0.0041
2151.00,0.0041
2150.00,0.0042
2149.00,0.0041
2148.00,0.0041
2147.00,0.0041
2146.00,0.0042
2145.00,0.0043
2144.00,0.0043
2143.00,0.0044
2142.00,0.0044
2141.00,0.0044
2140.00,0.0044
2139.00,0.0043
2138.00,0.0042
2137.00,0.0039
2136.00,0.0037
2135.00,0.0036
2134.00,0.0036
2133.00,0.0038
2132.00,0.0040
2131.00,0.0042
2130.00,0.0044
2129.00,0.0046
2128.00,0.0048
2127.00,0.0049
2126.00,0.0050
2125.00,0.0051
2124.00,0.0052
2123.00,0.0053
2122.00,0.0054
2121.00,0.0055
2120.00,0.0056
2119.00,0.0057
2118.00,0.0058
2117.00,0.0059
2116.00,0.0060
2115.00,0.0060
2114.00,0.0060
2113.00,0.0059
2112.00,0.0059
2111.00,0.0058
2110.00,0.0058
2109.00,0.0058
2108.00,0.0058
2107.00,0.0059
2106.00,0.0059
2105.00,0.0058
2104.00,0.0058
2103.00,0.0058
2102.00,0.0058
2101.00,0.0058
2100.00,0.0058
2099.00,0.0057
2098.00,0.0055
2097.00,0.0053
2096.00,0.0052
2095.00,0.0052
2094.00,0.0052
2093.00,0.0054
2092.00,0.0056
2091.00,0.0057
2090.00,0.0058
2089.00,0.0059
2088.00,0.0060
2087.00,0.0060
2086.00,0.0060
2085.00,0.0060
2084.00,0.0061
2083.00,0.0062
2082.00,0.0062
2081.00,0.0062
2080.00,0.0062
2079.00,0.0062
2078.00,0.0061
2077.00,0.0061
2076.00,0.0062
2075.00,0.0061
2074.00,0.0061
2073.00,0.0060
2072.00,0.0059
2071.00,0.0059
2070.00,0.0057
2069.00,0.0056
2068.00,0.0055
2067.00,0.0055
2066.00,0.0055
2065.00,0.0055
2064.00,0.0056
2063.00,0.0056
2062.00,0.0057
2061.00,0.0057
2060.00,0.0057
2059.00,0.0058
2058.00,0.0058
2057.00,0.0059
2056.00,0.0059
2055.00,0.0059
2054.00,0.0061
2053.00,0.0065
2052.00,0.0068
2051.00,0.0068
2050.00,0.0065
2049.00,0.0061
2048.00,0.0058
2047.00,0.0055
2046.00,0.0054
2045.00,0.0053
2044.00,0.0054
2043.00,0.0055
2042.00,0.0056
2041.00,0.0057
2040.00,0.0057
2039.00,0.0055
2038.00,0.0053
2037.00,0.0051
2036.00,0.0050
2035.00,0.0049
2034.00,0.0049
2033.00,0.0049
2032.00,0.0050
2031.00,0.0050
2030.00,0.0048
2029.00,0.0047
2028.00,0.0046
2027.00,0.0045
2026.00,0.0045
2025.00,0.0046
2024.00,0.0046
2023.00,0.0046
2022.00,0.0046
2021.00,0.0047
2020.00,0.0048
2019.00,0.0048
2018.00,0.0047
2017.00,0.0046
2016.00,0.0046
2015.00,0.0046
2014.00,0.0047
2013.00,0.0048
2012.00,0.0050
2011.00,0.0051
2010.00,0.0050
2009.00,0.0047
2008.00,0.0043
2007.00,0.0040
2006.00,0.0039
2005.00,0.0039
2004.00,0.0041
2003.00,0.0044
2002.00,0.0046
2001.00,0.0048
2000.00,0.0049
1999.00,0.0050
1998.00,0.0050
1997.00,0.0050
1996.00,0.0051
1995.00,0.0053
1994.00,0.0053
1993.00,0.0053
1992.00,0.0053
1991.00,0.0053
1990.00,0.0055
1989.00,0.0057
1988.00,0.0058
1987.00,0.0058
1986.00,0.0058
1985.00,0.0059
1984.00,0.0063
1983.00,0.0067
1982.00,0.0070
1981.00,0.0070
1980.00,0.0066
1979.00,0.0058
1978.00,0.0051
1977.00,0.0047
1976.00,0.0045
1975.00,0.0044
1974.00,0.0043
1973.00,0.0042
1972.00,0.0043
1971.00,0.0043
1970.00,0.0044
1969.00,0.0044
1968.00,0.0045
1967.00,0.0045
1966.00,0.0044
1965.00,0.0044
1964.00,0.0043
1963.00,0.0042
1962.00,0.0040
1961.00,0.0038
1960.00,0.0037
1959.00,0.0036
1958.00,0.0036
1957.00,0.0038
1956.00,0.0040
1955.00,0.0043
1954.00,0.0045
1953.00,0.0045
1952.00,0.0045
1951.00,0.0044
1950.00,0.0044
1949.00,0.0045
1948.00,0.0047
1947.00,0.0047
1946.00,0.0047
1945.00,0.0046
1944.00,0.0046
1943.00,0.0046
1942.00,0.0046
1941.00,0.0047
1940.00,0.0048
1939.00,0.0048
1938.00,0.0048
1937.00,0.0048
1936.00,0.0048
1935.00,0.0048
1934.00,0.0048
1933.00,0.0048
1932.00,0.0048
1931.00,0.0048
1930.00,0.0048
1929.00,0.0049
1928.00,0.0049
1927.00,0.0049
1926.00,0.0049
1925.00,0.0048
1924.00,0.0048
1923.00,0.0048
1922.00,0.0049
1921.00,0.0051
1920.00,0.0052
1919.00,0.0053
1918.00,0.0052
1917.00,0.0052
1916.00,0.0052
1915.00,0.0052
1914.00,0.0052
1913.00,0.0052
1912.00,0.0052
1911.00,0.0052
1910.00,0.0052
1909.00,0.0052
1908.00,0.0052
1907.00,0.0052
1906.00,0.0052
1905.00,0.0053
1904.00,0.0053
1903.00,0.0054
1902.00,0.0054
1901.00,0.0055
1900.00,0.0055
1899.00,0.0056
1898.00,0.0056
1897.00,0.0055
1896.00,0.0055
1895.00,0.0055
1894.00,0.0055
1893.00,0.0055
1892.00,0.0055
1891.00,0.0055
1890.00,0.0055
1889.00,0.0055
1888.00,0.0055
1887.00,0.0055
1886.00,0.0055
1885.00,0.0055
1884.00,0.0055
1883.00,0.0056
1882.00,0.0056
1881.00,0.0056
1880.00,0.0057
1879.00,0.0057
1878.00,0.0057
1877.00,0.0057
1876.00,0.0057
1875.00,0.0057
1874.00,0.0057
1873.00,0.0057
1872.00,0.0057
1871.00,0.0057
1870.00,0.0056
1869.00,0.0056
1868.00,0.0056
1867.00,0.0055
1866.00,0.0056
1865.00,0.0056
1864.00,0.0056
1863.00,0.0056
1862.00,0.0056
1861.00,0.0056
1860.00,0.0057
1859.00,0.0057
1858.00,0.0057
1857.00,0.0057
1856.00,0.0057
1855.00,0.0057
1854.00,0.0057
1853.00,0.0057
1852.00,0.0057
1851.00,0.0057
1850.00,0.0057
1849.00,0.0057
1848.00,0.0057
1847.00,0.0057
1846.00,0.0057
1845.00,0.0057
1844.00,0.0057
1843.00,0.0057
1842.00,0.0056
1841.00,0.0057
1840.00,0.0057
1839.00,0.0058
1838.00,0.0058
1837.00,0.0058
1836.00,0.0058
1835.00,0.0058
1834.00,0.0058
1833.00,0.0059
1832.00,0.0059
1831.00,0.0060
1830.00,0.0060
1829.00,0.0060
1828.00,0.0060
1827.00,0.0060
1826.00,0.0060
1825.00,0.0060
1824.00,0.0060
1823.00,0.0061
1822.00,0.0061
1821.00,0.0061
1820.00,0.0060
1819.00,0.0059
1818.00,0.0058
1817.00,0.0058
1816.00,0.0059
1815.00,0.0060
1814.00,0.0061
1813.00,0.0062
1812.00,0.0063
1811.00,0.0064
1810.00,0.0064
1809.00,0.0065
1808.00,0.0066
1807.00,0.0067
1806.00,0.0068
1805.00,0.0069
1804.00,0.0070
1803.00,0.0070
1802.00,0.0070
1801.00,0.0071
1800.00,0.0071
1799.00,0.0071
1798.00,0.0071
1797.00,0.0071
1796.00,0.0070
1795.00,0.0069
1794.00,0.0068
1793.00,0.0067
1792.00,0.0066
1791.00,0.0066
1790.00,0.0066
1789.00,0.0066
1788.00,0.0067
1787.00,0.0067
1786.00,0.0067
1785.00,0.0067
1784.00,0.0067
1783.00,0.0067
1782.00,0.0068
1781.00,0.0068
1780.00,0.0069
1779.00,0.0069
1778.00,0.0070
1777.00,0.0071
1776.00,0.0073
1775.00,0.0074
1774.00,0.0075
1773.00,0.0076
1772.00,0.0078
1771.00,0.0078
1770.00,0.0078
1769.00,0.0076
1768.00,0.0075
1767.00,0.0074
1766.00,0.0072
1765.00,0.0072
1764.00,0.0071
1763.00,0.0071
1762.00,0.0070
1761.00,0.0070
1760.00,0.0069
1759.00,0.0069
1758.00,0.0069
1757.00,0.0069
1756.00,0.0069
1755.00,0.0068
1754.00,0.0068
1753.00,0.0068
1752.00,0.0068
1751.00,0.0068
1750.00,0.0068
1749.00,0.0068
1748.00,0.0068
1747.00,0.0069
1746.00,0.0069
1745.00,0.0069
1744.00,0.0069
1743.00,0.0069
1742.00,0.0070
1741.00,0.0070
1740.00,0.0071
1739.00,0.0071
1738.00,0.0072
1737.00,0.0071
1736.00,0.0071
1735.00,0.0071
1734.00,0.0071
1733.00,0.0071
1732.00,0.0072
1731.00,0.0073
1730.00,0.0073
1729.00,0.0074
1728.00,0.0075
1727.00,0.0076
1726.00,0.0077
1725.00,0.0077
1724.00,0.0078
1723.00,0.0079
1722.00,0.0080
1721.00,0.0080
1720.00,0.0080
1719.00,0.0081
1718.00,0.0081
1717.00,0.0081
1716.00,0.0082
1715.00,0.0083
1714.00,0.0084
1713.00,0.0084
1712.00,0.0085
1711.00,0.0085
1710.00,0.0085
1709.00,0.0084
1708.00,0.0084
1707.00,0.0083
1706.00,0.0081
1705.00,0.0079
1704.00,0.0077
1703.00,0.0074
1702.00,0.0070
1701.00,0.0065
1700.00,0.0057
1699.00,0.0051
1698.00,0.0046
1697.00,0.0041
1696.00,0.0035
1695.00,0.0031
1694.00,0.0028
1693.00,0.0026
1692.00,0.0027
1691.00,0.0027
1690.00,0.0028
1689.00,0.0029
1688.00,0.0029
1687.00,0.0030
1686.00,0.0030
1685.00,0.0029
1684.00,0.0029
1683.00,0.0029
1682.00,0.0029
1681.00,0.0028
1680.00,0.0027
1679.00,0.0025
1678.00,0.0023
1677.00,0.0021
1676.00,0.0017
1675.00,0.0014
1674.00,0.0012
1673.00,0.0011
1672.00,0.0012
1671.00,0.0015
1670.00,0.0020
1669.00,0.0029
1668.00,0.0038
1667.00,0.0046
1666.00,0.0054
1665.00,0.0062
1664.00,0.0071
1663.00,0.0079
1662.00,0.0086
1661.00,0.0090
1660.00,0.0093
1659.00,0.0096
1658.00,0.0098
1657.00,0.0101
1656.00,0.0104
1655.00,0.0109
1654.00,0.0118
1653.00,0.0135
1652.00,0.0151
1651.00,0.0164
1650.00,0.0177
1649.00,0.0195
1648.00,0.0226
1647.00,0.0273
1646.00,0.0324
1645.00,0.0363
1644.00,0.0381
1643.00,0.0379
1642.00,0.0363
1641.00,0.0338
1640.00,0.0314
1639.00,0.0297
1638.00,0.0291
1637.00,0.0308
1636.00,0.0358
1635.00,0.0429
1634.00,0.0494
1633.00,0.0542
1632.00,0.0579
1631.00,0.0607
1630.00,0.0629
1629.00,0.0651
1628.00,0.0675
1627.00,0.0704
1626.00,0.0736
1625.00,0.0768
1624.00,0.0797
1623.00,0.0810
1622.00,0.0793
1621.00,0.0749
1620.00,0.0689
1619.00,0.0620
1618.00,0.0544
1617.00,0.0465
1616.00,0.0396
1615.00,0.0344
1614.00,0.0307
1613.00,0.0278
1612.00,0.0253
1611.00,0.0234
1610.00,0.0220
1609.00,0.0210
1608.00,0.0204
1607.00,0.0199
1606.00,0.0197
1605.00,0.0195
1604.00,0.0195
1603.00,0.0195
1602.00,0.0197
1601.00,0.0202
1600.00,0.0207
1599.00,0.0215
1598.00,0.0225
1597.00,0.0238
1596.00,0.0255
1595.00,0.0278
1594.00,0.0308
1593.00,0.0347
1592.00,0.0397
1591.00,0.0459
1590.00,0.0532
1589.00,0.0613
1588.00,0.0696
1587.00,0.0776
1586.00,0.0849
1585.00,0.0914
1584.00,0.0970
1583.00,0.1013
1582.00,0.1036
1581.00,0.1033
1580.00,0.1007
1579.00,0.0959
1578.00,0.0894
1577.00,0.0812
1576.00,0.0726
1575.00,0.0651
1574.00,0.0592
1573.00,0.0542
1572.00,0.0496
1571.00,0.0450
1570.00,0.0405
1569.00,0.0365
1568.00,0.0331
1567.00,0.0304
1566.00,0.0280
1565.00,0.0258
1564.00,0.0239
1563.00,0.0225
1562.00,0.0213
1561.00,0.0203
1560.00,0.0192
1559.00,0.0184
1558.00,0.0177
1557.00,0.0173
1556.00,0.0169
1555.00,0.0165
1554.00,0.0161
1553.00,0.0157
1552.00,0.0153
1551.00,0.0149
1550.00,0.0146
1549.00,0.0143
1548.00,0.0140
1547.00,0.0138
1546.00,0.0135
1545.00,0.0133
1544.00,0.0132
1543.00,0.0131
1542.00,0.0130
1541.00,0.0131
1540.00,0.0131
1539.00,0.0130
1538.00,0.0130
1537.00,0.0130
1536.00,0.0130
1535.00,0.0130
1534.00,0.0131
1533.00,0.0131
1532.00,0.0131
1531.00,0.0132
1530.00,0.0132
1529.00,0.0133
1528.00,0.0134
1527.00,0.0136
1526.00,0.0140
1525.00,0.0144
1524.00,0.0150
1523.00,0.0158
1522.00,0.0172
1521.00,0.0191
1520.00,0.0211
1519.00,0.0228
1518.00,0.0245
1517.00,0.0264
1516.00,0.0280
1515.00,0.0289
1514.00,0.0291
1513.00,0.0286
1512.00,0.0275
1511.00,0.0260
1510.00,0.0245
1509.00,0.0231
1508.00,0.0218
1507.00,0.0207
1506.00,0.0198
1505.00,0.0193
1504.00,0.0189
1503.00,0.0185
1502.00,0.0181
1501.00,0.0177
1500.00,0.0173
1499.00,0.0168
1498.00,0.0163
1497.00,0.0158
1496.00,0.0153
1495.00,0.0148
1494.00,0.0144
1493.00,0.0140
1492.00,0.0136
1491.00,0.0133
1490.00,0.0129
1489.00,0.0128
1488.00,0.0127
1487.00,0.0126
1486.00,0.0126
1485.00,0.0126
1484.00,0.0126
1483.00,0.0126
1482.00,0.0127
1481.00,0.0129
1480.00,0.0131
1479.00,0.0133
1478.00,0.0135
1477.00,0.0139
1476.00,0.0144
1475.00,0.0149
1474.00,0.0158
1473.00,0.0173
1472.00,0.0196
1471.00,0.0223
1470.00,0.0254
1469.00,0.0288
1468.00,0.0320
1467.00,0.0346
1466.00,0.0367
1465.00,0.0383
1464.00,0.0397
1463.00,0.0410
1462.00,0.0422
1461.00,0.0433
1460.00,0.0443
1459.00,0.0451
1458.00,0.0464
1457.00,0.0489
1456.00,0.0520
1455.00,0.0550
1454.00,0.0584
1453.00,0.0627
1452.00,0.0682
1451.00,0.0746
1450.00,0.0819
1449.00,0.0904
1448.00,0.0998
1447.00,0.1087
1446.00,0.1158
1445.00,0.1209
1444.00,0.1240
1443.00,0.1251
1442.00,0.1250
1441.00,0.1239
1440.00,0.1220
1439.00,0.1195
1438.00,0.1167
1437.00,0.1139
1436.00,0.1107
1435.00,0.1070
1434.00,0.1028
1433.00,0.0984
1432.00,0.0934
1431.00,0.0878
1430.00,0.0812
1429.00,0.0738
1428.00,0.0660
1427.00,0.0583
1426.00,0.0511
1425.00,0.0446
1424.00,0.0390
1423.00,0.0346
1422.00,0.0313
1421.00,0.0285
1420.00,0.0260
1419.00,0.0239
1418.00,0.0222
1417.00,0.0210
1416.00,0.0201
1415.00,0.0194
1414.00,0.0189
1413.00,0.0184
1412.00,0.0180
1411.00,0.0178
1410.00,0.0176
1409.00,0.0175
1408.00,0.0173
1407.00,0.0172
1406.00,0.0172
1405.00,0.0171
1404.00,0.0170
1403.00,0.0169
1402.00,0.0168
1401.00,0.0166
1400.00,0.0165
1399.00,0.0163
1398.00,0.0163
1397.00,0.0162
1396.00,0.0161
1395.00,0.0159
1394.00,0.0159
1393.00,0.0158
1392.00,0.0157
1391.00,0.0157
1390.00,0.0158
1389.00,0.0160
1388.00,0.0163
1387.00,0.0169
1386.00,0.0178
1385.00,0.0189
1384.00,0.0204
1383.00,0.0224
1382.00,0.0252
1381.00,0.0288
1380.00,0.0334
1379.00,0.0389
1378.00,0.0449
1377.00,0.0503
1376.00,0.0544
1375.00,0.0562
1374.00,0.0556
1373.00,0.0531
1372.00,0.0498
1371.00,0.0464
1370.00,0.0432
1369.00,0.0404
1368.00,0.0380
1367.00,0.0360
1366.00,0.0343
1365.00,0.0326
1364.00,0.0310
1363.00,0.0295
1362.00,0.0283
1361.00,0.0274
1360.00,0.0268
1359.00,0.0263
1358.00,0.0259
1357.00,0.0256
1356.00,0.0255
1355.00,0.0255
1354.00,0.0255
1353.00,0.0256
1352.00,0.0257
1351.00,0.0259
1350.00,0.0261
1349.00,0.0265
1348.00,0.0270
1347.00,0.0276
1346.00,0.0283
1345.00,0.0289
1344.00,0.0294
1343.00,0.0297
1342.00,0.0297
1341.00,0.0293
1340.00,0.0283
1339.00,0.0270
1338.00,0.0256
1337.00,0.0243
1336.00,0.0234
1335.00,0.0230
1334.00,0.0230
1333.00,0.0234
1332.00,0.0241
1331.00,0.0250
1330.00,0.0262
1329.00,0.0275
1328.00,0.0288
1327.00,0.0304
1326.00,0.0321
1325.00,0.0337
1324.00,0.0347
1323.00,0.0350
1322.00,0.0344
1321.00,0.0333
1320.00,0.0322
1319.00,0.0316
1318.00,0.0320
1317.00,0.0335
1316.00,0.0362
1315.00,0.0400
1314.00,0.0443
1313.00,0.0483
1312.00,0.0513
1311.00,0.0526
1310.00,0.0525
1309.00,0.0514
1308.00,0.0501
1307.00,0.0493
1306.00,0.0494
1305.00,0.0501
1304.00,0.0513
1303.00,0.0524
1302.00,0.0532
1301.00,0.0535
1300.00,0.0534
1299.00,0.0530
1298.00,0.0524
1297.00,0.0515
1296.00,0.0502
1295.00,0.0488
1294.00,0.0472
1293.00,0.0456
1292.00,0.0441
1291.00,0.0427
1290.00,0.0416
1289.00,0.0408
1288.00,0.0406
1287.00,0.0411
1286.00,0.0423
1285.00,0.0440
1284.00,0.0459
1283.00,0.0480
1282.00,0.0499
1281.00,0.0514
1280.00,0.0524
1279.00,0.0529
1278.00,0.0528
1277.00,0.0520
1276.00,0.0507
1275.00,0.0489
1274.00,0.0466
1273.00,0.0439
1272.00,0.0406
1271.00,0.0371
1270.00,0.0334
1269.00,0.0298
1268.00,0.0262
1267.00,0.0230
1266.00,0.0201
1265.00,0.0177
1264.00,0.0157
1263.00,0.0145
1262.00,0.0139
1261.00,0.0140
1260.00,0.0144
1259.00,0.0151
1258.00,0.0158
1257.00,0.0164
1256.00,0.0170
1255.00,0.0176
1254.00,0.0184
1253.00,0.0194
1252.00,0.0207
1251.00,0.0222
1250.00,0.0238
1249.00,0.0252
1248.00,0.0263
1247.00,0.0271
1246.00,0.0281
1245.00,0.0295
1244.00,0.0318
1243.00,0.0353
1242.00,0.0399
1241.00,0.0455
1240.00,0.0516
1239.00,0.0576
1238.00,0.0625
1237.00,0.0656
1236.00,0.0670
1235.00,0.0669
1234.00,0.0658
1233.00,0.0640
1232.00,0.0617
1231.00,0.0593
1230.00,0.0576
1229.00,0.0574
1228.00,0.0591
1227.00,0.0625
1226.00,0.0672
1225.00,0.0726
1224.00,0.0782
1223.00,0.0842
1222.00,0.0908
1221.00,0.0985
1220.00,0.1078
1219.00,0.1186
1218.00,0.1303
1217.00,0.1417
1216.00,0.1512
1215.00,0.1573
1214.00,0.1592
1213.00,0.1569
1212.00,0.1510
1211.00,0.1428
1210.00,0.1334
1209.00,0.1239
1208.00,0.1151
1207.00,0.1072
1206.00,0.1002
1205.00,0.0936
1204.00,0.0871
1203.00,0.0805
1202.00,0.0739
1201.00,0.0675
1200.00,0.0615
1199.00,0.0562
1198.00,0.0517
1197.00,0.0481
1196.00,0.0452
1195.00,0.0431
1194.00,0.0417
1193.00,0.0410
1192.00,0.0408
1191.00,0.0411
1190.00,0.0418
1189.00,0.0427
1188.00,0.0436
1187.00,0.0447
1186.00,0.0458
1185.00,0.0471
1184.00,0.0483
1183.00,0.0494
1182.00,0.0503
1181.00,0.0510
1180.00,0.0515
1179.00,0.0520
1178.00,0.0524
1177.00,0.0528
1176.00,0.0534
1175.00,0.0546
1174.00,0.0568
1173.00,0.0592
1172.00,0.0605
1171.00,0.0592
1170.00,0.0553
1169.00,0.0497
1168.00,0.0439
1167.00,0.0388
1166.00,0.0347
1165.00,0.0314
1164.00,0.0288
1163.00,0.0268
1162.00,0.0253
1161.00,0.0242
1160.00,0.0235
1159.00,0.0234
1158.00,0.0238
1157.00,0.0250
1156.00,0.0274
1155.00,0.0314
1154.00,0.0374
1153.00,0.0452
1152.00,0.0532
1151.00,0.0589
1150.00,0.0603
1149.00,0.0566
1148.00,0.0497
1147.00,0.0420
1146.00,0.0355
1145.00,0.0307
1144.00,0.0274
1143.00,0.0253
1142.00,0.0240
1141.00,0.0232
1140.00,0.0230
1139.00,0.0232
1138.00,0.0238
1137.00,0.0245
1136.00,0.0250
1135.00,0.0253
1134.00,0.0253
1133.00,0.0247
1132.00,0.0237
1131.00,0.0225
1130.00,0.0213
1129.00,0.0202
1128.00,0.0193
1127.00,0.0186
1126.00,0.0181
1125.00,0.0177
1124.00,0.0175
1123.00,0.0173
1122.00,0.0171
1121.00,0.0171
1120.00,0.0170
1119.00,0.0171
1118.00,0.0173
1117.00,0.0175
1116.00,0.0178
1115.00,0.0181
1114.00,0.0184
1113.00,0.0187
1112.00,0.0190
1111.00,0.0194
1110.00,0.0199
1109.00,0.0205
1108.00,0.0213
1107.00,0.0222
1106.00,0.0232
1105.00,0.0244
1104.00,0.0256
1103.00,0.0271
1102.00,0.0288
1101.00,0.0306
1100.00,0.0321
1099.00,0.0329
1098.00,0.0327
1097.00,0.0314
1096.00,0.0295
1095.00,0.0274
1094.00,0.0256
1093.00,0.0242
1092.00,0.0230
1091.00,0.0222
1090.00,0.0215
1089.00,0.0211
1088.00,0.0208
1087.00,0.0210
1086.00,0.0216
1085.00,0.0227
1084.00,0.0244
1083.00,0.0265
1082.00,0.0289
1081.00,0.0311
1080.00,0.0326
1079.00,0.0329
1078.00,0.0322
1077.00,0.0307
1076.00,0.0287
1075.00,0.0269
1074.00,0.0254
1073.00,0.0242
1072.00,0.0232
1071.00,0.0224
1070.00,0.0219
1069.00,0.0214
1068.00,0.0211
1067.00,0.0209
1066.00,0.0210
1065.00,0.0212
1064.00,0.0216
1063.00,0.0222
1062.00,0.0231
1061.00,0.0243
1060.00,0.0260
1059.00,0.0286
1058.00,0.0324
1057.00,0.0378
1056.00,0.0446
1055.00,0.0525
1054.00,0.0603
1053.00,0.0664
1052.00,0.0702
1051.00,0.0715
1050.00,0.0704
1049.00,0.0670
1048.00,0.0617
1047.00,0.0555
1046.00,0.0497
1045.00,0.0453
1044.00,0.0425
1043.00,0.0412
1042.00,0.0413
1041.00,0.0421
1040.00,0.0434
1039.00,0.0454
1038.00,0.0484
1037.00,0.0527
1036.00,0.0585
1035.00,0.0655
1034.00,0.0727
1033.00,0.0785
1032.00,0.0816
1031.00,0.0813
1030.00,0.0782
1029.00,0.0736
1028.00,0.0689
1027.00,0.0654
1026.00,0.0639
1025.00,0.0648
1024.00,0.0683
1023.00,0.0744
1022.00,0.0823
1021.00,0.0909
1020.00,0.0981
1019.00,0.1022
1018.00,0.1022
1017.00,0.0984
1016.00,0.0921
1015.00,0.0848
1014.00,0.0776
1013.00,0.0710
1012.00,0.0655
1011.00,0.0614
1010.00,0.0590
1009.00,0.0579
1008.00,0.0576
1007.00,0.0582
1006.00,0.0598
1005.00,0.0622
1004.00,0.0651
1003.00,0.0676
1002.00,0.0690
1001.00,0.0687
1000.00,0.0664
999.00,0.0622
998.00,0.0570
997.00,0.0516
996.00,0.0467
995.00,0.0429
994.00,0.0401
993.00,0.0383
992.00,0.0375
991.00,0.0375
990.00,0.0382
989.00,0.0393
988.00,0.0406
987.00,0.0418
986.00,0.0427
985.00,0.0431
984.00,0.0426
983.00,0.0412
982.00,0.0392
981.00,0.0370
980.00,0.0351
979.00,0.0337
978.00,0.0328
977.00,0.0321
976.00,0.0313
975.00,0.0306
974.00,0.0300
973.00,0.0298
972.00,0.0299
971.00,0.0305
970.00,0.0315
969.00,0.0328
968.00,0.0343
967.00,0.0358
966.00,0.0376
965.00,0.0398
964.00,0.0423
963.00,0.0449
962.00,0.0471
961.00,0.0479
960.00,0.0469
959.00,0.0442
958.00,0.0405
957.00,0.0364
956.00,0.0326
955.00,0.0295
954.00,0.0270
953.00,0.0251
952.00,0.0236
951.00,0.0225
950.00,0.0216
949.00,0.0210
948.00,0.0204
947.00,0.0200
946.00,0.0197
945.00,0.0195
944.00,0.0192
943.00,0.0190
942.00,0.0189
941.00,0.0188
940.00,0.0186
939.00,0.0185
938.00,0.0185
937.00,0.0186
936.00,0.0187
935.00,0.0189
934.00,0.0192
933.00,0.0196
932.00,0.0201
931.00,0.0207
930.00,0.0212
929.00,0.0216
928.00,0.0217
927.00,0.0217
926.00,0.0217
925.00,0.0216
924.00,0.0215
923.00,0.0215
922.00,0.0215
921.00,0.0216
920.00,0.0220
919.00,0.0228
918.00,0.0238
917.00,0.0249
916.00,0.0258
915.00,0.0263
914.00,0.0265
913.00,0.0264
912.00,0.0262
911.00,0.0263
910.00,0.0268
909.00,0.0278
908.00,0.0295
907.00,0.0318
906.00,0.0349
905.00,0.0384
904.00,0.0424
903.00,0.0470
902.00,0.0526
901.00,0.0598
900.00,0.0687
899.00,0.0790
898.00,0.0890
897.00,0.0962
896.00,0.0986
895.00,0.0957
894.00,0.0890
893.00,0.0807
892.00,0.0726
891.00,0.0663
890.00,0.0624
889.00,0.0617
888.00,0.0648
887.00,0.0720
886.00,0.0829
885.00,0.0954
884.00,0.1056
883.00,0.1097
882.00,0.1060
881.00,0.0961
880.00,0.0834
879.00,0.0714
878.00,0.0617
877.00,0.0548
876.00,0.0501
875.00,0.0474
874.00,0.0463
873.00,0.0467
872.00,0.0482
871.00,0.0503
870.00,0.0519
869.00,0.0523
868.00,0.0514
867.00,0.0506
866.00,0.0509
865.00,0.0531
864.00,0.0569
863.00,0.0611
862.00,0.0645
861.00,0.0661
860.00,0.0660
859.00,0.0651
858.00,0.0646
857.00,0.0651
856.00,0.0665
855.00,0.0683
854.00,0.0701
853.00,0.0717
852.00,0.0729
851.00,0.0734
850.00,0.0729
849.00,0.0712
848.00,0.0685
847.00,0.0656
846.00,0.0632
845.00,0.0615
844.00,0.0603
843.00,0.0593
842.00,0.0581
841.00,0.0567
840.00,0.0554
839.00,0.0545
838.00,0.0543
837.00,0.0547
836.00,0.0557
835.00,0.0573
834.00,0.0595
833.00,0.0620
832.00,0.0646
831.00,0.0671
830.00,0.0694
829.00,0.0711
828.00,0.0720
827.00,0.0718
826.00,0.0703
825.00,0.0673
824.00,0.0633
823.00,0.0588
822.00,0.0541
821.00,0.0495
820.00,0.0452
819.00,0.0414
818.00,0.0383
817.00,0.0359
816.00,0.0342
815.00,0.0329
814.00,0.0319
813.00,0.0311
812.00,0.0305
811.00,0.0305
810.00,0.0315
809.00,0.0340
808.00,0.0387
807.00,0.0453
806.00,0.0527
805.00,0.0584
804.00,0.0604
803.00,0.0583
802.00,0.0536
801.00,0.0480
800.00,0.0429
799.00,0.0388
798.00,0.0357
797.00,0.0334
796.00,0.0317
795.00,0.0306
794.00,0.0300
793.00,0.0297
792.00,0.0294
791.00,0.0291
790.00,0.0288
789.00,0.0286
788.00,0.0286
787.00,0.0287
786.00,0.0289
785.00,0.0287
784.00,0.0281
783.00,0.0272
782.00,0.0264
781.00,0.0259
780.00,0.0255
779.00,0.0254
778.00,0.0253
777.00,0.0252
776.00,0.0250
775.00,0.0248
774.00,0.0247
773.00,0.0247
772.00,0.0248
771.00,0.0250
770.00,0.0250
769.00,0.0247
768.00,0.0240
767.00,0.0231
766.00,0.0222
765.00,0.0214
764.00,0.0206
763.00,0.0201
762.00,0.0198
761.00,0.0196
760.00,0.0196
759.00,0.0197
758.00,0.0201
757.00,0.0206
756.00,0.0216
755.00,0.0231
754.00,0.0252
753.00,0.0273
752.00,0.0291
751.00,0.0306
750.00,0.0316
749.00,0.0321
748.00,0.0318
747.00,0.0305
746.00,0.0285
745.00,0.0262
744.00,0.0242
743.00,0.0227
742.00,0.0216
741.00,0.0209
740.00,0.0204
739.00,0.0203
738.00,0.0205
737.00,0.0209
736.00,0.0216
735.00,0.0227
734.00,0.0244
733.00,0.0266
732.00,0.0286
731.00,0.0299
730.00,0.0300
729.00,0.0289
728.00,0.0272
727.00,0.0257
726.00,0.0248
725.00,0.0242
724.00,0.0238
723.00,0.0234
722.00,0.0231
721.00,0.0228
720.00,0.0224
719.00,0.0220
718.00,0.0215
717.00,0.0208
716.00,0.0200
715.00,0.0193
714.00,0.0190
713.00,0.0188
712.00,0.0187
711.00,0.0187
710.00,0.0185
709.00,0.0181
708.00,0.0175
707.00,0.0169
706.00,0.0164
705.00,0.0159
704.00,0.0153
703.00,0.0147
702.00,0.0142
701.00,0.0140
700.00,0.0139
699.00,0.0141
698.00,0.0145
697.00,0.0148
696.00,0.0149
695.00,0.0150
694.00,0.0152
693.00,0.0153
692.00,0.0155
691.00,0.0156
690.00,0.0159
689.00,0.0161
688.00,0.0163
687.00,0.0164
686.00,0.0167
685.00,0.0169
684.00,0.0170
683.00,0.0172
682.00,0.0175
681.00,0.0178
680.00,0.0181
679.00,0.0185
678.00,0.0190
677.00,0.0195
676.00,0.0200
675.00,0.0206
674.00,0.0216
673.00,0.0228
672.00,0.0242
671.00,0.0257
670.00,0.0274
669.00,0.0290
668.00,0.0304
667.00,0.0312
666.00,0.0312
665.00,0.0312
664.00,0.0313
663.00,0.0315
662.00,0.0317
661.00,0.0317
660.00,0.0317
659.00,0.0318
658.00,0.0319
657.00,0.0317
656.00,0.0313
655.00,0.0310
654.00,0.0310
653.00,0.0313
652.00,0.0320
651.00,0.0330
650.00,0.0341
649.00,0.0348
648.00,0.0348
647.00,0.0341
646.00,0.0330
645.00,0.0315
644.00,0.0299
643.00,0.0284
642.00,0.0273
641.00,0.0265
640.00,0.0258
639.00,0.0254
638.00,0.0253
637.00,0.0253
636.00,0.0253
635.00,0.0255
634.00,0.0259
633.00,0.0264
632.00,0.0269
631.00,0.0275
630.00,0.0282
629.00,0.0289
628.00,0.0295
627.00,0.0301
626.00,0.0309
625.00,0.0315
624.00,0.0318
623.00,0.0318
622.00,0.0315
621.00,0.0306
620.00,0.0292
619.00,0.0276
618.00,0.0262
617.00,0.0254
616.00,0.0253
615.00,0.0265
614.00,0.0290
613.00,0.0322
612.00,0.0351
611.00,0.0371
610.00,0.0376
609.00,0.0368
608.00,0.0356
607.00,0.0347
606.00,0.0348
605.00,0.0354
604.00,0.0360
603.00,0.0368
602.00,0.0377
601.00,0.0390
600.00,0.0403
599.00,0.0414
598.00,0.0421
597.00,0.0421
596.00,0.0417
595.00,0.0416
594.00,0.0422
593.00,0.0435
592.00,0.0452
591.00,0.0475
590.00,0.0501
589.00,0.0527
588.00,0.0547
587.00,0.0560
586.00,0.0563
585.00,0.0555
584.00,0.0538
583.00,0.0515
582.00,0.0492
581.00,0.0468
580.00,0.0446
579.00,0.0429
578.00,0.0418
577.00,0.0413
576.00,0.0410
575.00,0.0413
574.00,0.0420
573.00,0.0427
572.00,0.0433
571.00,0.0439
570.00,0.0446
569.00,0.0452
568.00,0.0456
567.00,0.0462
566.00,0.0468
565.00,0.0472
564.00,0.0473
563.00,0.0473
562.00,0.0474
561.00,0.0474
560.00,0.0473
559.00,0.0471
558.00,0.0470
557.00,0.0469
556.00,0.0467
555.00,0.0467
554.00,0.0474
553.00,0.0484
552.00,0.0498
551.00,0.0513
550.00,0.0529
549.00,0.0540
548.00,0.0550
547.00,0.0563
546.00,0.0582
545.00,0.0600
544.00,0.0613
543.00,0.0620
542.00,0.0627
541.00,0.0639
540.00,0.0658
539.00,0.0688
538.00,0.0725
537.00,0.0760
536.00,0.0781
535.00,0.0787
534.00,0.0780
533.00,0.0766
532.00,0.0749
531.00,0.0734
530.00,0.0725
529.00,0.0723
528.00,0.0732
527.00,0.0757
526.00,0.0799
525.00,0.0848
524.00,0.0895
523.00,0.0936
522.00,0.0958
521.00,0.0947
520.00,0.0897
519.00,0.0824
518.00,0.0749
517.00,0.0687
516.00,0.0640
515.00,0.0610
514.00,0.0595
513.00,0.0589
512.00,0.0588
511.00,0.0593
510.00,0.0607
509.00,0.0626
508.00,0.0648
507.00,0.0675
506.00,0.0708
505.00,0.0742
504.00,0.0776
503.00,0.0813
502.00,0.0856
501.00,0.0899
500.00,0.0935
499.00,0.0965
498.00,0.0993
497.00,0.1016
496.00,0.1030
495.00,0.1040
494.00,0.1046
493.00,0.1045
492.00,0.1037
491.00,0.1027
490.00,0.1020
489.00,0.1015
488.00,0.1010
487.00,0.1008
486.00,0.1009
485.00,0.1007
484.00,0.0997
483.00,0.0984
482.00,0.0969
481.00,0.0947
480.00,0.0918
479.00,0.0890
478.00,0.0868
477.00,0.0851
476.00,0.0839
475.00,0.0835
474.00,0.0841
473.00,0.0854
472.00,0.0868
471.00,0.0886
470.00,0.0907
469.00,0.0926
468.00,0.0940
467.00,0.0952
466.00,0.0962
465.00,0.0966
464.00,0.0963
463.00,0.0957
462.00,0.0955
461.00,0.0949
460.00,0.0938
459.00,0.0926
458.00,0.0920
457.00,0.0918
456.00,0.0916
455.00,0.0915
454.00,0.0917
453.00,0.0916
452.00,0.0906
451.00,0.0893
450.00,0.0880
449.00,0.0864
448.00,0.0844
447.00,0.0827
446.00,0.0816
445.00,0.0804
444.00,0.0789
443.00,0.0775
442.00,0.0765
441.00,0.0755
440.00,0.0745
439.00,0.0741
438.00,0.0746
437.00,0.0750
436.00,0.0744
435.00,0.0737
434.00,0.0735
433.00,0.0735
432.00,0.0736
431.00,0.0747
430.00,0.0773
429.00,0.0806
428.00,0.0837
427.00,0.0871
426.00,0.0909
425.00,0.0938
424.00,0.0948
423.00,0.0943
422.00,0.0936
421.00,0.0925
420.00,0.0905
419.00,0.0886
418.00,0.0878
417.00,0.0872
416.00,0.0861
415.00,0.0858
414.00,0.0870
413.00,0.0886
412.00,0.0897
411.00,0.0914
410.00,0.0942
409.00,0.0970
408.00,0.0983
407.00,0.0996
406.00,0.1018
405.00,0.1035
404.00,0.1038
403.00,0.1041
402.00,0.1061
401.00,0.1087
400.00,0.1101
