Created as New Dataset,Sample 015 By YargerLab Date Thursday, August 07 2025
cm-1,A
4000.00,0.0071
3999.00,0.0072
3998.00,0.0072
3997.00,0.0072
3996.00,0.0071
3995.00,0.0071
3994.00,0.0071
3993.00,0.0071
3992.00,0.0071
3991.00,0.0071
3990.00,0.0071
3989.00,0.0071
3988.00,0.0071
3987.00,0.0071
3986.00,0.0071
3985.00,0.0071
3984.00,0.0071
3983.00,0.0071
3982.00,0.0071
3981.00,0.0071
3980.00,0.0071
3979.00,0.0071
3978.00,0.0071
3977.00,0.0071
3976.00,0.0071
3975.00,0.0071
3974.00,0.0071
3973.00,0.0071
3972.00,0.0071
3971.00,0.0071
3970.00,0.0071
3969.00,0.0071
3968.00,0.0071
3967.00,0.0071
3966.00,0.0072
3965.00,0.0072
3964.00,0.0071
3963.00,0.0071
3962.00,0.0071
3961.00,0.0071
3960.00,0.0071
3959.00,0.0071
3958.00,0.0071
3957.00,0.0071
3956.00,0.0071
3955.00,0.0071
3954.00,0.0071
3953.00,0.0071
3952.00,0.0071
3951.00,0.0071
3950.00,0.0071
3949.00,0.0071
3948.00,0.0071
3947.00,0.0071
3946.00,0.0071
3945.00,0.0071
3944.00,0.0071
3943.00,0.0071
3942.00,0.0071
3941.00,0.0071
3940.00,0.0071
3939.00,0.0071
3938.00,0.0071
3937.00,0.0071
3936.00,0.0071
3935.00,0.0071
3934.00,0.0071
3933.00,0.0071
3932.00,0.0071
3931.00,0.0071
3930.00,0.0071
3929.00,0.0071
3928.00,0.0071
3927.00,0.0071
3926.00,0.0071
3925.00,0.0071
3924.00,0.0071
3923.00,0.0071
3922.00,0.0071
3921.00,0.0071
3920.00,0.0071
3919.00,0.0071
3918.00,0.0071
3917.00,0.0071
3916.00,0.0071
3915.00,0.0071
3914.00,0.0071
3913.00,0.0071
3912.00,0.0071
3911.00,0.0071
3910.00,0.0071
3909.00,0.0071
3908.00,0.0071
3907.00,0.0071
3906.00,0.0071
3905.00,0.0071
3904.00,0.0071
3903.00,0.0071
3902.00,0.0071
3901.00,0.0071
3900.00,0.0071
3899.00,0.0071
3898.00,0.0071
3897.00,0.0071
3896.00,0.0071
3895.00,0.0071
3894.00,0.0071
3893.00,0.0071
3892.00,0.0071
3891.00,0.0071
3890.00,0.0071
3889.00,0.0071
3888.00,0.0071
3887.00,0.0071
3886.00,0.0071
3885.00,0.0071
3884.00,0.0071
3883.00,0.0071
3882.00,0.0071
3881.00,0.0071
3880.00,0.0071
3879.00,0.0071
3878.00,0.0071
3877.00,0.0071
3876.00,0.0070
3875.00,0.0070
3874.00,0.0070
3873.00,0.0070
3872.00,0.0070
3871.00,0.0070
3870.00,0.0070
3869.00,0.0070
3868.00,0.0071
3867.00,0.0071
3866.00,0.0071
3865.00,0.0070
3864.00,0.0070
3863.00,0.0070
3862.00,0.0070
3861.00,0.0070
3860.00,0.0070
3859.00,0.0070
3858.00,0.0070
3857.00,0.0071
3856.00,0.0071
3855.00,0.0071
3854.00,0.0071
3853.00,0.0071
3852.00,0.0071
3851.00,0.0071
3850.00,0.0071
3849.00,0.0071
3848.00,0.0070
3847.00,0.0070
3846.00,0.0070
3845.00,0.0070
3844.00,0.0070
3843.00,0.0070
3842.00,0.0070
3841.00,0.0070
3840.00,0.0070
3839.00,0.0070
3838.00,0.0070
3837.00,0.0070
3836.00,0.0070
3835.00,0.0070
3834.00,0.0070
3833.00,0.0070
3832.00,0.0070
3831.00,0.0070
3830.00,0.0071
3829.00,0.0071
3828.00,0.0070
3827.00,0.0070
3826.00,0.0070
3825.00,0.0070
3824.00,0.0070
3823.00,0.0070
3822.00,0.0070
3821.00,0.0069
3820.00,0.0070
3819.00,0.0070
3818.00,0.0070
3817.00,0.0070
3816.00,0.0070
3815.00,0.0070
3814.00,0.0070
3813.00,0.0070
3812.00,0.0070
3811.00,0.0070
3810.00,0.0070
3809.00,0.0070
3808.00,0.0070
3807.00,0.0070
3806.00,0.0070
3805.00,0.0070
3804.00,0.0070
3803.00,0.0070
3802.00,0.0070
3801.00,0.0070
3800.00,0.0070
3799.00,0.0070
3798.00,0.0070
3797.00,0.0070
3796.00,0.0070
3795.00,0.0070
3794.00,0.0070
3793.00,0.0070
3792.00,0.0070
3791.00,0.0070
3790.00,0.0070
3789.00,0.0070
3788.00,0.0070
3787.00,0.0070
3786.00,0.0070
3785.00,0.0070
3784.00,0.0070
3783.00,0.0070
3782.00,0.0070
3781.00,0.0070
3780.00,0.0070
3779.00,0.0070
3778.00,0.0070
3777.00,0.0070
3776.00,0.0070
3775.00,0.0070
3774.00,0.0070
3773.00,0.0070
3772.00,0.0070
3771.00,0.0070
3770.00,0.0070
3769.00,0.0070
3768.00,0.0070
3767.00,0.0070
3766.00,0.0070
3765.00,0.0070
3764.00,0.0070
3763.00,0.0070
3762.00,0.0070
3761.00,0.0069
3760.00,0.0069
3759.00,0.0069
3758.00,0.0069
3757.00,0.0069
3756.00,0.0069
3755.00,0.0069
3754.00,0.0069
3753.00,0.0069
3752.00,0.0069
3751.00,0.0069
3750.00,0.0069
3749.00,0.0069
3748.00,0.0070
3747.00,0.0070
3746.00,0.0070
3745.00,0.0070
3744.00,0.0070
3743.00,0.0070
3742.00,0.0070
3741.00,0.0069
3740.00,0.0069
3739.00,0.0069
3738.00,0.0070
3737.00,0.0070
3736.00,0.0069
3735.00,0.0069
3734.00,0.0069
3733.00,0.0069
3732.00,0.0069
3731.00,0.0069
3730.00,0.0069
3729.00,0.0069
3728.00,0.0069
3727.00,0.0069
3726.00,0.0069
3725.00,0.0069
3724.00,0.0069
3723.00,0.0068
3722.00,0.0068
3721.00,0.0068
3720.00,0.0068
3719.00,0.0068
3718.00,0.0067
3717.00,0.0068
3716.00,0.0068
3715.00,0.0068
3714.00,0.0069
3713.00,0.0069
3712.00,0.0069
3711.00,0.0068
3710.00,0.0068
3709.00,0.0068
3708.00,0.0068
3707.00,0.0068
3706.00,0.0068
3705.00,0.0068
3704.00,0.0068
3703.00,0.0068
3702.00,0.0068
3701.00,0.0068
3700.00,0.0068
3699.00,0.0068
3698.00,0.0068
3697.00,0.0068
3696.00,0.0068
3695.00,0.0068
3694.00,0.0068
3693.00,0.0069
3692.00,0.0069
3691.00,0.0069
3690.00,0.0069
3689.00,0.0069
3688.00,0.0069
3687.00,0.0070
3686.00,0.0070
3685.00,0.0071
3684.00,0.0071
3683.00,0.0071
3682.00,0.0071
3681.00,0.0072
3680.00,0.0072
3679.00,0.0072
3678.00,0.0072
3677.00,0.0072
3676.00,0.0071
3675.00,0.0072
3674.00,0.0072
3673.00,0.0072
3672.00,0.0072
3671.00,0.0072
3670.00,0.0073
3669.00,0.0073
3668.00,0.0073
3667.00,0.0073
3666.00,0.0073
3665.00,0.0073
3664.00,0.0073
3663.00,0.0073
3662.00,0.0073
3661.00,0.0073
3660.00,0.0074
3659.00,0.0074
3658.00,0.0074
3657.00,0.0074
3656.00,0.0074
3655.00,0.0074
3654.00,0.0075
3653.00,0.0075
3652.00,0.0074
3651.00,0.0074
3650.00,0.0074
3649.00,0.0075
3648.00,0.0076
3647.00,0.0077
3646.00,0.0078
3645.00,0.0078
3644.00,0.0078
3643.00,0.0078
3642.00,0.0078
3641.00,0.0079
3640.00,0.0079
3639.00,0.0079
3638.00,0.0079
3637.00,0.0079
3636.00,0.0080
3635.00,0.0080
3634.00,0.0080
3633.00,0.0080
3632.00,0.0081
3631.00,0.0081
3630.00,0.0081
3629.00,0.0082
3628.00,0.0083
3627.00,0.0083
3626.00,0.0084
3625.00,0.0084
3624.00,0.0084
3623.00,0.0084
3622.00,0.0084
3621.00,0.0085
3620.00,0.0085
3619.00,0.0085
3618.00,0.0086
3617.00,0.0087
3616.00,0.0087
3615.00,0.0087
3614.00,0.0087
3613.00,0.0088
3612.00,0.0089
3611.00,0.0089
3610.00,0.0090
3609.00,0.0091
3608.00,0.0092
3607.00,0.0092
3606.00,0.0093
3605.00,0.0093
3604.00,0.0093
3603.00,0.0093
3602.00,0.0093
3601.00,0.0094
3600.00,0.0095
3599.00,0.0095
3598.00,0.0096
3597.00,0.0096
3596.00,0.0097
3595.00,0.0097
3594.00,0.0098
3593.00,0.0099
3592.00,0.0100
3591.00,0.0100
3590.00,0.0101
3589.00,0.0102
3588.00,0.0102
3587.00,0.0103
3586.00,0.0105
3585.00,0.0105
3584.00,0.0106
3583.00,0.0107
3582.00,0.0107
3581.00,0.0108
3580.00,0.0108
3579.00,0.0109
3578.00,0.0109
3577.00,0.0110
3576.00,0.0111
3575.00,0.0112
3574.00,0.0113
3573.00,0.0114
3572.00,0.0114
3571.00,0.0115
3570.00,0.0116
3569.00,0.0117
3568.00,0.0118
3567.00,0.0119
3566.00,0.0121
3565.00,0.0121
3564.00,0.0122
3563.00,0.0122
3562.00,0.0122
3561.00,0.0122
3560.00,0.0123
3559.00,0.0123
3558.00,0.0124
3557.00,0.0125
3556.00,0.0125
3555.00,0.0125
3554.00,0.0126
3553.00,0.0126
3552.00,0.0127
3551.00,0.0128
3550.00,0.0128
3549.00,0.0129
3548.00,0.0130
3547.00,0.0131
3546.00,0.0131
3545.00,0.0132
3544.00,0.0133
3543.00,0.0133
3542.00,0.0133
3541.00,0.0133
3540.00,0.0133
3539.00,0.0134
3538.00,0.0134
3537.00,0.0135
3536.00,0.0135
3535.00,0.0136
3534.00,0.0136
3533.00,0.0136
3532.00,0.0136
3531.00,0.0137
3530.00,0.0137
3529.00,0.0138
3528.00,0.0138
3527.00,0.0139
3526.00,0.0140
3525.00,0.0140
3524.00,0.0141
3523.00,0.0141
3522.00,0.0141
3521.00,0.0141
3520.00,0.0142
3519.00,0.0142
3518.00,0.0142
3517.00,0.0143
3516.00,0.0143
3515.00,0.0143
3514.00,0.0144
3513.00,0.0144
3512.00,0.0144
3511.00,0.0145
3510.00,0.0145
3509.00,0.0146
3508.00,0.0146
3507.00,0.0146
3506.00,0.0147
3505.00,0.0147
3504.00,0.0148
3503.00,0.0148
3502.00,0.0149
3501.00,0.0149
3500.00,0.0150
3499.00,0.0150
3498.00,0.0150
3497.00,0.0151
3496.00,0.0151
3495.00,0.0152
3494.00,0.0152
3493.00,0.0152
3492.00,0.0153
3491.00,0.0153
3490.00,0.0154
3489.00,0.0154
3488.00,0.0155
3487.00,0.0155
3486.00,0.0156
3485.00,0.0156
3484.00,0.0156
3483.00,0.0156
3482.00,0.0157
3481.00,0.0157
3480.00,0.0158
3479.00,0.0158
3478.00,0.0159
3477.00,0.0159
3476.00,0.0160
3475.00,0.0160
3474.00,0.0160
3473.00,0.0161
3472.00,0.0161
3471.00,0.0162
3470.00,0.0162
3469.00,0.0162
3468.00,0.0162
3467.00,0.0162
3466.00,0.0163
3465.00,0.0163
3464.00,0.0163
3463.00,0.0163
3462.00,0.0164
3461.00,0.0164
3460.00,0.0165
3459.00,0.0165
3458.00,0.0165
3457.00,0.0165
3456.00,0.0166
3455.00,0.0166
3454.00,0.0166
3453.00,0.0166
3452.00,0.0166
3451.00,0.0166
3450.00,0.0166
3449.00,0.0166
3448.00,0.0166
3447.00,0.0167
3446.00,0.0167
3445.00,0.0168
3444.00,0.0167
3443.00,0.0167
3442.00,0.0167
3441.00,0.0167
3440.00,0.0167
3439.00,0.0168
3438.00,0.0168
3437.00,0.0168
3436.00,0.0168
3435.00,0.0168
3434.00,0.0168
3433.00,0.0168
3432.00,0.0168
3431.00,0.0168
3430.00,0.0168
3429.00,0.0168
3428.00,0.0168
3427.00,0.0168
3426.00,0.0168
3425.00,0.0168
3424.00,0.0168
3423.00,0.0168
3422.00,0.0168
3421.00,0.0169
3420.00,0.0169
3419.00,0.0168
3418.00,0.0168
3417.00,0.0168
3416.00,0.0168
3415.00,0.0168
3414.00,0.0168
3413.00,0.0168
3412.00,0.0168
3411.00,0.0168
3410.00,0.0168
3409.00,0.0167
3408.00,0.0167
3407.00,0.0167
3406.00,0.0167
3405.00,0.0167
3404.00,0.0167
3403.00,0.0167
3402.00,0.0167
3401.00,0.0167
3400.00,0.0167
3399.00,0.0167
3398.00,0.0168
3397.00,0.0168
3396.00,0.0168
3395.00,0.0168
3394.00,0.0167
3393.00,0.0167
3392.00,0.0167
3391.00,0.0167
3390.00,0.0168
3389.00,0.0168
3388.00,0.0169
3387.00,0.0169
3386.00,0.0169
3385.00,0.0169
3384.00,0.0169
3383.00,0.0169
3382.00,0.0169
3381.00,0.0169
3380.00,0.0169
3379.00,0.0169
3378.00,0.0169
3377.00,0.0169
3376.00,0.0169
3375.00,0.0170
3374.00,0.0170
3373.00,0.0169
3372.00,0.0169
3371.00,0.0168
3370.00,0.0167
3369.00,0.0167
3368.00,0.0167
3367.00,0.0168
3366.00,0.0169
3365.00,0.0170
3364.00,0.0170
3363.00,0.0170
3362.00,0.0170
3361.00,0.0171
3360.00,0.0171
3359.00,0.0172
3358.00,0.0172
3357.00,0.0173
3356.00,0.0173
3355.00,0.0172
3354.00,0.0172
3353.00,0.0170
3352.00,0.0169
3351.00,0.0169
3350.00,0.0170
3349.00,0.0171
3348.00,0.0172
3347.00,0.0173
3346.00,0.0172
3345.00,0.0172
3344.00,0.0172
3343.00,0.0171
3342.00,0.0171
3341.00,0.0170
3340.00,0.0169
3339.00,0.0169
3338.00,0.0169
3337.00,0.0170
3336.00,0.0171
3335.00,0.0172
3334.00,0.0172
3333.00,0.0172
3332.00,0.0172
3331.00,0.0172
3330.00,0.0171
3329.00,0.0170
3328.00,0.0169
3327.00,0.0169
3326.00,0.0168
3325.00,0.0168
3324.00,0.0169
3323.00,0.0170
3322.00,0.0170
3321.00,0.0171
3320.00,0.0171
3319.00,0.0171
3318.00,0.0171
3317.00,0.0171
3316.00,0.0170
3315.00,0.0170
3314.00,0.0170
3313.00,0.0169
3312.00,0.0168
3311.00,0.0167
3310.00,0.0166
3309.00,0.0164
3308.00,0.0163
3307.00,0.0163
3306.00,0.0164
3305.00,0.0165
3304.00,0.0166
3303.00,0.0168
3302.00,0.0169
3301.00,0.0169
3300.00,0.0169
3299.00,0.0169
3298.00,0.0168
3297.00,0.0167
3296.00,0.0166
3295.00,0.0166
3294.00,0.0166
3293.00,0.0166
3292.00,0.0166
3291.00,0.0167
3290.00,0.0168
3289.00,0.0168
3288.00,0.0168
3287.00,0.0168
3286.00,0.0168
3285.00,0.0168
3284.00,0.0168
3283.00,0.0168
3282.00,0.0168
3281.00,0.0168
3280.00,0.0168
3279.00,0.0167
3278.00,0.0167
3277.00,0.0167
3276.00,0.0166
3275.00,0.0166
3274.00,0.0165
3273.00,0.0165
3272.00,0.0165
3271.00,0.0165
3270.00,0.0165
3269.00,0.0166
3268.00,0.0166
3267.00,0.0166
3266.00,0.0166
3265.00,0.0166
3264.00,0.0166
3263.00,0.0166
3262.00,0.0166
3261.00,0.0166
3260.00,0.0166
3259.00,0.0166
3258.00,0.0166
3257.00,0.0166
3256.00,0.0165
3255.00,0.0166
3254.00,0.0166
3253.00,0.0166
3252.00,0.0166
3251.00,0.0166
3250.00,0.0165
3249.00,0.0165
3248.00,0.0164
3247.00,0.0164
3246.00,0.0164
3245.00,0.0165
3244.00,0.0165
3243.00,0.0166
3242.00,0.0166
3241.00,0.0166
3240.00,0.0166
3239.00,0.0166
3238.00,0.0166
3237.00,0.0165
3236.00,0.0165
3235.00,0.0164
3234.00,0.0164
3233.00,0.0164
3232.00,0.0164
3231.00,0.0164
3230.00,0.0165
3229.00,0.0165
3228.00,0.0165
3227.00,0.0165
3226.00,0.0165
3225.00,0.0165
3224.00,0.0165
3223.00,0.0165
3222.00,0.0165
3221.00,0.0165
3220.00,0.0165
3219.00,0.0164
3218.00,0.0164
3217.00,0.0164
3216.00,0.0164
3215.00,0.0164
3214.00,0.0164
3213.00,0.0164
3212.00,0.0164
3211.00,0.0164
3210.00,0.0163
3209.00,0.0163
3208.00,0.0163
3207.00,0.0163
3206.00,0.0163
3205.00,0.0163
3204.00,0.0163
3203.00,0.0162
3202.00,0.0162
3201.00,0.0162
3200.00,0.0162
3199.00,0.0162
3198.00,0.0162
3197.00,0.0162
3196.00,0.0162
3195.00,0.0161
3194.00,0.0161
3193.00,0.0161
3192.00,0.0161
3191.00,0.0162
3190.00,0.0162
3189.00,0.0162
3188.00,0.0161
3187.00,0.0161
3186.00,0.0161
3185.00,0.0161
3184.00,0.0161
3183.00,0.0161
3182.00,0.0161
3181.00,0.0161
3180.00,0.0161
3179.00,0.0161
3178.00,0.0161
3177.00,0.0162
3176.00,0.0162
3175.00,0.0162
3174.00,0.0162
3173.00,0.0161
3172.00,0.0161
3171.00,0.0161
3170.00,0.0161
3169.00,0.0161
3168.00,0.0161
3167.00,0.0161
3166.00,0.0160
3165.00,0.0160
3164.00,0.0160
3163.00,0.0160
3162.00,0.0159
3161.00,0.0159
3160.00,0.0159
3159.00,0.0159
3158.00,0.0159
3157.00,0.0159
3156.00,0.0159
3155.00,0.0159
3154.00,0.0158
3153.00,0.0158
3152.00,0.0158
3151.00,0.0158
3150.00,0.0158
3149.00,0.0158
3148.00,0.0158
3147.00,0.0157
3146.00,0.0157
3145.00,0.0157
3144.00,0.0157
3143.00,0.0157
3142.00,0.0157
3141.00,0.0157
3140.00,0.0156
3139.00,0.0156
3138.00,0.0156
3137.00,0.0156
3136.00,0.0155
3135.00,0.0155
3134.00,0.0155
3133.00,0.0155
3132.00,0.0156
3131.00,0.0156
3130.00,0.0156
3129.00,0.0156
3128.00,0.0156
3127.00,0.0156
3126.00,0.0156
3125.00,0.0155
3124.00,0.0155
3123.00,0.0155
3122.00,0.0155
3121.00,0.0155
3120.00,0.0155
3119.00,0.0155
3118.00,0.0154
3117.00,0.0154
3116.00,0.0154
3115.00,0.0154
3114.00,0.0154
3113.00,0.0154
3112.00,0.0153
3111.00,0.0153
3110.00,0.0153
3109.00,0.0152
3108.00,0.0152
3107.00,0.0152
3106.00,0.0152
3105.00,0.0152
3104.00,0.0152
3103.00,0.0151
3102.00,0.0151
3101.00,0.0151
3100.00,0.0151
3099.00,0.0151
3098.00,0.0151
3097.00,0.0151
3096.00,0.0151
3095.00,0.0151
3094.00,0.0151
3093.00,0.0151
3092.00,0.0151
3091.00,0.0151
3090.00,0.0151
3089.00,0.0151
3088.00,0.0151
3087.00,0.0151
3086.00,0.0151
3085.00,0.0151
3084.00,0.0151
3083.00,0.0151
3082.00,0.0151
3081.00,0.0151
3080.00,0.0151
3079.00,0.0151
3078.00,0.0151
3077.00,0.0151
3076.00,0.0151
3075.00,0.0151
3074.00,0.0151
3073.00,0.0151
3072.00,0.0151
3071.00,0.0150
3070.00,0.0150
3069.00,0.0150
3068.00,0.0150
3067.00,0.0149
3066.00,0.0149
3065.00,0.0149
3064.00,0.0148
3063.00,0.0148
3062.00,0.0148
3061.00,0.0147
3060.00,0.0147
3059.00,0.0147
3058.00,0.0147
3057.00,0.0147
3056.00,0.0147
3055.00,0.0147
3054.00,0.0147
3053.00,0.0146
3052.00,0.0146
3051.00,0.0146
3050.00,0.0146
3049.00,0.0145
3048.00,0.0146
3047.00,0.0146
3046.00,0.0145
3045.00,0.0145
3044.00,0.0145
3043.00,0.0145
3042.00,0.0145
3041.00,0.0145
3040.00,0.0145
3039.00,0.0145
3038.00,0.0145
3037.00,0.0145
3036.00,0.0145
3035.00,0.0145
3034.00,0.0145
3033.00,0.0145
3032.00,0.0144
3031.00,0.0144
3030.00,0.0144
3029.00,0.0144
3028.00,0.0144
3027.00,0.0144
3026.00,0.0144
3025.00,0.0144
3024.00,0.0143
3023.00,0.0143
3022.00,0.0144
3021.00,0.0144
3020.00,0.0144
3019.00,0.0144
3018.00,0.0145
3017.00,0.0145
3016.00,0.0146
3015.00,0.0146
3014.00,0.0147
3013.00,0.0148
3012.00,0.0149
3011.00,0.0151
3010.00,0.0153
3009.00,0.0154
3008.00,0.0156
3007.00,0.0158
3006.00,0.0160
3005.00,0.0162
3004.00,0.0165
3003.00,0.0169
3002.00,0.0172
3001.00,0.0176
3000.00,0.0180
2999.00,0.0184
2998.00,0.0189
2997.00,0.0194
2996.00,0.0200
2995.00,0.0205
2994.00,0.0211
2993.00,0.0217
2992.00,0.0224
2991.00,0.0230
2990.00,0.0237
2989.00,0.0243
2988.00,0.0250
2987.00,0.0257
2986.00,0.0263
2985.00,0.0269
2984.00,0.0275
2983.00,0.0280
2982.00,0.0286
2981.00,0.0291
2980.00,0.0296
2979.00,0.0301
2978.00,0.0305
2977.00,0.0309
2976.00,0.0312
2975.00,0.0316
2974.00,0.0319
2973.00,0.0322
2972.00,0.0326
2971.00,0.0329
2970.00,0.0332
2969.00,0.0336
2968.00,0.0339
2967.00,0.0343
2966.00,0.0346
2965.00,0.0350
2964.00,0.0353
2963.00,0.0357
2962.00,0.0361
2961.00,0.0365
2960.00,0.0369
2959.00,0.0372
2958.00,0.0376
2957.00,0.0378
2956.00,0.0380
2955.00,0.0382
2954.00,0.0383
2953.00,0.0384
2952.00,0.0384
2951.00,0.0384
2950.00,0.0384
2949.00,0.0383
2948.00,0.0382
2947.00,0.0381
2946.00,0.0380
2945.00,0.0379
2944.00,0.0379
2943.00,0.0378
2942.00,0.0378
2941.00,0.0379
2940.00,0.0379
2939.00,0.0380
2938.00,0.0382
2937.00,0.0384
2936.00,0.0386
2935.00,0.0388
2934.00,0.0391
2933.00,0.0393
2932.00,0.0396
2931.00,0.0398
2930.00,0.0401
2929.00,0.0403
2928.00,0.0406
2927.00,0.0407
2926.00,0.0408
2925.00,0.0409
2924.00,0.0409
2923.00,0.0408
2922.00,0.0407
2921.00,0.0405
2920.00,0.0403
2919.00,0.0400
2918.00,0.0396
2917.00,0.0392
2916.00,0.0387
2915.00,0.0382
2914.00,0.0377
2913.00,0.0371
2912.00,0.0366
2911.00,0.0360
2910.00,0.0354
2909.00,0.0349
2908.00,0.0344
2907.00,0.0338
2906.00,0.0334
2905.00,0.0330
2904.00,0.0326
2903.00,0.0323
2902.00,0.0321
2901.00,0.0319
2900.00,0.0317
2899.00,0.0316
2898.00,0.0315
2897.00,0.0315
2896.00,0.0314
2895.00,0.0314
2894.00,0.0315
2893.00,0.0314
2892.00,0.0314
2891.00,0.0314
2890.00,0.0314
2889.00,0.0314
2888.00,0.0314
2887.00,0.0313
2886.00,0.0313
2885.00,0.0313
2884.00,0.0314
2883.00,0.0314
2882.00,0.0315
2881.00,0.0316
2880.00,0.0317
2879.00,0.0318
2878.00,0.0319
2877.00,0.0320
2876.00,0.0322
2875.00,0.0323
2874.00,0.0323
2873.00,0.0324
2872.00,0.0325
2871.00,0.0326
2870.00,0.0326
2869.00,0.0325
2868.00,0.0324
2867.00,0.0323
2866.00,0.0322
2865.00,0.0320
2864.00,0.0320
2863.00,0.0319
2862.00,0.0318
2861.00,0.0318
2860.00,0.0317
2859.00,0.0316
2858.00,0.0314
2857.00,0.0312
2856.00,0.0309
2855.00,0.0304
2854.00,0.0299
2853.00,0.0294
2852.00,0.0288
2851.00,0.0282
2850.00,0.0276
2849.00,0.0270
2848.00,0.0265
2847.00,0.0259
2846.00,0.0254
2845.00,0.0248
2844.00,0.0242
2843.00,0.0237
2842.00,0.0231
2841.00,0.0226
2840.00,0.0221
2839.00,0.0217
2838.00,0.0213
2837.00,0.0210
2836.00,0.0207
2835.00,0.0204
2834.00,0.0201
2833.00,0.0198
2832.00,0.0195
2831.00,0.0192
2830.00,0.0189
2829.00,0.0186
2828.00,0.0183
2827.00,0.0180
2826.00,0.0178
2825.00,0.0175
2824.00,0.0173
2823.00,0.0170
2822.00,0.0168
2821.00,0.0166
2820.00,0.0164
2819.00,0.0163
2818.00,0.0161
2817.00,0.0160
2816.00,0.0158
2815.00,0.0157
2814.00,0.0155
2813.00,0.0154
2812.00,0.0152
2811.00,0.0151
2810.00,0.0150
2809.00,0.0149
2808.00,0.0148
2807.00,0.0147
2806.00,0.0145
2805.00,0.0144
2804.00,0.0143
2803.00,0.0142
2802.00,0.0141
2801.00,0.0141
2800.00,0.0140
2799.00,0.0139
2798.00,0.0138
2797.00,0.0138
2796.00,0.0137
2795.00,0.0136
2794.00,0.0136
2793.00,0.0135
2792.00,0.0134
2791.00,0.0134
2790.00,0.0133
2789.00,0.0133
2788.00,0.0133
2787.00,0.0132
2786.00,0.0132
2785.00,0.0132
2784.00,0.0131
2783.00,0.0131
2782.00,0.0130
2781.00,0.0129
2780.00,0.0129
2779.00,0.0128
2778.00,0.0128
2777.00,0.0127
2776.00,0.0127
2775.00,0.0126
2774.00,0.0126
2773.00,0.0126
2772.00,0.0126
2771.00,0.0126
2770.00,0.0125
2769.00,0.0125
2768.00,0.0124
2767.00,0.0124
2766.00,0.0124
2765.00,0.0123
2764.00,0.0123
2763.00,0.0123
2762.00,0.0123
2761.00,0.0123
2760.00,0.0123
2759.00,0.0123
2758.00,0.0123
2757.00,0.0123
2756.00,0.0123
2755.00,0.0123
2754.00,0.0123
2753.00,0.0123
2752.00,0.0123
2751.00,0.0122
2750.00,0.0123
2749.00,0.0123
2748.00,0.0123
2747.00,0.0123
2746.00,0.0123
2745.00,0.0123
2744.00,0.0123
2743.00,0.0123
2742.00,0.0123
2741.00,0.0123
2740.00,0.0123
2739.00,0.0123
2738.00,0.0123
2737.00,0.0123
2736.00,0.0123
2735.00,0.0123
2734.00,0.0123
2733.00,0.0123
2732.00,0.0123
2731.00,0.0123
2730.00,0.0123
2729.00,0.0122
2728.00,0.0122
2727.00,0.0122
2726.00,0.0122
2725.00,0.0121
2724.00,0.0121
2723.00,0.0121
2722.00,0.0121
2721.00,0.0120
2720.00,0.0120
2719.00,0.0120
2718.00,0.0120
2717.00,0.0120
2716.00,0.0119
2715.00,0.0119
2714.00,0.0119
2713.00,0.0119
2712.00,0.0119
2711.00,0.0118
2710.00,0.0118
2709.00,0.0118
2708.00,0.0118
2707.00,0.0117
2706.00,0.0117
2705.00,0.0117
2704.00,0.0117
2703.00,0.0117
2702.00,0.0116
2701.00,0.0116
2700.00,0.0116
2699.00,0.0116
2698.00,0.0115
2697.00,0.0115
2696.00,0.0115
2695.00,0.0115
2694.00,0.0115
2693.00,0.0114
2692.00,0.0114
2691.00,0.0114
2690.00,0.0113
2689.00,0.0113
2688.00,0.0113
2687.00,0.0113
2686.00,0.0113
2685.00,0.0112
2684.00,0.0112
2683.00,0.0112
2682.00,0.0112
2681.00,0.0112
2680.00,0.0111
2679.00,0.0111
2678.00,0.0111
2677.00,0.0111
2676.00,0.0111
2675.00,0.0111
2674.00,0.0111
2673.00,0.0111
2672.00,0.0111
2671.00,0.0111
2670.00,0.0111
2669.00,0.0111
2668.00,0.0111
2667.00,0.0112
2666.00,0.0112
2665.00,0.0112
2664.00,0.0112
2663.00,0.0112
2662.00,0.0113
2661.00,0.0113
2660.00,0.0113
2659.00,0.0113
2658.00,0.0113
2657.00,0.0113
2656.00,0.0113
2655.00,0.0113
2654.00,0.0113
2653.00,0.0113
2652.00,0.0113
2651.00,0.0112
2650.00,0.0112
2649.00,0.0112
2648.00,0.0112
2647.00,0.0112
2646.00,0.0112
2645.00,0.0111
2644.00,0.0111
2643.00,0.0111
2642.00,0.0110
2641.00,0.0110
2640.00,0.0110
2639.00,0.0110
2638.00,0.0110
2637.00,0.0110
2636.00,0.0110
2635.00,0.0110
2634.00,0.0109
2633.00,0.0109
2632.00,0.0109
2631.00,0.0109
2630.00,0.0109
2629.00,0.0109
2628.00,0.0108
2627.00,0.0108
2626.00,0.0108
2625.00,0.0108
2624.00,0.0107
2623.00,0.0107
2622.00,0.0107
2621.00,0.0107
2620.00,0.0107
2619.00,0.0106
2618.00,0.0106
2617.00,0.0106
2616.00,0.0106
2615.00,0.0106
2614.00,0.0106
2613.00,0.0106
2612.00,0.0106
2611.00,0.0106
2610.00,0.0106
2609.00,0.0105
2608.00,0.0105
2607.00,0.0105
2606.00,0.0105
2605.00,0.0104
2604.00,0.0104
2603.00,0.0104
2602.00,0.0104
2601.00,0.0104
2600.00,0.0104
2599.00,0.0104
2598.00,0.0103
2597.00,0.0103
2596.00,0.0103
2595.00,0.0102
2594.00,0.0102
2593.00,0.0102
2592.00,0.0102
2591.00,0.0102
2590.00,0.0102
2589.00,0.0102
2588.00,0.0102
2587.00,0.0102
2586.00,0.0102
2585.00,0.0102
2584.00,0.0102
2583.00,0.0102
2582.00,0.0102
2581.00,0.0101
2580.00,0.0101
2579.00,0.0101
2578.00,0.0101
2577.00,0.0101
2576.00,0.0101
2575.00,0.0101
2574.00,0.0101
2573.00,0.0102
2572.00,0.0102
2571.00,0.0102
2570.00,0.0101
2569.00,0.0101
2568.00,0.0101
2567.00,0.0100
2566.00,0.0100
2565.00,0.0100
2564.00,0.0100
2563.00,0.0099
2562.00,0.0099
2561.00,0.0098
2560.00,0.0098
2559.00,0.0098
2558.00,0.0098
2557.00,0.0098
2556.00,0.0098
2555.00,0.0098
2554.00,0.0097
2553.00,0.0097
2552.00,0.0097
2551.00,0.0097
2550.00,0.0097
2549.00,0.0097
2548.00,0.0097
2547.00,0.0097
2546.00,0.0096
2545.00,0.0096
2544.00,0.0096
2543.00,0.0095
2542.00,0.0095
2541.00,0.0095
2540.00,0.0095
2539.00,0.0095
2538.00,0.0094
2537.00,0.0094
2536.00,0.0094
2535.00,0.0094
2534.00,0.0093
2533.00,0.0093
2532.00,0.0093
2531.00,0.0093
2530.00,0.0093
2529.00,0.0092
2528.00,0.0092
2527.00,0.0092
2526.00,0.0091
2525.00,0.0091
2524.00,0.0091
2523.00,0.0090
2522.00,0.0090
2521.00,0.0090
2520.00,0.0091
2519.00,0.0091
2518.00,0.0090
2517.00,0.0090
2516.00,0.0090
2515.00,0.0089
2514.00,0.0088
2513.00,0.0088
2512.00,0.0088
2511.00,0.0088
2510.00,0.0088
2509.00,0.0088
2508.00,0.0087
2507.00,0.0087
2506.00,0.0087
2505.00,0.0087
2504.00,0.0087
2503.00,0.0087
2502.00,0.0087
2501.00,0.0087
2500.00,0.0087
2499.00,0.0087
2498.00,0.0087
2497.00,0.0086
2496.00,0.0086
2495.00,0.0086
2494.00,0.0086
2493.00,0.0086
2492.00,0.0086
2491.00,0.0086
2490.00,0.0086
2489.00,0.0085
2488.00,0.0086
2487.00,0.0086
2486.00,0.0086
2485.00,0.0086
2484.00,0.0086
2483.00,0.0085
2482.00,0.0085
2481.00,0.0085
2480.00,0.0085
2479.00,0.0085
2478.00,0.0085
2477.00,0.0085
2476.00,0.0085
2475.00,0.0085
2474.00,0.0085
2473.00,0.0084
2472.00,0.0084
2471.00,0.0084
2470.00,0.0084
2469.00,0.0084
2468.00,0.0085
2467.00,0.0085
2466.00,0.0085
2465.00,0.0085
2464.00,0.0085
2463.00,0.0085
2462.00,0.0086
2461.00,0.0086
2460.00,0.0086
2459.00,0.0086
2458.00,0.0086
2457.00,0.0086
2456.00,0.0086
2455.00,0.0086
2454.00,0.0086
2453.00,0.0086
2452.00,0.0086
2451.00,0.0085
2450.00,0.0085
2449.00,0.0085
2448.00,0.0085
2447.00,0.0085
2446.00,0.0085
2445.00,0.0085
2444.00,0.0085
2443.00,0.0084
2442.00,0.0084
2441.00,0.0084
2440.00,0.0083
2439.00,0.0084
2438.00,0.0084
2437.00,0.0084
2436.00,0.0084
2435.00,0.0084
2434.00,0.0084
2433.00,0.0084
2432.00,0.0084
2431.00,0.0083
2430.00,0.0083
2429.00,0.0083
2428.00,0.0083
2427.00,0.0083
2426.00,0.0083
2425.00,0.0083
2424.00,0.0083
2423.00,0.0083
2422.00,0.0083
2421.00,0.0083
2420.00,0.0083
2419.00,0.0083
2418.00,0.0083
2417.00,0.0083
2416.00,0.0083
2415.00,0.0083
2414.00,0.0083
2413.00,0.0083
2412.00,0.0083
2411.00,0.0083
2410.00,0.0082
2409.00,0.0082
2408.00,0.0081
2407.00,0.0080
2406.00,0.0080
2405.00,0.0080
2404.00,0.0080
2403.00,0.0080
2402.00,0.0080
2401.00,0.0080
2400.00,0.0080
2399.00,0.0080
2398.00,0.0080
2397.00,0.0080
2396.00,0.0081
2395.00,0.0081
2394.00,0.0080
2393.00,0.0080
2392.00,0.0080
2391.00,0.0080
2390.00,0.0079
2389.00,0.0079
2388.00,0.0079
2387.00,0.0078
2386.00,0.0078
2385.00,0.0078
2384.00,0.0077
2383.00,0.0077
2382.00,0.0077
2381.00,0.0076
2380.00,0.0076
2379.00,0.0076
2378.00,0.0076
2377.00,0.0076
2376.00,0.0076
2375.00,0.0076
2374.00,0.0076
2373.00,0.0076
2372.00,0.0076
2371.00,0.0076
2370.00,0.0076
2369.00,0.0075
2368.00,0.0075
2367.00,0.0075
2366.00,0.0076
2365.00,0.0075
2364.00,0.0075
2363.00,0.0075
2362.00,0.0075
2361.00,0.0076
2360.00,0.0076
2359.00,0.0076
2358.00,0.0076
2357.00,0.0076
2356.00,0.0076
2355.00,0.0076
2354.00,0.0077
2353.00,0.0076
2352.00,0.0076
2351.00,0.0075
2350.00,0.0075
2349.00,0.0076
2348.00,0.0078
2347.00,0.0079
2346.00,0.0080
2345.00,0.0079
2344.00,0.0079
2343.00,0.0078
2342.00,0.0078
2341.00,0.0079
2340.00,0.0079
2339.00,0.0080
2338.00,0.0081
2337.00,0.0081
2336.00,0.0081
2335.00,0.0080
2334.00,0.0080
2333.00,0.0080
2332.00,0.0080
2331.00,0.0080
2330.00,0.0081
2329.00,0.0083
2328.00,0.0086
2327.00,0.0090
2326.00,0.0093
2325.00,0.0094
2324.00,0.0093
2323.00,0.0091
2322.00,0.0089
2321.00,0.0088
2320.00,0.0087
2319.00,0.0086
2318.00,0.0086
2317.00,0.0085
2316.00,0.0085
2315.00,0.0084
2314.00,0.0084
2313.00,0.0083
2312.00,0.0083
2311.00,0.0082
2310.00,0.0082
2309.00,0.0082
2308.00,0.0082
2307.00,0.0082
2306.00,0.0082
2305.00,0.0082
2304.00,0.0083
2303.00,0.0083
2302.00,0.0083
2301.00,0.0083
2300.00,0.0083
2299.00,0.0084
2298.00,0.0085
2297.00,0.0085
2296.00,0.0086
2295.00,0.0087
2294.00,0.0088
2293.00,0.0089
2292.00,0.0090
2291.00,0.0090
2290.00,0.0091
2289.00,0.0091
2288.00,0.0091
2287.00,0.0091
2286.00,0.0091
2285.00,0.0090
2284.00,0.0089
2283.00,0.0089
2282.00,0.0088
2281.00,0.0088
2280.00,0.0088
2279.00,0.0087
2278.00,0.0086
2277.00,0.0085
2276.00,0.0085
2275.00,0.0084
2274.00,0.0084
2273.00,0.0084
2272.00,0.0084
2271.00,0.0084
2270.00,0.0084
2269.00,0.0084
2268.00,0.0083
2267.00,0.0082
2266.00,0.0081
2265.00,0.0080
2264.00,0.0080
2263.00,0.0080
2262.00,0.0080
2261.00,0.0081
2260.00,0.0081
2259.00,0.0081
2258.00,0.0080
2257.00,0.0079
2256.00,0.0078
2255.00,0.0078
2254.00,0.0078
2253.00,0.0078
2252.00,0.0079
2251.00,0.0079
2250.00,0.0079
2249.00,0.0079
2248.00,0.0080
2247.00,0.0080
2246.00,0.0080
2245.00,0.0081
2244.00,0.0081
2243.00,0.0081
2242.00,0.0080
2241.00,0.0079
2240.00,0.0080
2239.00,0.0080
2238.00,0.0081
2237.00,0.0081
2236.00,0.0081
2235.00,0.0080
2234.00,0.0079
2233.00,0.0079
2232.00,0.0079
2231.00,0.0079
2230.00,0.0079
2229.00,0.0080
2228.00,0.0080
2227.00,0.0080
2226.00,0.0080
2225.00,0.0080
2224.00,0.0080
2223.00,0.0080
2222.00,0.0079
2221.00,0.0078
2220.00,0.0078
2219.00,0.0077
2218.00,0.0077
2217.00,0.0077
2216.00,0.0077
2215.00,0.0077
2214.00,0.0078
2213.00,0.0078
2212.00,0.0079
2211.00,0.0079
2210.00,0.0079
2209.00,0.0078
2208.00,0.0078
2207.00,0.0078
2206.00,0.0078
2205.00,0.0078
2204.00,0.0079
2203.00,0.0079
2202.00,0.0079
2201.00,0.0079
2200.00,0.0079
2199.00,0.0079
2198.00,0.0079
2197.00,0.0078
2196.00,0.0078
2195.00,0.0078
2194.00,0.0078
2193.00,0.0080
2192.00,0.0081
2191.00,0.0082
2190.00,0.0082
2189.00,0.0082
2188.00,0.0082
2187.00,0.0080
2186.00,0.0077
2185.00,0.0075
2184.00,0.0073
2183.00,0.0072
2182.00,0.0073
2181.00,0.0076
2180.00,0.0078
2179.00,0.0078
2178.00,0.0076
2177.00,0.0073
2176.00,0.0072
2175.00,0.0073
2174.00,0.0074
2173.00,0.0077
2172.00,0.0080
2171.00,0.0081
2170.00,0.0082
2169.00,0.0082
2168.00,0.0083
2167.00,0.0084
2166.00,0.0087
2165.00,0.0091
2164.00,0.0094
2163.00,0.0094
2162.00,0.0087
2161.00,0.0074
2160.00,0.0058
2159.00,0.0045
2158.00,0.0041
2157.00,0.0043
2156.00,0.0049
2155.00,0.0053
2154.00,0.0055
2153.00,0.0056
2152.00,0.0057
2151.00,0.0059
2150.00,0.0059
2149.00,0.0060
2148.00,0.0061
2147.00,0.0060
2146.00,0.0060
2145.00,0.0060
2144.00,0.0060
2143.00,0.0061
2142.00,0.0060
2141.00,0.0060
2140.00,0.0059
2139.00,0.0058
2138.00,0.0057
2137.00,0.0055
2136.00,0.0054
2135.00,0.0052
2134.00,0.0052
2133.00,0.0054
2132.00,0.0056
2131.00,0.0058
2130.00,0.0060
2129.00,0.0062
2128.00,0.0064
2127.00,0.0066
2126.00,0.0067
2125.00,0.0067
2124.00,0.0068
2123.00,0.0068
2122.00,0.0068
2121.00,0.0069
2120.00,0.0070
2119.00,0.0071
2118.00,0.0073
2117.00,0.0074
2116.00,0.0075
2115.00,0.0075
2114.00,0.0074
2113.00,0.0074
2112.00,0.0074
2111.00,0.0074
2110.00,0.0074
2109.00,0.0074
2108.00,0.0075
2107.00,0.0075
2106.00,0.0074
2105.00,0.0074
2104.00,0.0074
2103.00,0.0074
2102.00,0.0074
2101.00,0.0073
2100.00,0.0073
2099.00,0.0072
2098.00,0.0071
2097.00,0.0069
2096.00,0.0068
2095.00,0.0068
2094.00,0.0068
2093.00,0.0069
2092.00,0.0071
2091.00,0.0072
2090.00,0.0072
2089.00,0.0072
2088.00,0.0073
2087.00,0.0073
2086.00,0.0073
2085.00,0.0074
2084.00,0.0074
2083.00,0.0075
2082.00,0.0075
2081.00,0.0075
2080.00,0.0076
2079.00,0.0076
2078.00,0.0075
2077.00,0.0075
2076.00,0.0075
2075.00,0.0075
2074.00,0.0074
2073.00,0.0073
2072.00,0.0073
2071.00,0.0073
2070.00,0.0072
2069.00,0.0073
2068.00,0.0073
2067.00,0.0073
2066.00,0.0072
2065.00,0.0071
2064.00,0.0070
2063.00,0.0070
2062.00,0.0070
2061.00,0.0070
2060.00,0.0071
2059.00,0.0072
2058.00,0.0072
2057.00,0.0072
2056.00,0.0073
2055.00,0.0074
2054.00,0.0077
2053.00,0.0081
2052.00,0.0084
2051.00,0.0083
2050.00,0.0079
2049.00,0.0075
2048.00,0.0074
2047.00,0.0074
2046.00,0.0074
2045.00,0.0075
2044.00,0.0075
2043.00,0.0074
2042.00,0.0073
2041.00,0.0072
2040.00,0.0074
2039.00,0.0075
2038.00,0.0074
2037.00,0.0073
2036.00,0.0072
2035.00,0.0070
2034.00,0.0068
2033.00,0.0068
2032.00,0.0069
2031.00,0.0068
2030.00,0.0067
2029.00,0.0065
2028.00,0.0064
2027.00,0.0063
2026.00,0.0061
2025.00,0.0061
2024.00,0.0061
2023.00,0.0061
2022.00,0.0060
2021.00,0.0060
2020.00,0.0061
2019.00,0.0061
2018.00,0.0060
2017.00,0.0060
2016.00,0.0061
2015.00,0.0061
2014.00,0.0062
2013.00,0.0062
2012.00,0.0064
2011.00,0.0064
2010.00,0.0063
2009.00,0.0061
2008.00,0.0058
2007.00,0.0056
2006.00,0.0054
2005.00,0.0055
2004.00,0.0058
2003.00,0.0060
2002.00,0.0061
2001.00,0.0063
2000.00,0.0065
1999.00,0.0066
1998.00,0.0065
1997.00,0.0065
1996.00,0.0066
1995.00,0.0066
1994.00,0.0066
1993.00,0.0067
1992.00,0.0068
1991.00,0.0068
1990.00,0.0068
1989.00,0.0068
1988.00,0.0069
1987.00,0.0071
1986.00,0.0071
1985.00,0.0073
1984.00,0.0076
1983.00,0.0077
1982.00,0.0078
1981.00,0.0077
1980.00,0.0074
1979.00,0.0068
1978.00,0.0061
1977.00,0.0058
1976.00,0.0058
1975.00,0.0059
1974.00,0.0058
1973.00,0.0056
1972.00,0.0056
1971.00,0.0055
1970.00,0.0054
1969.00,0.0055
1968.00,0.0058
1967.00,0.0059
1966.00,0.0059
1965.00,0.0059
1964.00,0.0060
1963.00,0.0059
1962.00,0.0057
1961.00,0.0055
1960.00,0.0054
1959.00,0.0053
1958.00,0.0053
1957.00,0.0055
1956.00,0.0057
1955.00,0.0059
1954.00,0.0059
1953.00,0.0060
1952.00,0.0061
1951.00,0.0060
1950.00,0.0059
1949.00,0.0059
1948.00,0.0060
1947.00,0.0060
1946.00,0.0059
1945.00,0.0059
1944.00,0.0060
1943.00,0.0059
1942.00,0.0059
1941.00,0.0059
1940.00,0.0060
1939.00,0.0061
1938.00,0.0061
1937.00,0.0061
1936.00,0.0061
1935.00,0.0061
1934.00,0.0061
1933.00,0.0061
1932.00,0.0062
1931.00,0.0061
1930.00,0.0061
1929.00,0.0061
1928.00,0.0061
1927.00,0.0062
1926.00,0.0062
1925.00,0.0063
1924.00,0.0065
1923.00,0.0065
1922.00,0.0064
1921.00,0.0065
1920.00,0.0065
1919.00,0.0066
1918.00,0.0065
1917.00,0.0064
1916.00,0.0064
1915.00,0.0064
1914.00,0.0064
1913.00,0.0065
1912.00,0.0066
1911.00,0.0067
1910.00,0.0066
1909.00,0.0066
1908.00,0.0066
1907.00,0.0066
1906.00,0.0066
1905.00,0.0066
1904.00,0.0067
1903.00,0.0067
1902.00,0.0066
1901.00,0.0066
1900.00,0.0065
1899.00,0.0065
1898.00,0.0065
1897.00,0.0066
1896.00,0.0066
1895.00,0.0067
1894.00,0.0066
1893.00,0.0066
1892.00,0.0067
1891.00,0.0068
1890.00,0.0067
1889.00,0.0066
1888.00,0.0065
1887.00,0.0064
1886.00,0.0064
1885.00,0.0064
1884.00,0.0065
1883.00,0.0064
1882.00,0.0064
1881.00,0.0063
1880.00,0.0064
1879.00,0.0064
1878.00,0.0064
1877.00,0.0064
1876.00,0.0064
1875.00,0.0064
1874.00,0.0064
1873.00,0.0064
1872.00,0.0065
1871.00,0.0066
1870.00,0.0066
1869.00,0.0066
1868.00,0.0066
1867.00,0.0065
1866.00,0.0064
1865.00,0.0064
1864.00,0.0065
1863.00,0.0066
1862.00,0.0065
1861.00,0.0065
1860.00,0.0065
1859.00,0.0065
1858.00,0.0065
1857.00,0.0065
1856.00,0.0065
1855.00,0.0065
1854.00,0.0065
1853.00,0.0065
1852.00,0.0065
1851.00,0.0066
1850.00,0.0066
1849.00,0.0066
1848.00,0.0066
1847.00,0.0066
1846.00,0.0065
1845.00,0.0064
1844.00,0.0063
1843.00,0.0063
1842.00,0.0064
1841.00,0.0065
1840.00,0.0066
1839.00,0.0066
1838.00,0.0066
1837.00,0.0066
1836.00,0.0066
1835.00,0.0066
1834.00,0.0066
1833.00,0.0066
1832.00,0.0068
1831.00,0.0068
1830.00,0.0067
1829.00,0.0066
1828.00,0.0066
1827.00,0.0066
1826.00,0.0066
1825.00,0.0066
1824.00,0.0066
1823.00,0.0065
1822.00,0.0064
1821.00,0.0064
1820.00,0.0063
1819.00,0.0062
1818.00,0.0060
1817.00,0.0060
1816.00,0.0061
1815.00,0.0062
1814.00,0.0063
1813.00,0.0064
1812.00,0.0065
1811.00,0.0065
1810.00,0.0064
1809.00,0.0064
1808.00,0.0064
1807.00,0.0065
1806.00,0.0064
1805.00,0.0064
1804.00,0.0065
1803.00,0.0065
1802.00,0.0066
1801.00,0.0066
1800.00,0.0066
1799.00,0.0066
1798.00,0.0066
1797.00,0.0067
1796.00,0.0067
1795.00,0.0067
1794.00,0.0066
1793.00,0.0066
1792.00,0.0066
1791.00,0.0065
1790.00,0.0065
1789.00,0.0065
1788.00,0.0066
1787.00,0.0066
1786.00,0.0065
1785.00,0.0065
1784.00,0.0066
1783.00,0.0067
1782.00,0.0068
1781.00,0.0068
1780.00,0.0068
1779.00,0.0067
1778.00,0.0067
1777.00,0.0067
1776.00,0.0068
1775.00,0.0069
1774.00,0.0070
1773.00,0.0070
1772.00,0.0070
1771.00,0.0068
1770.00,0.0067
1769.00,0.0066
1768.00,0.0067
1767.00,0.0067
1766.00,0.0067
1765.00,0.0068
1764.00,0.0069
1763.00,0.0070
1762.00,0.0069
1761.00,0.0069
1760.00,0.0070
1759.00,0.0071
1758.00,0.0070
1757.00,0.0070
1756.00,0.0070
1755.00,0.0070
1754.00,0.0070
1753.00,0.0070
1752.00,0.0072
1751.00,0.0074
1750.00,0.0075
1749.00,0.0075
1748.00,0.0076
1747.00,0.0076
1746.00,0.0076
1745.00,0.0076
1744.00,0.0076
1743.00,0.0076
1742.00,0.0076
1741.00,0.0076
1740.00,0.0077
1739.00,0.0077
1738.00,0.0076
1737.00,0.0076
1736.00,0.0077
1735.00,0.0078
1734.00,0.0078
1733.00,0.0080
1732.00,0.0085
1731.00,0.0088
1730.00,0.0089
1729.00,0.0089
1728.00,0.0091
1727.00,0.0093
1726.00,0.0094
1725.00,0.0097
1724.00,0.0100
1723.00,0.0102
1722.00,0.0103
1721.00,0.0105
1720.00,0.0110
1719.00,0.0115
1718.00,0.0119
1717.00,0.0123
1716.00,0.0129
1715.00,0.0134
1714.00,0.0139
1713.00,0.0145
1712.00,0.0154
1711.00,0.0163
1710.00,0.0172
1709.00,0.0184
1708.00,0.0199
1707.00,0.0217
1706.00,0.0237
1705.00,0.0260
1704.00,0.0281
1703.00,0.0299
1702.00,0.0321
1701.00,0.0364
1700.00,0.0426
1699.00,0.0481
1698.00,0.0523
1697.00,0.0570
1696.00,0.0637
1695.00,0.0713
1694.00,0.0777
1693.00,0.0828
1692.00,0.0878
1691.00,0.0936
1690.00,0.1000
1689.00,0.1063
1688.00,0.1115
1687.00,0.1155
1686.00,0.1199
1685.00,0.1272
1684.00,0.1375
1683.00,0.1462
1682.00,0.1510
1681.00,0.1537
1680.00,0.1562
1679.00,0.1584
1678.00,0.1599
1677.00,0.1613
1676.00,0.1640
1675.00,0.1676
1674.00,0.1703
1673.00,0.1709
1672.00,0.1705
1671.00,0.1703
1670.00,0.1714
1669.00,0.1732
1668.00,0.1743
1667.00,0.1740
1666.00,0.1726
1665.00,0.1711
1664.00,0.1706
1663.00,0.1713
1662.00,0.1724
1661.00,0.1729
1660.00,0.1723
1659.00,0.1711
1658.00,0.1694
1657.00,0.1668
1656.00,0.1635
1655.00,0.1603
1654.00,0.1593
1653.00,0.1610
1652.00,0.1619
1651.00,0.1593
1650.00,0.1545
1649.00,0.1489
1648.00,0.1436
1647.00,0.1390
1646.00,0.1348
1645.00,0.1303
1644.00,0.1253
1643.00,0.1199
1642.00,0.1144
1641.00,0.1090
1640.00,0.1039
1639.00,0.0990
1638.00,0.0943
1637.00,0.0898
1636.00,0.0855
1635.00,0.0818
1634.00,0.0786
1633.00,0.0754
1632.00,0.0722
1631.00,0.0693
1630.00,0.0667
1629.00,0.0647
1628.00,0.0633
1627.00,0.0624
1626.00,0.0618
1625.00,0.0619
1624.00,0.0627
1623.00,0.0642
1622.00,0.0657
1621.00,0.0666
1620.00,0.0668
1619.00,0.0666
1618.00,0.0662
1617.00,0.0656
1616.00,0.0649
1615.00,0.0638
1614.00,0.0624
1613.00,0.0608
1612.00,0.0594
1611.00,0.0583
1610.00,0.0571
1609.00,0.0557
1608.00,0.0540
1607.00,0.0519
1606.00,0.0495
1605.00,0.0470
1604.00,0.0444
1603.00,0.0419
1602.00,0.0397
1601.00,0.0377
1600.00,0.0360
1599.00,0.0346
1598.00,0.0336
1597.00,0.0330
1596.00,0.0326
1595.00,0.0327
1594.00,0.0332
1593.00,0.0342
1592.00,0.0356
1591.00,0.0374
1590.00,0.0395
1589.00,0.0417
1588.00,0.0437
1587.00,0.0453
1586.00,0.0463
1585.00,0.0465
1584.00,0.0460
1583.00,0.0448
1582.00,0.0432
1581.00,0.0413
1580.00,0.0394
1579.00,0.0376
1578.00,0.0359
1577.00,0.0343
1576.00,0.0329
1575.00,0.0318
1574.00,0.0309
1573.00,0.0301
1572.00,0.0293
1571.00,0.0285
1570.00,0.0279
1569.00,0.0272
1568.00,0.0266
1567.00,0.0261
1566.00,0.0256
1565.00,0.0251
1564.00,0.0244
1563.00,0.0237
1562.00,0.0230
1561.00,0.0225
1560.00,0.0224
1559.00,0.0221
1558.00,0.0217
1557.00,0.0216
1556.00,0.0213
1555.00,0.0210
1554.00,0.0207
1553.00,0.0205
1552.00,0.0204
1551.00,0.0203
1550.00,0.0201
1549.00,0.0198
1548.00,0.0195
1547.00,0.0194
1546.00,0.0193
1545.00,0.0193
1544.00,0.0192
1543.00,0.0192
1542.00,0.0192
1541.00,0.0191
1540.00,0.0188
1539.00,0.0185
1538.00,0.0185
1537.00,0.0185
1536.00,0.0185
1535.00,0.0184
1534.00,0.0184
1533.00,0.0183
1532.00,0.0183
1531.00,0.0183
1530.00,0.0184
1529.00,0.0185
1528.00,0.0186
1527.00,0.0187
1526.00,0.0188
1525.00,0.0190
1524.00,0.0192
1523.00,0.0194
1522.00,0.0197
1521.00,0.0200
1520.00,0.0204
1519.00,0.0209
1518.00,0.0213
1517.00,0.0216
1516.00,0.0217
1515.00,0.0218
1514.00,0.0219
1513.00,0.0221
1512.00,0.0223
1511.00,0.0226
1510.00,0.0229
1509.00,0.0232
1508.00,0.0238
1507.00,0.0244
1506.00,0.0253
1505.00,0.0265
1504.00,0.0277
1503.00,0.0290
1502.00,0.0304
1501.00,0.0322
1500.00,0.0343
1499.00,0.0367
1498.00,0.0392
1497.00,0.0417
1496.00,0.0437
1495.00,0.0449
1494.00,0.0453
1493.00,0.0450
1492.00,0.0443
1491.00,0.0432
1490.00,0.0417
1489.00,0.0398
1488.00,0.0377
1487.00,0.0354
1486.00,0.0333
1485.00,0.0314
1484.00,0.0298
1483.00,0.0284
1482.00,0.0273
1481.00,0.0265
1480.00,0.0259
1479.00,0.0256
1478.00,0.0255
1477.00,0.0259
1476.00,0.0265
1475.00,0.0274
1474.00,0.0288
1473.00,0.0310
1472.00,0.0339
1471.00,0.0371
1470.00,0.0401
1469.00,0.0433
1468.00,0.0467
1467.00,0.0504
1466.00,0.0550
1465.00,0.0603
1464.00,0.0654
1463.00,0.0693
1462.00,0.0717
1461.00,0.0731
1460.00,0.0735
1459.00,0.0730
1458.00,0.0717
1457.00,0.0696
1456.00,0.0670
1455.00,0.0643
1454.00,0.0617
1453.00,0.0593
1452.00,0.0574
1451.00,0.0561
1450.00,0.0557
1449.00,0.0562
1448.00,0.0575
1447.00,0.0595
1446.00,0.0617
1445.00,0.0640
1444.00,0.0666
1443.00,0.0695
1442.00,0.0725
1441.00,0.0754
1440.00,0.0780
1439.00,0.0804
1438.00,0.0834
1437.00,0.0877
1436.00,0.0924
1435.00,0.0960
1434.00,0.0982
1433.00,0.0996
1432.00,0.1010
1431.00,0.1026
1430.00,0.1044
1429.00,0.1066
1428.00,0.1089
1427.00,0.1112
1426.00,0.1139
1425.00,0.1172
1424.00,0.1206
1423.00,0.1231
1422.00,0.1237
1421.00,0.1229
1420.00,0.1210
1419.00,0.1176
1418.00,0.1128
1417.00,0.1070
1416.00,0.1005
1415.00,0.0938
1414.00,0.0874
1413.00,0.0819
1412.00,0.0771
1411.00,0.0731
1410.00,0.0701
1409.00,0.0678
1408.00,0.0661
1407.00,0.0649
1406.00,0.0643
1405.00,0.0641
1404.00,0.0639
1403.00,0.0636
1402.00,0.0629
1401.00,0.0618
1400.00,0.0604
1399.00,0.0584
1398.00,0.0562
1397.00,0.0537
1396.00,0.0510
1395.00,0.0484
1394.00,0.0460
1393.00,0.0442
1392.00,0.0427
1391.00,0.0415
1390.00,0.0407
1389.00,0.0403
1388.00,0.0404
1387.00,0.0410
1386.00,0.0419
1385.00,0.0430
1384.00,0.0442
1383.00,0.0455
1382.00,0.0470
1381.00,0.0484
1380.00,0.0496
1379.00,0.0505
1378.00,0.0512
1377.00,0.0516
1376.00,0.0517
1375.00,0.0516
1374.00,0.0515
1373.00,0.0512
1372.00,0.0507
1371.00,0.0501
1370.00,0.0496
1369.00,0.0490
1368.00,0.0485
1367.00,0.0480
1366.00,0.0477
1365.00,0.0476
1364.00,0.0477
1363.00,0.0480
1362.00,0.0481
1361.00,0.0479
1360.00,0.0472
1359.00,0.0460
1358.00,0.0444
1357.00,0.0424
1356.00,0.0403
1355.00,0.0384
1354.00,0.0367
1353.00,0.0354
1352.00,0.0344
1351.00,0.0336
1350.00,0.0329
1349.00,0.0324
1348.00,0.0320
1347.00,0.0316
1346.00,0.0314
1345.00,0.0312
1344.00,0.0311
1343.00,0.0310
1342.00,0.0310
1341.00,0.0312
1340.00,0.0313
1339.00,0.0315
1338.00,0.0318
1337.00,0.0321
1336.00,0.0324
1335.00,0.0328
1334.00,0.0333
1333.00,0.0338
1332.00,0.0344
1331.00,0.0350
1330.00,0.0357
1329.00,0.0365
1328.00,0.0373
1327.00,0.0383
1326.00,0.0395
1325.00,0.0408
1324.00,0.0421
1323.00,0.0434
1322.00,0.0448
1321.00,0.0462
1320.00,0.0473
1319.00,0.0483
1318.00,0.0489
1317.00,0.0492
1316.00,0.0491
1315.00,0.0488
1314.00,0.0482
1313.00,0.0474
1312.00,0.0466
1311.00,0.0458
1310.00,0.0451
1309.00,0.0446
1308.00,0.0444
1307.00,0.0445
1306.00,0.0448
1305.00,0.0454
1304.00,0.0462
1303.00,0.0475
1302.00,0.0491
1301.00,0.0512
1300.00,0.0540
1299.00,0.0575
1298.00,0.0618
1297.00,0.0669
1296.00,0.0728
1295.00,0.0793
1294.00,0.0864
1293.00,0.0939
1292.00,0.1015
1291.00,0.1090
1290.00,0.1160
1289.00,0.1224
1288.00,0.1279
1287.00,0.1321
1286.00,0.1348
1285.00,0.1360
1284.00,0.1357
1283.00,0.1340
1282.00,0.1313
1281.00,0.1281
1280.00,0.1249
1279.00,0.1221
1278.00,0.1200
1277.00,0.1189
1276.00,0.1186
1275.00,0.1190
1274.00,0.1199
1273.00,0.1208
1272.00,0.1215
1271.00,0.1216
1270.00,0.1208
1269.00,0.1191
1268.00,0.1165
1267.00,0.1131
1266.00,0.1091
1265.00,0.1046
1264.00,0.0999
1263.00,0.0951
1262.00,0.0904
1261.00,0.0858
1260.00,0.0814
1259.00,0.0772
1258.00,0.0734
1257.00,0.0700
1256.00,0.0668
1255.00,0.0640
1254.00,0.0616
1253.00,0.0595
1252.00,0.0578
1251.00,0.0564
1250.00,0.0554
1249.00,0.0548
1248.00,0.0546
1247.00,0.0547
1246.00,0.0552
1245.00,0.0560
1244.00,0.0569
1243.00,0.0580
1242.00,0.0590
1241.00,0.0601
1240.00,0.0610
1239.00,0.0619
1238.00,0.0627
1237.00,0.0635
1236.00,0.0642
1235.00,0.0648
1234.00,0.0654
1233.00,0.0659
1232.00,0.0662
1231.00,0.0663
1230.00,0.0664
1229.00,0.0663
1228.00,0.0662
1227.00,0.0660
1226.00,0.0658
1225.00,0.0656
1224.00,0.0654
1223.00,0.0653
1222.00,0.0653
1221.00,0.0652
1220.00,0.0650
1219.00,0.0647
1218.00,0.0642
1217.00,0.0635
1216.00,0.0624
1215.00,0.0610
1214.00,0.0593
1213.00,0.0575
1212.00,0.0556
1211.00,0.0537
1210.00,0.0520
1209.00,0.0505
1208.00,0.0491
1207.00,0.0480
1206.00,0.0472
1205.00,0.0466
1204.00,0.0463
1203.00,0.0462
1202.00,0.0465
1201.00,0.0471
1200.00,0.0478
1199.00,0.0488
1198.00,0.0499
1197.00,0.0509
1196.00,0.0519
1195.00,0.0526
1194.00,0.0529
1193.00,0.0527
1192.00,0.0519
1191.00,0.0507
1190.00,0.0492
1189.00,0.0475
1188.00,0.0458
1187.00,0.0443
1186.00,0.0429
1185.00,0.0417
1184.00,0.0407
1183.00,0.0399
1182.00,0.0393
1181.00,0.0389
1180.00,0.0386
1179.00,0.0385
1178.00,0.0386
1177.00,0.0388
1176.00,0.0391
1175.00,0.0395
1174.00,0.0400
1173.00,0.0406
1172.00,0.0411
1171.00,0.0417
1170.00,0.0422
1169.00,0.0426
1168.00,0.0428
1167.00,0.0431
1166.00,0.0433
1165.00,0.0436
1164.00,0.0439
1163.00,0.0445
1162.00,0.0453
1161.00,0.0463
1160.00,0.0474
1159.00,0.0484
1158.00,0.0492
1157.00,0.0496
1156.00,0.0494
1155.00,0.0488
1154.00,0.0478
1153.00,0.0464
1152.00,0.0447
1151.00,0.0430
1150.00,0.0412
1149.00,0.0394
1148.00,0.0377
1147.00,0.0361
1146.00,0.0347
1145.00,0.0334
1144.00,0.0323
1143.00,0.0314
1142.00,0.0308
1141.00,0.0303
1140.00,0.0301
1139.00,0.0301
1138.00,0.0304
1137.00,0.0311
1136.00,0.0322
1135.00,0.0338
1134.00,0.0359
1133.00,0.0382
1132.00,0.0405
1131.00,0.0424
1130.00,0.0436
1129.00,0.0438
1128.00,0.0428
1127.00,0.0411
1126.00,0.0389
1125.00,0.0366
1124.00,0.0345
1123.00,0.0327
1122.00,0.0313
1121.00,0.0303
1120.00,0.0295
1119.00,0.0289
1118.00,0.0286
1117.00,0.0283
1116.00,0.0282
1115.00,0.0281
1114.00,0.0282
1113.00,0.0283
1112.00,0.0284
1111.00,0.0286
1110.00,0.0288
1109.00,0.0291
1108.00,0.0294
1107.00,0.0297
1106.00,0.0303
1105.00,0.0310
1104.00,0.0317
1103.00,0.0325
1102.00,0.0333
1101.00,0.0338
1100.00,0.0340
1099.00,0.0338
1098.00,0.0334
1097.00,0.0328
1096.00,0.0320
1095.00,0.0312
1094.00,0.0305
1093.00,0.0297
1092.00,0.0291
1091.00,0.0285
1090.00,0.0280
1089.00,0.0276
1088.00,0.0273
1087.00,0.0270
1086.00,0.0269
1085.00,0.0269
1084.00,0.0269
1083.00,0.0271
1082.00,0.0273
1081.00,0.0276
1080.00,0.0280
1079.00,0.0285
1078.00,0.0291
1077.00,0.0298
1076.00,0.0305
1075.00,0.0312
1074.00,0.0319
1073.00,0.0327
1072.00,0.0335
1071.00,0.0345
1070.00,0.0357
1069.00,0.0372
1068.00,0.0390
1067.00,0.0412
1066.00,0.0437
1065.00,0.0466
1064.00,0.0498
1063.00,0.0531
1062.00,0.0564
1061.00,0.0595
1060.00,0.0621
1059.00,0.0640
1058.00,0.0649
1057.00,0.0645
1056.00,0.0630
1055.00,0.0605
1054.00,0.0572
1053.00,0.0536
1052.00,0.0500
1051.00,0.0467
1050.00,0.0438
1049.00,0.0416
1048.00,0.0399
1047.00,0.0388
1046.00,0.0381
1045.00,0.0378
1044.00,0.0377
1043.00,0.0377
1042.00,0.0379
1041.00,0.0381
1040.00,0.0384
1039.00,0.0386
1038.00,0.0389
1037.00,0.0391
1036.00,0.0393
1035.00,0.0396
1034.00,0.0399
1033.00,0.0403
1032.00,0.0407
1031.00,0.0409
1030.00,0.0407
1029.00,0.0402
1028.00,0.0394
1027.00,0.0384
1026.00,0.0375
1025.00,0.0366
1024.00,0.0359
1023.00,0.0355
1022.00,0.0354
1021.00,0.0354
1020.00,0.0355
1019.00,0.0356
1018.00,0.0356
1017.00,0.0355
1016.00,0.0350
1015.00,0.0344
1014.00,0.0335
1013.00,0.0325
1012.00,0.0316
1011.00,0.0308
1010.00,0.0303
1009.00,0.0302
1008.00,0.0304
1007.00,0.0309
1006.00,0.0317
1005.00,0.0325
1004.00,0.0333
1003.00,0.0338
1002.00,0.0340
1001.00,0.0339
1000.00,0.0334
999.00,0.0328
998.00,0.0320
997.00,0.0312
996.00,0.0304
995.00,0.0297
994.00,0.0290
993.00,0.0283
992.00,0.0277
991.00,0.0271
990.00,0.0265
989.00,0.0260
988.00,0.0254
987.00,0.0249
986.00,0.0245
985.00,0.0241
984.00,0.0237
983.00,0.0235
982.00,0.0234
981.00,0.0232
980.00,0.0232
979.00,0.0231
978.00,0.0231
977.00,0.0231
976.00,0.0230
975.00,0.0228
974.00,0.0227
973.00,0.0225
972.00,0.0223
971.00,0.0221
970.00,0.0219
969.00,0.0217
968.00,0.0215
967.00,0.0212
966.00,0.0211
965.00,0.0209
964.00,0.0207
963.00,0.0206
962.00,0.0205
961.00,0.0204
960.00,0.0203
959.00,0.0202
958.00,0.0201
957.00,0.0199
956.00,0.0197
955.00,0.0196
954.00,0.0194
953.00,0.0193
952.00,0.0192
951.00,0.0191
950.00,0.0191
949.00,0.0191
948.00,0.0191
947.00,0.0192
946.00,0.0193
945.00,0.0196
944.00,0.0199
943.00,0.0202
942.00,0.0207
941.00,0.0213
940.00,0.0220
939.00,0.0229
938.00,0.0239
937.00,0.0250
936.00,0.0261
935.00,0.0271
934.00,0.0280
933.00,0.0285
932.00,0.0287
931.00,0.0286
930.00,0.0283
929.00,0.0279
928.00,0.0276
927.00,0.0273
926.00,0.0271
925.00,0.0269
924.00,0.0266
923.00,0.0262
922.00,0.0259
921.00,0.0255
920.00,0.0251
919.00,0.0247
918.00,0.0244
917.00,0.0240
916.00,0.0237
915.00,0.0234
914.00,0.0231
913.00,0.0229
912.00,0.0228
911.00,0.0227
910.00,0.0227
909.00,0.0228
908.00,0.0230
907.00,0.0234
906.00,0.0239
905.00,0.0244
904.00,0.0251
903.00,0.0259
902.00,0.0267
901.00,0.0275
900.00,0.0282
899.00,0.0288
898.00,0.0292
897.00,0.0295
896.00,0.0295
895.00,0.0292
894.00,0.0288
893.00,0.0282
892.00,0.0275
891.00,0.0268
890.00,0.0263
889.00,0.0258
888.00,0.0254
887.00,0.0252
886.00,0.0251
885.00,0.0251
884.00,0.0252
883.00,0.0254
882.00,0.0258
881.00,0.0263
880.00,0.0269
879.00,0.0275
878.00,0.0283
877.00,0.0291
876.00,0.0300
875.00,0.0309
874.00,0.0317
873.00,0.0325
872.00,0.0332
871.00,0.0337
870.00,0.0341
869.00,0.0343
868.00,0.0344
867.00,0.0344
866.00,0.0345
865.00,0.0346
864.00,0.0348
863.00,0.0350
862.00,0.0352
861.00,0.0355
860.00,0.0358
859.00,0.0361
858.00,0.0366
857.00,0.0373
856.00,0.0380
855.00,0.0389
854.00,0.0397
853.00,0.0406
852.00,0.0415
851.00,0.0423
850.00,0.0432
849.00,0.0440
848.00,0.0447
847.00,0.0453
846.00,0.0458
845.00,0.0461
844.00,0.0463
843.00,0.0463
842.00,0.0462
841.00,0.0460
840.00,0.0458
839.00,0.0456
838.00,0.0454
837.00,0.0451
836.00,0.0450
835.00,0.0448
834.00,0.0448
833.00,0.0447
832.00,0.0445
831.00,0.0444
830.00,0.0442
829.00,0.0440
828.00,0.0437
827.00,0.0433
826.00,0.0429
825.00,0.0426
824.00,0.0423
823.00,0.0422
822.00,0.0421
821.00,0.0422
820.00,0.0422
819.00,0.0421
818.00,0.0421
817.00,0.0420
816.00,0.0419
815.00,0.0417
814.00,0.0413
813.00,0.0407
812.00,0.0398
811.00,0.0387
810.00,0.0373
809.00,0.0357
808.00,0.0339
807.00,0.0322
806.00,0.0306
805.00,0.0292
804.00,0.0280
803.00,0.0271
802.00,0.0264
801.00,0.0258
800.00,0.0255
799.00,0.0253
798.00,0.0251
797.00,0.0250
796.00,0.0249
795.00,0.0248
794.00,0.0249
793.00,0.0249
792.00,0.0249
791.00,0.0250
790.00,0.0250
789.00,0.0250
788.00,0.0250
787.00,0.0250
786.00,0.0251
785.00,0.0251
784.00,0.0253
783.00,0.0254
782.00,0.0257
781.00,0.0260
780.00,0.0264
779.00,0.0267
778.00,0.0271
777.00,0.0272
776.00,0.0272
775.00,0.0271
774.00,0.0269
773.00,0.0267
772.00,0.0266
771.00,0.0266
770.00,0.0267
769.00,0.0269
768.00,0.0271
767.00,0.0273
766.00,0.0275
765.00,0.0278
764.00,0.0281
763.00,0.0286
762.00,0.0290
761.00,0.0296
760.00,0.0301
759.00,0.0306
758.00,0.0311
757.00,0.0317
756.00,0.0322
755.00,0.0328
754.00,0.0334
753.00,0.0341
752.00,0.0347
751.00,0.0353
750.00,0.0359
749.00,0.0365
748.00,0.0371
747.00,0.0378
746.00,0.0385
745.00,0.0393
744.00,0.0401
743.00,0.0410
742.00,0.0421
741.00,0.0432
740.00,0.0445
739.00,0.0458
738.00,0.0468
737.00,0.0476
736.00,0.0478
735.00,0.0475
734.00,0.0469
733.00,0.0461
732.00,0.0450
731.00,0.0439
730.00,0.0428
729.00,0.0416
728.00,0.0404
727.00,0.0392
726.00,0.0380
725.00,0.0370
724.00,0.0360
723.00,0.0351
722.00,0.0343
721.00,0.0336
720.00,0.0330
719.00,0.0325
718.00,0.0322
717.00,0.0320
716.00,0.0318
715.00,0.0317
714.00,0.0315
713.00,0.0314
712.00,0.0312
711.00,0.0309
710.00,0.0306
709.00,0.0303
708.00,0.0301
707.00,0.0300
706.00,0.0299
705.00,0.0300
704.00,0.0301
703.00,0.0302
702.00,0.0303
701.00,0.0304
700.00,0.0305
699.00,0.0307
698.00,0.0312
697.00,0.0318
696.00,0.0326
695.00,0.0335
694.00,0.0343
693.00,0.0352
692.00,0.0359
691.00,0.0365
690.00,0.0369
689.00,0.0372
688.00,0.0373
687.00,0.0374
686.00,0.0374
685.00,0.0373
684.00,0.0373
683.00,0.0373
682.00,0.0374
681.00,0.0376
680.00,0.0377
679.00,0.0380
678.00,0.0383
677.00,0.0387
676.00,0.0392
675.00,0.0397
674.00,0.0404
673.00,0.0410
672.00,0.0417
671.00,0.0423
670.00,0.0431
669.00,0.0443
668.00,0.0460
667.00,0.0476
666.00,0.0486
665.00,0.0491
664.00,0.0498
663.00,0.0508
662.00,0.0520
661.00,0.0533
660.00,0.0547
659.00,0.0561
658.00,0.0574
657.00,0.0587
656.00,0.0599
655.00,0.0612
654.00,0.0624
653.00,0.0635
652.00,0.0645
651.00,0.0653
650.00,0.0659
649.00,0.0662
648.00,0.0663
647.00,0.0662
646.00,0.0658
645.00,0.0651
644.00,0.0641
643.00,0.0630
642.00,0.0619
641.00,0.0607
640.00,0.0595
639.00,0.0582
638.00,0.0569
637.00,0.0556
636.00,0.0545
635.00,0.0536
634.00,0.0527
633.00,0.0519
632.00,0.0512
631.00,0.0505
630.00,0.0500
629.00,0.0496
628.00,0.0491
627.00,0.0488
626.00,0.0485
625.00,0.0482
624.00,0.0480
623.00,0.0476
622.00,0.0473
621.00,0.0471
620.00,0.0468
619.00,0.0465
618.00,0.0462
617.00,0.0460
616.00,0.0458
615.00,0.0456
614.00,0.0455
613.00,0.0455
612.00,0.0455
611.00,0.0456
610.00,0.0458
609.00,0.0460
608.00,0.0463
607.00,0.0466
606.00,0.0468
605.00,0.0471
604.00,0.0473
603.00,0.0475
602.00,0.0479
601.00,0.0482
600.00,0.0485
599.00,0.0487
598.00,0.0488
597.00,0.0489
596.00,0.0489
595.00,0.0489
594.00,0.0490
593.00,0.0492
592.00,0.0496
591.00,0.0502
590.00,0.0512
589.00,0.0525
588.00,0.0541
587.00,0.0559
586.00,0.0581
585.00,0.0603
584.00,0.0623
583.00,0.0641
582.00,0.0655
581.00,0.0666
580.00,0.0673
579.00,0.0678
578.00,0.0681
577.00,0.0684
576.00,0.0687
575.00,0.0689
574.00,0.0689
573.00,0.0689
572.00,0.0687
571.00,0.0685
570.00,0.0683
569.00,0.0681
568.00,0.0679
567.00,0.0676
566.00,0.0670
565.00,0.0663
564.00,0.0654
563.00,0.0643
562.00,0.0632
561.00,0.0621
560.00,0.0611
559.00,0.0603
558.00,0.0597
557.00,0.0590
556.00,0.0582
555.00,0.0574
554.00,0.0566
553.00,0.0558
552.00,0.0552
551.00,0.0546
550.00,0.0541
549.00,0.0536
548.00,0.0530
547.00,0.0524
546.00,0.0519
545.00,0.0513
544.00,0.0508
543.00,0.0502
542.00,0.0498
541.00,0.0494
540.00,0.0492
539.00,0.0490
538.00,0.0491
537.00,0.0493
536.00,0.0498
535.00,0.0504
534.00,0.0513
533.00,0.0520
532.00,0.0525
531.00,0.0525
530.00,0.0522
529.00,0.0518
528.00,0.0512
527.00,0.0506
526.00,0.0500
525.00,0.0493
524.00,0.0486
523.00,0.0481
522.00,0.0478
521.00,0.0475
520.00,0.0472
519.00,0.0469
518.00,0.0466
517.00,0.0464
516.00,0.0461
515.00,0.0459
514.00,0.0457
513.00,0.0457
512.00,0.0458
511.00,0.0463
510.00,0.0469
509.00,0.0474
508.00,0.0476
507.00,0.0476
506.00,0.0474
505.00,0.0471
504.00,0.0467
503.00,0.0465
502.00,0.0463
501.00,0.0461
500.00,0.0458
499.00,0.0456
498.00,0.0456
497.00,0.0457
496.00,0.0458
495.00,0.0460
494.00,0.0462
493.00,0.0465
492.00,0.0468
491.00,0.0470
490.00,0.0473
489.00,0.0476
488.00,0.0478
487.00,0.0479
486.00,0.0480
485.00,0.0479
484.00,0.0477
483.00,0.0476
482.00,0.0475
481.00,0.0474
480.00,0.0473
479.00,0.0473
478.00,0.0475
477.00,0.0476
476.00,0.0477
475.00,0.0478
474.00,0.0478
473.00,0.0478
472.00,0.0478
471.00,0.0478
470.00,0.0480
469.00,0.0482
468.00,0.0483
467.00,0.0484
466.00,0.0485
465.00,0.0486
464.00,0.0483
463.00,0.0479
462.00,0.0475
461.00,0.0472
460.00,0.0470
459.00,0.0468
458.00,0.0467
457.00,0.0467
456.00,0.0465
455.00,0.0464
454.00,0.0465
453.00,0.0466
452.00,0.0466
451.00,0.0464
450.00,0.0460
449.00,0.0454
448.00,0.0449
447.00,0.0445
446.00,0.0444
445.00,0.0444
444.00,0.0444
443.00,0.0443
442.00,0.0444
441.00,0.0446
440.00,0.0446
439.00,0.0444
438.00,0.0440
437.00,0.0436
436.00,0.0431
435.00,0.0428
434.00,0.0427
433.00,0.0425
432.00,0.0420
431.00,0.0416
430.00,0.0417
429.00,0.0420
428.00,0.0423
427.00,0.0423
426.00,0.0423
425.00,0.0422
424.00,0.0419
423.00,0.0417
422.00,0.0415
421.00,0.0415
420.00,0.0418
419.00,0.0426
418.00,0.0436
417.00,0.0443
416.00,0.0446
415.00,0.0446
414.00,0.0445
413.00,0.0443
412.00,0.0439
411.00,0.0438
410.00,0.0438
409.00,0.0438
408.00,0.0437
407.00,0.0436
406.00,0.0436
405.00,0.0435
404.00,0.0429
403.00,0.0420
402.00,0.0411
401.00,0.0398
400.00,0.0382
