Created as New Dataset,Sample 1025 By YargerLab Date Friday, August 01 2025
cm-1,A
4000.00,0.0072
3999.00,0.0072
3998.00,0.0072
3997.00,0.0072
3996.00,0.0072
3995.00,0.0072
3994.00,0.0072
3993.00,0.0072
3992.00,0.0072
3991.00,0.0072
3990.00,0.0072
3989.00,0.0072
3988.00,0.0072
3987.00,0.0072
3986.00,0.0072
3985.00,0.0072
3984.00,0.0072
3983.00,0.0072
3982.00,0.0072
3981.00,0.0072
3980.00,0.0072
3979.00,0.0072
3978.00,0.0072
3977.00,0.0072
3976.00,0.0073
3975.00,0.0073
3974.00,0.0073
3973.00,0.0073
3972.00,0.0073
3971.00,0.0073
3970.00,0.0073
3969.00,0.0073
3968.00,0.0073
3967.00,0.0073
3966.00,0.0073
3965.00,0.0073
3964.00,0.0073
3963.00,0.0072
3962.00,0.0072
3961.00,0.0072
3960.00,0.0072
3959.00,0.0072
3958.00,0.0072
3957.00,0.0072
3956.00,0.0072
3955.00,0.0072
3954.00,0.0072
3953.00,0.0072
3952.00,0.0072
3951.00,0.0072
3950.00,0.0072
3949.00,0.0072
3948.00,0.0072
3947.00,0.0072
3946.00,0.0072
3945.00,0.0072
3944.00,0.0072
3943.00,0.0072
3942.00,0.0072
3941.00,0.0072
3940.00,0.0072
3939.00,0.0072
3938.00,0.0071
3937.00,0.0071
3936.00,0.0071
3935.00,0.0071
3934.00,0.0072
3933.00,0.0072
3932.00,0.0072
3931.00,0.0072
3930.00,0.0072
3929.00,0.0072
3928.00,0.0072
3927.00,0.0072
3926.00,0.0072
3925.00,0.0072
3924.00,0.0071
3923.00,0.0071
3922.00,0.0072
3921.00,0.0072
3920.00,0.0072
3919.00,0.0072
3918.00,0.0072
3917.00,0.0072
3916.00,0.0072
3915.00,0.0072
3914.00,0.0072
3913.00,0.0071
3912.00,0.0071
3911.00,0.0071
3910.00,0.0071
3909.00,0.0071
3908.00,0.0071
3907.00,0.0071
3906.00,0.0071
3905.00,0.0072
3904.00,0.0072
3903.00,0.0072
3902.00,0.0071
3901.00,0.0071
3900.00,0.0071
3899.00,0.0071
3898.00,0.0071
3897.00,0.0071
3896.00,0.0071
3895.00,0.0071
3894.00,0.0071
3893.00,0.0071
3892.00,0.0071
3891.00,0.0071
3890.00,0.0071
3889.00,0.0071
3888.00,0.0071
3887.00,0.0071
3886.00,0.0071
3885.00,0.0071
3884.00,0.0071
3883.00,0.0071
3882.00,0.0071
3881.00,0.0071
3880.00,0.0071
3879.00,0.0071
3878.00,0.0071
3877.00,0.0071
3876.00,0.0071
3875.00,0.0071
3874.00,0.0070
3873.00,0.0070
3872.00,0.0070
3871.00,0.0070
3870.00,0.0070
3869.00,0.0070
3868.00,0.0071
3867.00,0.0071
3866.00,0.0071
3865.00,0.0071
3864.00,0.0071
3863.00,0.0071
3862.00,0.0071
3861.00,0.0071
3860.00,0.0070
3859.00,0.0070
3858.00,0.0070
3857.00,0.0070
3856.00,0.0070
3855.00,0.0070
3854.00,0.0070
3853.00,0.0070
3852.00,0.0070
3851.00,0.0070
3850.00,0.0070
3849.00,0.0070
3848.00,0.0070
3847.00,0.0071
3846.00,0.0071
3845.00,0.0071
3844.00,0.0071
3843.00,0.0071
3842.00,0.0071
3841.00,0.0071
3840.00,0.0070
3839.00,0.0070
3838.00,0.0070
3837.00,0.0070
3836.00,0.0070
3835.00,0.0070
3834.00,0.0070
3833.00,0.0070
3832.00,0.0070
3831.00,0.0070
3830.00,0.0070
3829.00,0.0070
3828.00,0.0070
3827.00,0.0070
3826.00,0.0070
3825.00,0.0070
3824.00,0.0070
3823.00,0.0070
3822.00,0.0070
3821.00,0.0070
3820.00,0.0069
3819.00,0.0069
3818.00,0.0069
3817.00,0.0069
3816.00,0.0069
3815.00,0.0070
3814.00,0.0070
3813.00,0.0070
3812.00,0.0070
3811.00,0.0070
3810.00,0.0070
3809.00,0.0070
3808.00,0.0070
3807.00,0.0070
3806.00,0.0070
3805.00,0.0070
3804.00,0.0070
3803.00,0.0069
3802.00,0.0069
3801.00,0.0069
3800.00,0.0069
3799.00,0.0069
3798.00,0.0069
3797.00,0.0069
3796.00,0.0069
3795.00,0.0070
3794.00,0.0070
3793.00,0.0070
3792.00,0.0070
3791.00,0.0070
3790.00,0.0070
3789.00,0.0070
3788.00,0.0070
3787.00,0.0070
3786.00,0.0070
3785.00,0.0070
3784.00,0.0070
3783.00,0.0070
3782.00,0.0070
3781.00,0.0070
3780.00,0.0070
3779.00,0.0070
3778.00,0.0070
3777.00,0.0070
3776.00,0.0070
3775.00,0.0070
3774.00,0.0070
3773.00,0.0070
3772.00,0.0070
3771.00,0.0070
3770.00,0.0070
3769.00,0.0069
3768.00,0.0069
3767.00,0.0069
3766.00,0.0069
3765.00,0.0069
3764.00,0.0070
3763.00,0.0070
3762.00,0.0070
3761.00,0.0070
3760.00,0.0070
3759.00,0.0070
3758.00,0.0069
3757.00,0.0069
3756.00,0.0069
3755.00,0.0069
3754.00,0.0069
3753.00,0.0070
3752.00,0.0070
3751.00,0.0070
3750.00,0.0069
3749.00,0.0069
3748.00,0.0069
3747.00,0.0069
3746.00,0.0069
3745.00,0.0069
3744.00,0.0069
3743.00,0.0069
3742.00,0.0069
3741.00,0.0069
3740.00,0.0069
3739.00,0.0069
3738.00,0.0069
3737.00,0.0069
3736.00,0.0068
3735.00,0.0068
3734.00,0.0068
3733.00,0.0068
3732.00,0.0068
3731.00,0.0068
3730.00,0.0068
3729.00,0.0068
3728.00,0.0069
3727.00,0.0069
3726.00,0.0069
3725.00,0.0069
3724.00,0.0068
3723.00,0.0068
3722.00,0.0068
3721.00,0.0068
3720.00,0.0068
3719.00,0.0069
3718.00,0.0069
3717.00,0.0069
3716.00,0.0069
3715.00,0.0069
3714.00,0.0069
3713.00,0.0069
3712.00,0.0069
3711.00,0.0068
3710.00,0.0068
3709.00,0.0068
3708.00,0.0068
3707.00,0.0068
3706.00,0.0068
3705.00,0.0068
3704.00,0.0068
3703.00,0.0068
3702.00,0.0068
3701.00,0.0068
3700.00,0.0067
3699.00,0.0067
3698.00,0.0067
3697.00,0.0068
3696.00,0.0068
3695.00,0.0068
3694.00,0.0068
3693.00,0.0068
3692.00,0.0068
3691.00,0.0068
3690.00,0.0068
3689.00,0.0068
3688.00,0.0069
3687.00,0.0069
3686.00,0.0069
3685.00,0.0069
3684.00,0.0069
3683.00,0.0069
3682.00,0.0070
3681.00,0.0070
3680.00,0.0070
3679.00,0.0070
3678.00,0.0070
3677.00,0.0069
3676.00,0.0069
3675.00,0.0069
3674.00,0.0070
3673.00,0.0070
3672.00,0.0070
3671.00,0.0070
3670.00,0.0070
3669.00,0.0070
3668.00,0.0071
3667.00,0.0071
3666.00,0.0071
3665.00,0.0071
3664.00,0.0071
3663.00,0.0071
3662.00,0.0072
3661.00,0.0072
3660.00,0.0072
3659.00,0.0072
3658.00,0.0072
3657.00,0.0072
3656.00,0.0072
3655.00,0.0072
3654.00,0.0072
3653.00,0.0072
3652.00,0.0072
3651.00,0.0072
3650.00,0.0073
3649.00,0.0073
3648.00,0.0073
3647.00,0.0073
3646.00,0.0074
3645.00,0.0074
3644.00,0.0074
3643.00,0.0074
3642.00,0.0075
3641.00,0.0075
3640.00,0.0076
3639.00,0.0076
3638.00,0.0076
3637.00,0.0076
3636.00,0.0076
3635.00,0.0077
3634.00,0.0077
3633.00,0.0077
3632.00,0.0078
3631.00,0.0078
3630.00,0.0078
3629.00,0.0078
3628.00,0.0078
3627.00,0.0079
3626.00,0.0080
3625.00,0.0080
3624.00,0.0080
3623.00,0.0080
3622.00,0.0080
3621.00,0.0080
3620.00,0.0081
3619.00,0.0081
3618.00,0.0082
3617.00,0.0083
3616.00,0.0083
3615.00,0.0083
3614.00,0.0084
3613.00,0.0085
3612.00,0.0085
3611.00,0.0086
3610.00,0.0086
3609.00,0.0086
3608.00,0.0086
3607.00,0.0087
3606.00,0.0087
3605.00,0.0087
3604.00,0.0087
3603.00,0.0088
3602.00,0.0088
3601.00,0.0088
3600.00,0.0089
3599.00,0.0089
3598.00,0.0090
3597.00,0.0090
3596.00,0.0091
3595.00,0.0091
3594.00,0.0092
3593.00,0.0092
3592.00,0.0092
3591.00,0.0092
3590.00,0.0092
3589.00,0.0093
3588.00,0.0094
3587.00,0.0095
3586.00,0.0096
3585.00,0.0097
3584.00,0.0097
3583.00,0.0098
3582.00,0.0098
3581.00,0.0099
3580.00,0.0099
3579.00,0.0099
3578.00,0.0100
3577.00,0.0101
3576.00,0.0101
3575.00,0.0102
3574.00,0.0103
3573.00,0.0104
3572.00,0.0104
3571.00,0.0105
3570.00,0.0105
3569.00,0.0106
3568.00,0.0106
3567.00,0.0107
3566.00,0.0108
3565.00,0.0109
3564.00,0.0109
3563.00,0.0110
3562.00,0.0111
3561.00,0.0112
3560.00,0.0113
3559.00,0.0113
3558.00,0.0114
3557.00,0.0115
3556.00,0.0115
3555.00,0.0116
3554.00,0.0116
3553.00,0.0117
3552.00,0.0118
3551.00,0.0119
3550.00,0.0119
3549.00,0.0120
3548.00,0.0121
3547.00,0.0122
3546.00,0.0122
3545.00,0.0123
3544.00,0.0124
3543.00,0.0125
3542.00,0.0126
3541.00,0.0127
3540.00,0.0127
3539.00,0.0128
3538.00,0.0129
3537.00,0.0129
3536.00,0.0130
3535.00,0.0130
3534.00,0.0131
3533.00,0.0131
3532.00,0.0132
3531.00,0.0133
3530.00,0.0133
3529.00,0.0134
3528.00,0.0135
3527.00,0.0136
3526.00,0.0137
3525.00,0.0138
3524.00,0.0139
3523.00,0.0140
3522.00,0.0141
3521.00,0.0141
3520.00,0.0142
3519.00,0.0143
3518.00,0.0143
3517.00,0.0144
3516.00,0.0145
3515.00,0.0146
3514.00,0.0146
3513.00,0.0147
3512.00,0.0148
3511.00,0.0148
3510.00,0.0149
3509.00,0.0150
3508.00,0.0151
3507.00,0.0152
3506.00,0.0152
3505.00,0.0153
3504.00,0.0154
3503.00,0.0154
3502.00,0.0155
3501.00,0.0156
3500.00,0.0157
3499.00,0.0157
3498.00,0.0158
3497.00,0.0159
3496.00,0.0160
3495.00,0.0160
3494.00,0.0161
3493.00,0.0162
3492.00,0.0163
3491.00,0.0164
3490.00,0.0165
3489.00,0.0166
3488.00,0.0167
3487.00,0.0169
3486.00,0.0170
3485.00,0.0171
3484.00,0.0172
3483.00,0.0173
3482.00,0.0174
3481.00,0.0176
3480.00,0.0177
3479.00,0.0179
3478.00,0.0180
3477.00,0.0181
3476.00,0.0182
3475.00,0.0183
3474.00,0.0185
3473.00,0.0186
3472.00,0.0188
3471.00,0.0190
3470.00,0.0191
3469.00,0.0193
3468.00,0.0194
3467.00,0.0196
3466.00,0.0197
3465.00,0.0199
3464.00,0.0200
3463.00,0.0202
3462.00,0.0203
3461.00,0.0205
3460.00,0.0207
3459.00,0.0208
3458.00,0.0210
3457.00,0.0211
3456.00,0.0213
3455.00,0.0214
3454.00,0.0216
3453.00,0.0217
3452.00,0.0219
3451.00,0.0221
3450.00,0.0223
3449.00,0.0225
3448.00,0.0226
3447.00,0.0228
3446.00,0.0230
3445.00,0.0232
3444.00,0.0234
3443.00,0.0236
3442.00,0.0238
3441.00,0.0240
3440.00,0.0242
3439.00,0.0244
3438.00,0.0246
3437.00,0.0249
3436.00,0.0251
3435.00,0.0254
3434.00,0.0256
3433.00,0.0259
3432.00,0.0261
3431.00,0.0264
3430.00,0.0266
3429.00,0.0269
3428.00,0.0272
3427.00,0.0274
3426.00,0.0277
3425.00,0.0280
3424.00,0.0283
3423.00,0.0286
3422.00,0.0288
3421.00,0.0291
3420.00,0.0294
3419.00,0.0297
3418.00,0.0300
3417.00,0.0303
3416.00,0.0305
3415.00,0.0308
3414.00,0.0311
3413.00,0.0313
3412.00,0.0316
3411.00,0.0318
3410.00,0.0320
3409.00,0.0322
3408.00,0.0323
3407.00,0.0325
3406.00,0.0326
3405.00,0.0328
3404.00,0.0329
3403.00,0.0330
3402.00,0.0330
3401.00,0.0331
3400.00,0.0331
3399.00,0.0330
3398.00,0.0330
3397.00,0.0330
3396.00,0.0329
3395.00,0.0329
3394.00,0.0328
3393.00,0.0327
3392.00,0.0326
3391.00,0.0324
3390.00,0.0323
3389.00,0.0321
3388.00,0.0320
3387.00,0.0318
3386.00,0.0316
3385.00,0.0315
3384.00,0.0313
3383.00,0.0311
3382.00,0.0309
3381.00,0.0308
3380.00,0.0306
3379.00,0.0304
3378.00,0.0302
3377.00,0.0300
3376.00,0.0298
3375.00,0.0296
3374.00,0.0294
3373.00,0.0293
3372.00,0.0291
3371.00,0.0289
3370.00,0.0288
3369.00,0.0286
3368.00,0.0285
3367.00,0.0283
3366.00,0.0281
3365.00,0.0280
3364.00,0.0278
3363.00,0.0277
3362.00,0.0275
3361.00,0.0274
3360.00,0.0273
3359.00,0.0272
3358.00,0.0271
3357.00,0.0269
3356.00,0.0268
3355.00,0.0267
3354.00,0.0266
3353.00,0.0264
3352.00,0.0263
3351.00,0.0263
3350.00,0.0262
3349.00,0.0262
3348.00,0.0261
3347.00,0.0261
3346.00,0.0260
3345.00,0.0259
3344.00,0.0259
3343.00,0.0258
3342.00,0.0258
3341.00,0.0257
3340.00,0.0256
3339.00,0.0256
3338.00,0.0255
3337.00,0.0255
3336.00,0.0255
3335.00,0.0255
3334.00,0.0254
3333.00,0.0254
3332.00,0.0254
3331.00,0.0254
3330.00,0.0254
3329.00,0.0254
3328.00,0.0254
3327.00,0.0254
3326.00,0.0254
3325.00,0.0254
3324.00,0.0255
3323.00,0.0255
3322.00,0.0255
3321.00,0.0255
3320.00,0.0256
3319.00,0.0256
3318.00,0.0257
3317.00,0.0257
3316.00,0.0258
3315.00,0.0258
3314.00,0.0258
3313.00,0.0259
3312.00,0.0259
3311.00,0.0260
3310.00,0.0260
3309.00,0.0261
3308.00,0.0261
3307.00,0.0262
3306.00,0.0263
3305.00,0.0264
3304.00,0.0265
3303.00,0.0266
3302.00,0.0267
3301.00,0.0268
3300.00,0.0269
3299.00,0.0269
3298.00,0.0270
3297.00,0.0271
3296.00,0.0272
3295.00,0.0273
3294.00,0.0274
3293.00,0.0275
3292.00,0.0275
3291.00,0.0276
3290.00,0.0277
3289.00,0.0278
3288.00,0.0280
3287.00,0.0281
3286.00,0.0282
3285.00,0.0283
3284.00,0.0284
3283.00,0.0285
3282.00,0.0286
3281.00,0.0287
3280.00,0.0287
3279.00,0.0288
3278.00,0.0289
3277.00,0.0290
3276.00,0.0291
3275.00,0.0292
3274.00,0.0293
3273.00,0.0294
3272.00,0.0295
3271.00,0.0296
3270.00,0.0297
3269.00,0.0298
3268.00,0.0299
3267.00,0.0300
3266.00,0.0301
3265.00,0.0302
3264.00,0.0302
3263.00,0.0303
3262.00,0.0304
3261.00,0.0305
3260.00,0.0306
3259.00,0.0307
3258.00,0.0307
3257.00,0.0308
3256.00,0.0309
3255.00,0.0309
3254.00,0.0310
3253.00,0.0311
3252.00,0.0312
3251.00,0.0312
3250.00,0.0313
3249.00,0.0313
3248.00,0.0314
3247.00,0.0314
3246.00,0.0315
3245.00,0.0316
3244.00,0.0317
3243.00,0.0317
3242.00,0.0318
3241.00,0.0318
3240.00,0.0318
3239.00,0.0318
3238.00,0.0318
3237.00,0.0318
3236.00,0.0317
3235.00,0.0317
3234.00,0.0317
3233.00,0.0317
3232.00,0.0317
3231.00,0.0316
3230.00,0.0316
3229.00,0.0316
3228.00,0.0315
3227.00,0.0315
3226.00,0.0314
3225.00,0.0314
3224.00,0.0313
3223.00,0.0312
3222.00,0.0312
3221.00,0.0311
3220.00,0.0310
3219.00,0.0309
3218.00,0.0308
3217.00,0.0307
3216.00,0.0306
3215.00,0.0305
3214.00,0.0303
3213.00,0.0302
3212.00,0.0300
3211.00,0.0299
3210.00,0.0297
3209.00,0.0296
3208.00,0.0294
3207.00,0.0293
3206.00,0.0292
3205.00,0.0290
3204.00,0.0288
3203.00,0.0286
3202.00,0.0284
3201.00,0.0282
3200.00,0.0281
3199.00,0.0279
3198.00,0.0277
3197.00,0.0276
3196.00,0.0274
3195.00,0.0272
3194.00,0.0270
3193.00,0.0268
3192.00,0.0266
3191.00,0.0264
3190.00,0.0262
3189.00,0.0260
3188.00,0.0258
3187.00,0.0257
3186.00,0.0255
3185.00,0.0254
3184.00,0.0252
3183.00,0.0250
3182.00,0.0248
3181.00,0.0246
3180.00,0.0244
3179.00,0.0242
3178.00,0.0240
3177.00,0.0238
3176.00,0.0236
3175.00,0.0234
3174.00,0.0232
3173.00,0.0231
3172.00,0.0229
3171.00,0.0227
3170.00,0.0225
3169.00,0.0223
3168.00,0.0221
3167.00,0.0219
3166.00,0.0217
3165.00,0.0215
3164.00,0.0214
3163.00,0.0212
3162.00,0.0210
3161.00,0.0209
3160.00,0.0207
3159.00,0.0205
3158.00,0.0203
3157.00,0.0201
3156.00,0.0199
3155.00,0.0197
3154.00,0.0196
3153.00,0.0194
3152.00,0.0192
3151.00,0.0190
3150.00,0.0189
3149.00,0.0188
3148.00,0.0187
3147.00,0.0185
3146.00,0.0184
3145.00,0.0183
3144.00,0.0181
3143.00,0.0180
3142.00,0.0178
3141.00,0.0177
3140.00,0.0175
3139.00,0.0174
3138.00,0.0173
3137.00,0.0172
3136.00,0.0171
3135.00,0.0169
3134.00,0.0168
3133.00,0.0167
3132.00,0.0166
3131.00,0.0165
3130.00,0.0164
3129.00,0.0162
3128.00,0.0161
3127.00,0.0160
3126.00,0.0159
3125.00,0.0159
3124.00,0.0158
3123.00,0.0157
3122.00,0.0156
3121.00,0.0156
3120.00,0.0155
3119.00,0.0154
3118.00,0.0153
3117.00,0.0152
3116.00,0.0151
3115.00,0.0150
3114.00,0.0149
3113.00,0.0147
3112.00,0.0146
3111.00,0.0145
3110.00,0.0144
3109.00,0.0143
3108.00,0.0142
3107.00,0.0141
3106.00,0.0140
3105.00,0.0139
3104.00,0.0138
3103.00,0.0137
3102.00,0.0137
3101.00,0.0136
3100.00,0.0136
3099.00,0.0135
3098.00,0.0134
3097.00,0.0134
3096.00,0.0134
3095.00,0.0133
3094.00,0.0133
3093.00,0.0133
3092.00,0.0134
3091.00,0.0134
3090.00,0.0135
3089.00,0.0135
3088.00,0.0135
3087.00,0.0135
3086.00,0.0135
3085.00,0.0135
3084.00,0.0135
3083.00,0.0135
3082.00,0.0134
3081.00,0.0134
3080.00,0.0134
3079.00,0.0134
3078.00,0.0133
3077.00,0.0133
3076.00,0.0132
3075.00,0.0132
3074.00,0.0131
3073.00,0.0130
3072.00,0.0130
3071.00,0.0130
3070.00,0.0129
3069.00,0.0129
3068.00,0.0128
3067.00,0.0128
3066.00,0.0128
3065.00,0.0128
3064.00,0.0128
3063.00,0.0128
3062.00,0.0128
3061.00,0.0128
3060.00,0.0129
3059.00,0.0129
3058.00,0.0129
3057.00,0.0130
3056.00,0.0130
3055.00,0.0130
3054.00,0.0130
3053.00,0.0130
3052.00,0.0129
3051.00,0.0129
3050.00,0.0129
3049.00,0.0128
3048.00,0.0128
3047.00,0.0128
3046.00,0.0127
3045.00,0.0127
3044.00,0.0127
3043.00,0.0127
3042.00,0.0128
3041.00,0.0128
3040.00,0.0129
3039.00,0.0130
3038.00,0.0131
3037.00,0.0132
3036.00,0.0133
3035.00,0.0134
3034.00,0.0135
3033.00,0.0136
3032.00,0.0136
3031.00,0.0136
3030.00,0.0135
3029.00,0.0134
3028.00,0.0133
3027.00,0.0131
3026.00,0.0130
3025.00,0.0129
3024.00,0.0127
3023.00,0.0126
3022.00,0.0125
3021.00,0.0124
3020.00,0.0123
3019.00,0.0122
3018.00,0.0122
3017.00,0.0121
3016.00,0.0121
3015.00,0.0121
3014.00,0.0121
3013.00,0.0121
3012.00,0.0122
3011.00,0.0122
3010.00,0.0123
3009.00,0.0125
3008.00,0.0126
3007.00,0.0128
3006.00,0.0130
3005.00,0.0133
3004.00,0.0135
3003.00,0.0138
3002.00,0.0141
3001.00,0.0145
3000.00,0.0148
2999.00,0.0153
2998.00,0.0158
2997.00,0.0163
2996.00,0.0169
2995.00,0.0175
2994.00,0.0181
2993.00,0.0186
2992.00,0.0190
2991.00,0.0194
2990.00,0.0198
2989.00,0.0201
2988.00,0.0204
2987.00,0.0208
2986.00,0.0213
2985.00,0.0219
2984.00,0.0227
2983.00,0.0236
2982.00,0.0246
2981.00,0.0257
2980.00,0.0266
2979.00,0.0274
2978.00,0.0278
2977.00,0.0281
2976.00,0.0283
2975.00,0.0287
2974.00,0.0295
2973.00,0.0306
2972.00,0.0319
2971.00,0.0332
2970.00,0.0342
2969.00,0.0350
2968.00,0.0355
2967.00,0.0360
2966.00,0.0364
2965.00,0.0370
2964.00,0.0377
2963.00,0.0384
2962.00,0.0391
2961.00,0.0397
2960.00,0.0401
2959.00,0.0401
2958.00,0.0397
2957.00,0.0389
2956.00,0.0379
2955.00,0.0368
2954.00,0.0356
2953.00,0.0345
2952.00,0.0335
2951.00,0.0327
2950.00,0.0321
2949.00,0.0317
2948.00,0.0315
2947.00,0.0315
2946.00,0.0318
2945.00,0.0323
2944.00,0.0329
2943.00,0.0336
2942.00,0.0345
2941.00,0.0355
2940.00,0.0366
2939.00,0.0379
2938.00,0.0394
2937.00,0.0412
2936.00,0.0433
2935.00,0.0455
2934.00,0.0479
2933.00,0.0504
2932.00,0.0529
2931.00,0.0552
2930.00,0.0573
2929.00,0.0591
2928.00,0.0603
2927.00,0.0609
2926.00,0.0609
2925.00,0.0604
2924.00,0.0594
2923.00,0.0580
2922.00,0.0565
2921.00,0.0548
2920.00,0.0531
2919.00,0.0513
2918.00,0.0495
2917.00,0.0478
2916.00,0.0460
2915.00,0.0444
2914.00,0.0428
2913.00,0.0414
2912.00,0.0401
2911.00,0.0389
2910.00,0.0378
2909.00,0.0368
2908.00,0.0359
2907.00,0.0351
2906.00,0.0342
2905.00,0.0334
2904.00,0.0327
2903.00,0.0320
2902.00,0.0314
2901.00,0.0308
2900.00,0.0302
2899.00,0.0296
2898.00,0.0291
2897.00,0.0286
2896.00,0.0281
2895.00,0.0276
2894.00,0.0272
2893.00,0.0269
2892.00,0.0265
2891.00,0.0262
2890.00,0.0259
2889.00,0.0256
2888.00,0.0253
2887.00,0.0251
2886.00,0.0248
2885.00,0.0246
2884.00,0.0245
2883.00,0.0244
2882.00,0.0245
2881.00,0.0247
2880.00,0.0250
2879.00,0.0254
2878.00,0.0261
2877.00,0.0268
2876.00,0.0277
2875.00,0.0285
2874.00,0.0292
2873.00,0.0297
2872.00,0.0300
2871.00,0.0300
2870.00,0.0299
2869.00,0.0297
2868.00,0.0296
2867.00,0.0295
2866.00,0.0297
2865.00,0.0302
2864.00,0.0310
2863.00,0.0322
2862.00,0.0337
2861.00,0.0354
2860.00,0.0373
2859.00,0.0391
2858.00,0.0406
2857.00,0.0417
2856.00,0.0424
2855.00,0.0426
2854.00,0.0424
2853.00,0.0418
2852.00,0.0409
2851.00,0.0397
2850.00,0.0380
2849.00,0.0361
2848.00,0.0339
2847.00,0.0318
2846.00,0.0298
2845.00,0.0279
2844.00,0.0262
2843.00,0.0247
2842.00,0.0234
2841.00,0.0222
2840.00,0.0212
2839.00,0.0203
2838.00,0.0196
2837.00,0.0190
2836.00,0.0184
2835.00,0.0180
2834.00,0.0175
2833.00,0.0171
2832.00,0.0168
2831.00,0.0164
2830.00,0.0161
2829.00,0.0158
2828.00,0.0155
2827.00,0.0153
2826.00,0.0150
2825.00,0.0148
2824.00,0.0146
2823.00,0.0144
2822.00,0.0142
2821.00,0.0140
2820.00,0.0138
2819.00,0.0136
2818.00,0.0135
2817.00,0.0133
2816.00,0.0132
2815.00,0.0131
2814.00,0.0130
2813.00,0.0129
2812.00,0.0128
2811.00,0.0127
2810.00,0.0126
2809.00,0.0125
2808.00,0.0125
2807.00,0.0124
2806.00,0.0123
2805.00,0.0123
2804.00,0.0122
2803.00,0.0121
2802.00,0.0121
2801.00,0.0120
2800.00,0.0119
2799.00,0.0119
2798.00,0.0118
2797.00,0.0117
2796.00,0.0117
2795.00,0.0116
2794.00,0.0115
2793.00,0.0115
2792.00,0.0114
2791.00,0.0113
2790.00,0.0113
2789.00,0.0112
2788.00,0.0112
2787.00,0.0111
2786.00,0.0111
2785.00,0.0110
2784.00,0.0110
2783.00,0.0110
2782.00,0.0109
2781.00,0.0108
2780.00,0.0108
2779.00,0.0108
2778.00,0.0107
2777.00,0.0107
2776.00,0.0106
2775.00,0.0106
2774.00,0.0106
2773.00,0.0106
2772.00,0.0105
2771.00,0.0105
2770.00,0.0105
2769.00,0.0105
2768.00,0.0105
2767.00,0.0105
2766.00,0.0105
2765.00,0.0104
2764.00,0.0104
2763.00,0.0104
2762.00,0.0104
2761.00,0.0104
2760.00,0.0104
2759.00,0.0104
2758.00,0.0104
2757.00,0.0104
2756.00,0.0104
2755.00,0.0104
2754.00,0.0105
2753.00,0.0105
2752.00,0.0105
2751.00,0.0105
2750.00,0.0105
2749.00,0.0105
2748.00,0.0105
2747.00,0.0105
2746.00,0.0105
2745.00,0.0106
2744.00,0.0106
2743.00,0.0106
2742.00,0.0106
2741.00,0.0107
2740.00,0.0107
2739.00,0.0108
2738.00,0.0108
2737.00,0.0109
2736.00,0.0109
2735.00,0.0110
2734.00,0.0110
2733.00,0.0111
2732.00,0.0112
2731.00,0.0112
2730.00,0.0112
2729.00,0.0112
2728.00,0.0112
2727.00,0.0111
2726.00,0.0111
2725.00,0.0110
2724.00,0.0110
2723.00,0.0109
2722.00,0.0109
2721.00,0.0109
2720.00,0.0108
2719.00,0.0108
2718.00,0.0108
2717.00,0.0107
2716.00,0.0107
2715.00,0.0107
2714.00,0.0106
2713.00,0.0106
2712.00,0.0106
2711.00,0.0106
2710.00,0.0106
2709.00,0.0106
2708.00,0.0106
2707.00,0.0106
2706.00,0.0106
2705.00,0.0105
2704.00,0.0105
2703.00,0.0105
2702.00,0.0104
2701.00,0.0104
2700.00,0.0104
2699.00,0.0104
2698.00,0.0104
2697.00,0.0103
2696.00,0.0103
2695.00,0.0102
2694.00,0.0102
2693.00,0.0102
2692.00,0.0102
2691.00,0.0102
2690.00,0.0102
2689.00,0.0101
2688.00,0.0101
2687.00,0.0101
2686.00,0.0100
2685.00,0.0100
2684.00,0.0100
2683.00,0.0100
2682.00,0.0100
2681.00,0.0100
2680.00,0.0099
2679.00,0.0099
2678.00,0.0100
2677.00,0.0100
2676.00,0.0100
2675.00,0.0100
2674.00,0.0100
2673.00,0.0100
2672.00,0.0100
2671.00,0.0100
2670.00,0.0101
2669.00,0.0101
2668.00,0.0101
2667.00,0.0102
2666.00,0.0102
2665.00,0.0103
2664.00,0.0103
2663.00,0.0104
2662.00,0.0104
2661.00,0.0105
2660.00,0.0105
2659.00,0.0106
2658.00,0.0106
2657.00,0.0106
2656.00,0.0106
2655.00,0.0105
2654.00,0.0105
2653.00,0.0106
2652.00,0.0106
2651.00,0.0106
2650.00,0.0106
2649.00,0.0106
2648.00,0.0106
2647.00,0.0106
2646.00,0.0106
2645.00,0.0106
2644.00,0.0105
2643.00,0.0105
2642.00,0.0105
2641.00,0.0104
2640.00,0.0104
2639.00,0.0104
2638.00,0.0104
2637.00,0.0103
2636.00,0.0103
2635.00,0.0103
2634.00,0.0102
2633.00,0.0102
2632.00,0.0101
2631.00,0.0101
2630.00,0.0100
2629.00,0.0100
2628.00,0.0100
2627.00,0.0099
2626.00,0.0099
2625.00,0.0099
2624.00,0.0098
2623.00,0.0098
2622.00,0.0097
2621.00,0.0097
2620.00,0.0097
2619.00,0.0097
2618.00,0.0097
2617.00,0.0097
2616.00,0.0097
2615.00,0.0097
2614.00,0.0097
2613.00,0.0097
2612.00,0.0097
2611.00,0.0097
2610.00,0.0097
2609.00,0.0097
2608.00,0.0097
2607.00,0.0097
2606.00,0.0097
2605.00,0.0097
2604.00,0.0097
2603.00,0.0098
2602.00,0.0098
2601.00,0.0098
2600.00,0.0098
2599.00,0.0098
2598.00,0.0098
2597.00,0.0098
2596.00,0.0098
2595.00,0.0098
2594.00,0.0098
2593.00,0.0098
2592.00,0.0098
2591.00,0.0098
2590.00,0.0098
2589.00,0.0099
2588.00,0.0099
2587.00,0.0099
2586.00,0.0099
2585.00,0.0099
2584.00,0.0099
2583.00,0.0099
2582.00,0.0098
2581.00,0.0098
2580.00,0.0098
2579.00,0.0097
2578.00,0.0097
2577.00,0.0097
2576.00,0.0097
2575.00,0.0097
2574.00,0.0097
2573.00,0.0096
2572.00,0.0096
2571.00,0.0096
2570.00,0.0096
2569.00,0.0096
2568.00,0.0096
2567.00,0.0097
2566.00,0.0097
2565.00,0.0097
2564.00,0.0097
2563.00,0.0096
2562.00,0.0096
2561.00,0.0095
2560.00,0.0095
2559.00,0.0094
2558.00,0.0094
2557.00,0.0094
2556.00,0.0094
2555.00,0.0093
2554.00,0.0093
2553.00,0.0093
2552.00,0.0093
2551.00,0.0093
2550.00,0.0093
2549.00,0.0092
2548.00,0.0092
2547.00,0.0092
2546.00,0.0092
2545.00,0.0092
2544.00,0.0092
2543.00,0.0092
2542.00,0.0093
2541.00,0.0093
2540.00,0.0093
2539.00,0.0093
2538.00,0.0093
2537.00,0.0093
2536.00,0.0093
2535.00,0.0092
2534.00,0.0092
2533.00,0.0092
2532.00,0.0092
2531.00,0.0092
2530.00,0.0092
2529.00,0.0092
2528.00,0.0092
2527.00,0.0092
2526.00,0.0091
2525.00,0.0091
2524.00,0.0091
2523.00,0.0091
2522.00,0.0090
2521.00,0.0090
2520.00,0.0090
2519.00,0.0090
2518.00,0.0089
2517.00,0.0089
2516.00,0.0089
2515.00,0.0088
2514.00,0.0088
2513.00,0.0088
2512.00,0.0088
2511.00,0.0088
2510.00,0.0088
2509.00,0.0087
2508.00,0.0087
2507.00,0.0087
2506.00,0.0087
2505.00,0.0087
2504.00,0.0088
2503.00,0.0087
2502.00,0.0087
2501.00,0.0086
2500.00,0.0086
2499.00,0.0086
2498.00,0.0086
2497.00,0.0086
2496.00,0.0086
2495.00,0.0086
2494.00,0.0086
2493.00,0.0085
2492.00,0.0085
2491.00,0.0085
2490.00,0.0084
2489.00,0.0084
2488.00,0.0085
2487.00,0.0085
2486.00,0.0085
2485.00,0.0085
2484.00,0.0085
2483.00,0.0085
2482.00,0.0085
2481.00,0.0085
2480.00,0.0084
2479.00,0.0084
2478.00,0.0084
2477.00,0.0085
2476.00,0.0084
2475.00,0.0084
2474.00,0.0084
2473.00,0.0084
2472.00,0.0083
2471.00,0.0083
2470.00,0.0083
2469.00,0.0082
2468.00,0.0082
2467.00,0.0082
2466.00,0.0083
2465.00,0.0083
2464.00,0.0083
2463.00,0.0083
2462.00,0.0083
2461.00,0.0083
2460.00,0.0083
2459.00,0.0083
2458.00,0.0083
2457.00,0.0084
2456.00,0.0084
2455.00,0.0084
2454.00,0.0085
2453.00,0.0085
2452.00,0.0085
2451.00,0.0085
2450.00,0.0084
2449.00,0.0084
2448.00,0.0084
2447.00,0.0084
2446.00,0.0084
2445.00,0.0083
2444.00,0.0083
2443.00,0.0083
2442.00,0.0082
2441.00,0.0082
2440.00,0.0082
2439.00,0.0081
2438.00,0.0081
2437.00,0.0081
2436.00,0.0081
2435.00,0.0081
2434.00,0.0081
2433.00,0.0081
2432.00,0.0081
2431.00,0.0081
2430.00,0.0080
2429.00,0.0080
2428.00,0.0080
2427.00,0.0080
2426.00,0.0080
2425.00,0.0080
2424.00,0.0080
2423.00,0.0080
2422.00,0.0080
2421.00,0.0080
2420.00,0.0080
2419.00,0.0080
2418.00,0.0080
2417.00,0.0080
2416.00,0.0080
2415.00,0.0080
2414.00,0.0080
2413.00,0.0080
2412.00,0.0080
2411.00,0.0081
2410.00,0.0081
2409.00,0.0081
2408.00,0.0080
2407.00,0.0080
2406.00,0.0080
2405.00,0.0080
2404.00,0.0080
2403.00,0.0080
2402.00,0.0080
2401.00,0.0080
2400.00,0.0080
2399.00,0.0080
2398.00,0.0080
2397.00,0.0080
2396.00,0.0079
2395.00,0.0079
2394.00,0.0079
2393.00,0.0079
2392.00,0.0079
2391.00,0.0079
2390.00,0.0079
2389.00,0.0078
2388.00,0.0078
2387.00,0.0078
2386.00,0.0077
2385.00,0.0077
2384.00,0.0076
2383.00,0.0076
2382.00,0.0075
2381.00,0.0075
2380.00,0.0074
2379.00,0.0074
2378.00,0.0073
2377.00,0.0073
2376.00,0.0073
2375.00,0.0074
2374.00,0.0074
2373.00,0.0074
2372.00,0.0074
2371.00,0.0074
2370.00,0.0074
2369.00,0.0074
2368.00,0.0074
2367.00,0.0074
2366.00,0.0074
2365.00,0.0074
2364.00,0.0074
2363.00,0.0074
2362.00,0.0074
2361.00,0.0074
2360.00,0.0074
2359.00,0.0074
2358.00,0.0074
2357.00,0.0075
2356.00,0.0076
2355.00,0.0076
2354.00,0.0077
2353.00,0.0076
2352.00,0.0076
2351.00,0.0075
2350.00,0.0075
2349.00,0.0075
2348.00,0.0076
2347.00,0.0076
2346.00,0.0076
2345.00,0.0076
2344.00,0.0076
2343.00,0.0076
2342.00,0.0076
2341.00,0.0077
2340.00,0.0078
2339.00,0.0078
2338.00,0.0078
2337.00,0.0078
2336.00,0.0078
2335.00,0.0078
2334.00,0.0079
2333.00,0.0078
2332.00,0.0078
2331.00,0.0078
2330.00,0.0078
2329.00,0.0079
2328.00,0.0082
2327.00,0.0085
2326.00,0.0088
2325.00,0.0089
2324.00,0.0088
2323.00,0.0086
2322.00,0.0085
2321.00,0.0083
2320.00,0.0082
2319.00,0.0082
2318.00,0.0082
2317.00,0.0081
2316.00,0.0081
2315.00,0.0080
2314.00,0.0080
2313.00,0.0079
2312.00,0.0078
2311.00,0.0078
2310.00,0.0078
2309.00,0.0078
2308.00,0.0078
2307.00,0.0078
2306.00,0.0077
2305.00,0.0077
2304.00,0.0078
2303.00,0.0078
2302.00,0.0078
2301.00,0.0079
2300.00,0.0080
2299.00,0.0080
2298.00,0.0081
2297.00,0.0082
2296.00,0.0082
2295.00,0.0083
2294.00,0.0084
2293.00,0.0085
2292.00,0.0086
2291.00,0.0086
2290.00,0.0087
2289.00,0.0088
2288.00,0.0088
2287.00,0.0088
2286.00,0.0087
2285.00,0.0087
2284.00,0.0087
2283.00,0.0086
2282.00,0.0086
2281.00,0.0085
2280.00,0.0084
2279.00,0.0083
2278.00,0.0083
2277.00,0.0083
2276.00,0.0083
2275.00,0.0083
2274.00,0.0082
2273.00,0.0082
2272.00,0.0081
2271.00,0.0081
2270.00,0.0081
2269.00,0.0080
2268.00,0.0079
2267.00,0.0079
2266.00,0.0079
2265.00,0.0079
2264.00,0.0080
2263.00,0.0080
2262.00,0.0079
2261.00,0.0078
2260.00,0.0078
2259.00,0.0078
2258.00,0.0078
2257.00,0.0077
2256.00,0.0076
2255.00,0.0075
2254.00,0.0074
2253.00,0.0074
2252.00,0.0074
2251.00,0.0075
2250.00,0.0076
2249.00,0.0077
2248.00,0.0078
2247.00,0.0078
2246.00,0.0078
2245.00,0.0077
2244.00,0.0077
2243.00,0.0077
2242.00,0.0077
2241.00,0.0077
2240.00,0.0078
2239.00,0.0079
2238.00,0.0080
2237.00,0.0080
2236.00,0.0080
2235.00,0.0079
2234.00,0.0079
2233.00,0.0079
2232.00,0.0079
2231.00,0.0078
2230.00,0.0078
2229.00,0.0079
2228.00,0.0080
2227.00,0.0080
2226.00,0.0080
2225.00,0.0080
2224.00,0.0079
2223.00,0.0079
2222.00,0.0078
2221.00,0.0078
2220.00,0.0078
2219.00,0.0078
2218.00,0.0078
2217.00,0.0078
2216.00,0.0077
2215.00,0.0077
2214.00,0.0078
2213.00,0.0078
2212.00,0.0078
2211.00,0.0078
2210.00,0.0078
2209.00,0.0078
2208.00,0.0079
2207.00,0.0079
2206.00,0.0080
2205.00,0.0080
2204.00,0.0081
2203.00,0.0081
2202.00,0.0080
2201.00,0.0080
2200.00,0.0080
2199.00,0.0079
2198.00,0.0078
2197.00,0.0078
2196.00,0.0077
2195.00,0.0077
2194.00,0.0077
2193.00,0.0077
2192.00,0.0078
2191.00,0.0078
2190.00,0.0078
2189.00,0.0079
2188.00,0.0080
2187.00,0.0081
2186.00,0.0080
2185.00,0.0079
2184.00,0.0078
2183.00,0.0077
2182.00,0.0076
2181.00,0.0076
2180.00,0.0076
2179.00,0.0075
2178.00,0.0073
2177.00,0.0071
2176.00,0.0071
2175.00,0.0072
2174.00,0.0073
2173.00,0.0074
2172.00,0.0077
2171.00,0.0079
2170.00,0.0081
2169.00,0.0083
2168.00,0.0084
2167.00,0.0083
2166.00,0.0082
2165.00,0.0083
2164.00,0.0085
2163.00,0.0086
2162.00,0.0083
2161.00,0.0074
2160.00,0.0062
2159.00,0.0053
2158.00,0.0048
2157.00,0.0048
2156.00,0.0051
2155.00,0.0054
2154.00,0.0056
2153.00,0.0057
2152.00,0.0059
2151.00,0.0060
2150.00,0.0060
2149.00,0.0060
2148.00,0.0060
2147.00,0.0060
2146.00,0.0060
2145.00,0.0061
2144.00,0.0061
2143.00,0.0061
2142.00,0.0061
2141.00,0.0061
2140.00,0.0061
2139.00,0.0061
2138.00,0.0061
2137.00,0.0061
2136.00,0.0059
2135.00,0.0057
2134.00,0.0056
2133.00,0.0057
2132.00,0.0058
2131.00,0.0060
2130.00,0.0062
2129.00,0.0063
2128.00,0.0064
2127.00,0.0064
2126.00,0.0065
2125.00,0.0066
2124.00,0.0067
2123.00,0.0068
2122.00,0.0068
2121.00,0.0069
2120.00,0.0070
2119.00,0.0071
2118.00,0.0073
2117.00,0.0074
2116.00,0.0075
2115.00,0.0075
2114.00,0.0075
2113.00,0.0074
2112.00,0.0073
2111.00,0.0073
2110.00,0.0072
2109.00,0.0071
2108.00,0.0072
2107.00,0.0072
2106.00,0.0072
2105.00,0.0072
2104.00,0.0072
2103.00,0.0072
2102.00,0.0072
2101.00,0.0071
2100.00,0.0071
2099.00,0.0070
2098.00,0.0069
2097.00,0.0067
2096.00,0.0066
2095.00,0.0066
2094.00,0.0066
2093.00,0.0067
2092.00,0.0069
2091.00,0.0070
2090.00,0.0070
2089.00,0.0071
2088.00,0.0071
2087.00,0.0071
2086.00,0.0071
2085.00,0.0072
2084.00,0.0073
2083.00,0.0073
2082.00,0.0073
2081.00,0.0074
2080.00,0.0074
2079.00,0.0074
2078.00,0.0073
2077.00,0.0073
2076.00,0.0073
2075.00,0.0072
2074.00,0.0072
2073.00,0.0072
2072.00,0.0072
2071.00,0.0072
2070.00,0.0071
2069.00,0.0071
2068.00,0.0070
2067.00,0.0069
2066.00,0.0069
2065.00,0.0069
2064.00,0.0069
2063.00,0.0069
2062.00,0.0068
2061.00,0.0068
2060.00,0.0067
2059.00,0.0068
2058.00,0.0068
2057.00,0.0068
2056.00,0.0068
2055.00,0.0068
2054.00,0.0070
2053.00,0.0072
2052.00,0.0075
2051.00,0.0075
2050.00,0.0073
2049.00,0.0070
2048.00,0.0069
2047.00,0.0068
2046.00,0.0068
2045.00,0.0068
2044.00,0.0069
2043.00,0.0070
2042.00,0.0069
2041.00,0.0069
2040.00,0.0069
2039.00,0.0070
2038.00,0.0070
2037.00,0.0070
2036.00,0.0069
2035.00,0.0068
2034.00,0.0066
2033.00,0.0065
2032.00,0.0066
2031.00,0.0067
2030.00,0.0066
2029.00,0.0066
2028.00,0.0066
2027.00,0.0065
2026.00,0.0065
2025.00,0.0064
2024.00,0.0064
2023.00,0.0063
2022.00,0.0063
2021.00,0.0063
2020.00,0.0063
2019.00,0.0064
2018.00,0.0063
2017.00,0.0063
2016.00,0.0063
2015.00,0.0061
2014.00,0.0060
2013.00,0.0059
2012.00,0.0059
2011.00,0.0059
2010.00,0.0058
2009.00,0.0057
2008.00,0.0056
2007.00,0.0055
2006.00,0.0054
2005.00,0.0054
2004.00,0.0055
2003.00,0.0057
2002.00,0.0058
2001.00,0.0060
2000.00,0.0062
1999.00,0.0063
1998.00,0.0063
1997.00,0.0063
1996.00,0.0063
1995.00,0.0063
1994.00,0.0063
1993.00,0.0065
1992.00,0.0068
1991.00,0.0070
1990.00,0.0071
1989.00,0.0071
1988.00,0.0071
1987.00,0.0070
1986.00,0.0069
1985.00,0.0068
1984.00,0.0070
1983.00,0.0072
1982.00,0.0075
1981.00,0.0076
1980.00,0.0075
1979.00,0.0070
1978.00,0.0065
1977.00,0.0061
1976.00,0.0060
1975.00,0.0059
1974.00,0.0059
1973.00,0.0058
1972.00,0.0057
1971.00,0.0057
1970.00,0.0057
1969.00,0.0057
1968.00,0.0058
1967.00,0.0059
1966.00,0.0058
1965.00,0.0058
1964.00,0.0058
1963.00,0.0058
1962.00,0.0056
1961.00,0.0055
1960.00,0.0054
1959.00,0.0054
1958.00,0.0055
1957.00,0.0056
1956.00,0.0057
1955.00,0.0057
1954.00,0.0056
1953.00,0.0056
1952.00,0.0057
1951.00,0.0058
1950.00,0.0059
1949.00,0.0060
1948.00,0.0061
1947.00,0.0062
1946.00,0.0062
1945.00,0.0062
1944.00,0.0062
1943.00,0.0063
1942.00,0.0062
1941.00,0.0061
1940.00,0.0061
1939.00,0.0060
1938.00,0.0060
1937.00,0.0060
1936.00,0.0060
1935.00,0.0061
1934.00,0.0061
1933.00,0.0061
1932.00,0.0062
1931.00,0.0062
1930.00,0.0062
1929.00,0.0062
1928.00,0.0062
1927.00,0.0063
1926.00,0.0063
1925.00,0.0064
1924.00,0.0065
1923.00,0.0065
1922.00,0.0065
1921.00,0.0065
1920.00,0.0065
1919.00,0.0065
1918.00,0.0066
1917.00,0.0066
1916.00,0.0066
1915.00,0.0067
1914.00,0.0068
1913.00,0.0069
1912.00,0.0071
1911.00,0.0073
1910.00,0.0076
1909.00,0.0078
1908.00,0.0080
1907.00,0.0080
1906.00,0.0078
1905.00,0.0076
1904.00,0.0073
1903.00,0.0071
1902.00,0.0070
1901.00,0.0069
1900.00,0.0069
1899.00,0.0069
1898.00,0.0069
1897.00,0.0069
1896.00,0.0071
1895.00,0.0072
1894.00,0.0073
1893.00,0.0073
1892.00,0.0072
1891.00,0.0071
1890.00,0.0069
1889.00,0.0068
1888.00,0.0068
1887.00,0.0067
1886.00,0.0067
1885.00,0.0067
1884.00,0.0067
1883.00,0.0067
1882.00,0.0067
1881.00,0.0067
1880.00,0.0067
1879.00,0.0067
1878.00,0.0066
1877.00,0.0066
1876.00,0.0067
1875.00,0.0066
1874.00,0.0066
1873.00,0.0066
1872.00,0.0066
1871.00,0.0066
1870.00,0.0066
1869.00,0.0066
1868.00,0.0066
1867.00,0.0066
1866.00,0.0066
1865.00,0.0067
1864.00,0.0068
1863.00,0.0068
1862.00,0.0068
1861.00,0.0068
1860.00,0.0068
1859.00,0.0068
1858.00,0.0068
1857.00,0.0068
1856.00,0.0068
1855.00,0.0069
1854.00,0.0069
1853.00,0.0069
1852.00,0.0070
1851.00,0.0070
1850.00,0.0070
1849.00,0.0071
1848.00,0.0071
1847.00,0.0072
1846.00,0.0072
1845.00,0.0072
1844.00,0.0072
1843.00,0.0071
1842.00,0.0069
1841.00,0.0069
1840.00,0.0069
1839.00,0.0069
1838.00,0.0069
1837.00,0.0069
1836.00,0.0069
1835.00,0.0069
1834.00,0.0069
1833.00,0.0068
1832.00,0.0068
1831.00,0.0067
1830.00,0.0066
1829.00,0.0066
1828.00,0.0065
1827.00,0.0065
1826.00,0.0066
1825.00,0.0067
1824.00,0.0067
1823.00,0.0067
1822.00,0.0068
1821.00,0.0068
1820.00,0.0067
1819.00,0.0067
1818.00,0.0066
1817.00,0.0066
1816.00,0.0067
1815.00,0.0067
1814.00,0.0068
1813.00,0.0068
1812.00,0.0068
1811.00,0.0068
1810.00,0.0068
1809.00,0.0068
1808.00,0.0069
1807.00,0.0069
1806.00,0.0069
1805.00,0.0069
1804.00,0.0069
1803.00,0.0070
1802.00,0.0070
1801.00,0.0070
1800.00,0.0070
1799.00,0.0070
1798.00,0.0071
1797.00,0.0071
1796.00,0.0072
1795.00,0.0071
1794.00,0.0071
1793.00,0.0070
1792.00,0.0071
1791.00,0.0071
1790.00,0.0070
1789.00,0.0071
1788.00,0.0072
1787.00,0.0072
1786.00,0.0072
1785.00,0.0072
1784.00,0.0071
1783.00,0.0071
1782.00,0.0071
1781.00,0.0072
1780.00,0.0073
1779.00,0.0073
1778.00,0.0074
1777.00,0.0074
1776.00,0.0075
1775.00,0.0075
1774.00,0.0075
1773.00,0.0075
1772.00,0.0074
1771.00,0.0074
1770.00,0.0073
1769.00,0.0074
1768.00,0.0075
1767.00,0.0075
1766.00,0.0075
1765.00,0.0074
1764.00,0.0074
1763.00,0.0075
1762.00,0.0076
1761.00,0.0076
1760.00,0.0077
1759.00,0.0077
1758.00,0.0078
1757.00,0.0078
1756.00,0.0077
1755.00,0.0076
1754.00,0.0075
1753.00,0.0075
1752.00,0.0076
1751.00,0.0076
1750.00,0.0075
1749.00,0.0075
1748.00,0.0075
1747.00,0.0076
1746.00,0.0076
1745.00,0.0077
1744.00,0.0078
1743.00,0.0078
1742.00,0.0078
1741.00,0.0077
1740.00,0.0077
1739.00,0.0077
1738.00,0.0077
1737.00,0.0077
1736.00,0.0078
1735.00,0.0079
1734.00,0.0080
1733.00,0.0080
1732.00,0.0081
1731.00,0.0084
1730.00,0.0086
1729.00,0.0088
1728.00,0.0090
1727.00,0.0091
1726.00,0.0092
1725.00,0.0094
1724.00,0.0095
1723.00,0.0097
1722.00,0.0097
1721.00,0.0096
1720.00,0.0096
1719.00,0.0097
1718.00,0.0098
1717.00,0.0099
1716.00,0.0101
1715.00,0.0103
1714.00,0.0106
1713.00,0.0108
1712.00,0.0111
1711.00,0.0114
1710.00,0.0116
1709.00,0.0117
1708.00,0.0119
1707.00,0.0121
1706.00,0.0123
1705.00,0.0125
1704.00,0.0127
1703.00,0.0128
1702.00,0.0130
1701.00,0.0134
1700.00,0.0140
1699.00,0.0145
1698.00,0.0151
1697.00,0.0159
1696.00,0.0169
1695.00,0.0180
1694.00,0.0188
1693.00,0.0196
1692.00,0.0205
1691.00,0.0215
1690.00,0.0226
1689.00,0.0236
1688.00,0.0245
1687.00,0.0252
1686.00,0.0260
1685.00,0.0271
1684.00,0.0288
1683.00,0.0303
1682.00,0.0315
1681.00,0.0327
1680.00,0.0340
1679.00,0.0351
1678.00,0.0360
1677.00,0.0369
1676.00,0.0381
1675.00,0.0395
1674.00,0.0408
1673.00,0.0418
1672.00,0.0428
1671.00,0.0440
1670.00,0.0452
1669.00,0.0467
1668.00,0.0481
1667.00,0.0492
1666.00,0.0502
1665.00,0.0510
1664.00,0.0519
1663.00,0.0530
1662.00,0.0540
1661.00,0.0550
1660.00,0.0558
1659.00,0.0566
1658.00,0.0571
1657.00,0.0574
1656.00,0.0575
1655.00,0.0575
1654.00,0.0576
1653.00,0.0581
1652.00,0.0588
1651.00,0.0593
1650.00,0.0595
1649.00,0.0595
1648.00,0.0595
1647.00,0.0594
1646.00,0.0593
1645.00,0.0592
1644.00,0.0592
1643.00,0.0592
1642.00,0.0589
1641.00,0.0585
1640.00,0.0580
1639.00,0.0574
1638.00,0.0565
1637.00,0.0555
1636.00,0.0548
1635.00,0.0544
1634.00,0.0545
1633.00,0.0550
1632.00,0.0560
1631.00,0.0574
1630.00,0.0595
1629.00,0.0625
1628.00,0.0666
1627.00,0.0710
1626.00,0.0749
1625.00,0.0783
1624.00,0.0814
1623.00,0.0838
1622.00,0.0852
1621.00,0.0853
1620.00,0.0844
1619.00,0.0824
1618.00,0.0788
1617.00,0.0739
1616.00,0.0693
1615.00,0.0664
1614.00,0.0652
1613.00,0.0649
1612.00,0.0650
1611.00,0.0649
1610.00,0.0641
1609.00,0.0625
1608.00,0.0600
1607.00,0.0569
1606.00,0.0536
1605.00,0.0502
1604.00,0.0470
1603.00,0.0440
1602.00,0.0413
1601.00,0.0389
1600.00,0.0369
1599.00,0.0353
1598.00,0.0340
1597.00,0.0332
1596.00,0.0327
1595.00,0.0327
1594.00,0.0332
1593.00,0.0344
1592.00,0.0361
1591.00,0.0386
1590.00,0.0416
1589.00,0.0450
1588.00,0.0485
1587.00,0.0517
1586.00,0.0544
1585.00,0.0562
1584.00,0.0572
1583.00,0.0574
1582.00,0.0569
1581.00,0.0557
1580.00,0.0542
1579.00,0.0525
1578.00,0.0504
1577.00,0.0476
1576.00,0.0445
1575.00,0.0419
1574.00,0.0400
1573.00,0.0388
1572.00,0.0377
1571.00,0.0367
1570.00,0.0356
1569.00,0.0346
1568.00,0.0337
1567.00,0.0327
1566.00,0.0315
1565.00,0.0300
1564.00,0.0282
1563.00,0.0266
1562.00,0.0252
1561.00,0.0237
1560.00,0.0220
1559.00,0.0201
1558.00,0.0188
1557.00,0.0182
1556.00,0.0182
1555.00,0.0182
1554.00,0.0181
1553.00,0.0178
1552.00,0.0176
1551.00,0.0175
1550.00,0.0173
1549.00,0.0170
1548.00,0.0168
1547.00,0.0166
1546.00,0.0164
1545.00,0.0162
1544.00,0.0159
1543.00,0.0155
1542.00,0.0151
1541.00,0.0148
1540.00,0.0145
1539.00,0.0144
1538.00,0.0145
1537.00,0.0146
1536.00,0.0146
1535.00,0.0146
1534.00,0.0145
1533.00,0.0144
1532.00,0.0143
1531.00,0.0143
1530.00,0.0143
1529.00,0.0143
1528.00,0.0143
1527.00,0.0144
1526.00,0.0144
1525.00,0.0144
1524.00,0.0144
1523.00,0.0145
1522.00,0.0148
1521.00,0.0151
1520.00,0.0154
1519.00,0.0158
1518.00,0.0163
1517.00,0.0170
1516.00,0.0177
1515.00,0.0183
1514.00,0.0189
1513.00,0.0195
1512.00,0.0200
1511.00,0.0205
1510.00,0.0207
1509.00,0.0209
1508.00,0.0210
1507.00,0.0212
1506.00,0.0216
1505.00,0.0222
1504.00,0.0231
1503.00,0.0241
1502.00,0.0254
1501.00,0.0272
1500.00,0.0295
1499.00,0.0327
1498.00,0.0364
1497.00,0.0400
1496.00,0.0422
1495.00,0.0427
1494.00,0.0417
1493.00,0.0398
1492.00,0.0374
1491.00,0.0344
1490.00,0.0315
1489.00,0.0288
1488.00,0.0267
1487.00,0.0250
1486.00,0.0236
1485.00,0.0226
1484.00,0.0217
1483.00,0.0210
1482.00,0.0204
1481.00,0.0199
1480.00,0.0197
1479.00,0.0195
1478.00,0.0196
1477.00,0.0198
1476.00,0.0202
1475.00,0.0208
1474.00,0.0217
1473.00,0.0234
1472.00,0.0260
1471.00,0.0292
1470.00,0.0327
1469.00,0.0366
1468.00,0.0405
1467.00,0.0441
1466.00,0.0469
1465.00,0.0488
1464.00,0.0498
1463.00,0.0502
1462.00,0.0503
1461.00,0.0504
1460.00,0.0503
1459.00,0.0497
1458.00,0.0486
1457.00,0.0469
1456.00,0.0450
1455.00,0.0436
1454.00,0.0427
1453.00,0.0422
1452.00,0.0420
1451.00,0.0422
1450.00,0.0427
1449.00,0.0436
1448.00,0.0449
1447.00,0.0465
1446.00,0.0483
1445.00,0.0504
1444.00,0.0527
1443.00,0.0550
1442.00,0.0572
1441.00,0.0591
1440.00,0.0606
1439.00,0.0617
1438.00,0.0625
1437.00,0.0635
1436.00,0.0646
1435.00,0.0657
1434.00,0.0669
1433.00,0.0680
1432.00,0.0691
1431.00,0.0701
1430.00,0.0709
1429.00,0.0716
1428.00,0.0721
1427.00,0.0724
1426.00,0.0724
1425.00,0.0723
1424.00,0.0719
1423.00,0.0713
1422.00,0.0704
1421.00,0.0690
1420.00,0.0670
1419.00,0.0643
1418.00,0.0614
1417.00,0.0587
1416.00,0.0563
1415.00,0.0541
1414.00,0.0521
1413.00,0.0506
1412.00,0.0494
1411.00,0.0489
1410.00,0.0490
1409.00,0.0497
1408.00,0.0510
1407.00,0.0528
1406.00,0.0552
1405.00,0.0581
1404.00,0.0610
1403.00,0.0635
1402.00,0.0654
1401.00,0.0667
1400.00,0.0670
1399.00,0.0663
1398.00,0.0646
1397.00,0.0622
1396.00,0.0592
1395.00,0.0556
1394.00,0.0519
1393.00,0.0489
1392.00,0.0465
1391.00,0.0448
1390.00,0.0440
1389.00,0.0441
1388.00,0.0453
1387.00,0.0466
1386.00,0.0471
1385.00,0.0464
1384.00,0.0452
1383.00,0.0442
1382.00,0.0438
1381.00,0.0441
1380.00,0.0446
1379.00,0.0449
1378.00,0.0448
1377.00,0.0443
1376.00,0.0432
1375.00,0.0414
1374.00,0.0394
1373.00,0.0376
1372.00,0.0365
1371.00,0.0363
1370.00,0.0369
1369.00,0.0384
1368.00,0.0407
1367.00,0.0433
1366.00,0.0456
1365.00,0.0472
1364.00,0.0481
1363.00,0.0492
1362.00,0.0510
1361.00,0.0534
1360.00,0.0549
1359.00,0.0546
1358.00,0.0525
1357.00,0.0495
1356.00,0.0466
1355.00,0.0443
1354.00,0.0428
1353.00,0.0417
1352.00,0.0411
1351.00,0.0408
1350.00,0.0408
1349.00,0.0410
1348.00,0.0412
1347.00,0.0412
1346.00,0.0409
1345.00,0.0403
1344.00,0.0394
1343.00,0.0383
1342.00,0.0371
1341.00,0.0358
1340.00,0.0345
1339.00,0.0332
1338.00,0.0322
1337.00,0.0317
1336.00,0.0315
1335.00,0.0318
1334.00,0.0323
1333.00,0.0331
1332.00,0.0340
1331.00,0.0347
1330.00,0.0354
1329.00,0.0359
1328.00,0.0361
1327.00,0.0362
1326.00,0.0362
1325.00,0.0362
1324.00,0.0361
1323.00,0.0362
1322.00,0.0363
1321.00,0.0365
1320.00,0.0365
1319.00,0.0364
1318.00,0.0361
1317.00,0.0357
1316.00,0.0350
1315.00,0.0343
1314.00,0.0336
1313.00,0.0332
1312.00,0.0329
1311.00,0.0330
1310.00,0.0334
1309.00,0.0343
1308.00,0.0355
1307.00,0.0372
1306.00,0.0394
1305.00,0.0422
1304.00,0.0455
1303.00,0.0491
1302.00,0.0525
1301.00,0.0551
1300.00,0.0566
1299.00,0.0574
1298.00,0.0578
1297.00,0.0584
1296.00,0.0596
1295.00,0.0611
1294.00,0.0628
1293.00,0.0642
1292.00,0.0653
1291.00,0.0661
1290.00,0.0669
1289.00,0.0679
1288.00,0.0692
1287.00,0.0707
1286.00,0.0722
1285.00,0.0734
1284.00,0.0741
1283.00,0.0740
1282.00,0.0730
1281.00,0.0713
1280.00,0.0689
1279.00,0.0664
1278.00,0.0639
1277.00,0.0618
1276.00,0.0601
1275.00,0.0587
1274.00,0.0576
1273.00,0.0565
1272.00,0.0554
1271.00,0.0542
1270.00,0.0529
1269.00,0.0516
1268.00,0.0502
1267.00,0.0488
1266.00,0.0473
1265.00,0.0458
1264.00,0.0443
1263.00,0.0428
1262.00,0.0412
1261.00,0.0398
1260.00,0.0384
1259.00,0.0372
1258.00,0.0362
1257.00,0.0353
1256.00,0.0346
1255.00,0.0340
1254.00,0.0336
1253.00,0.0334
1252.00,0.0335
1251.00,0.0338
1250.00,0.0345
1249.00,0.0356
1248.00,0.0370
1247.00,0.0387
1246.00,0.0406
1245.00,0.0424
1244.00,0.0441
1243.00,0.0454
1242.00,0.0465
1241.00,0.0474
1240.00,0.0484
1239.00,0.0498
1238.00,0.0517
1237.00,0.0540
1236.00,0.0564
1235.00,0.0585
1234.00,0.0598
1233.00,0.0603
1232.00,0.0597
1231.00,0.0582
1230.00,0.0561
1229.00,0.0538
1228.00,0.0516
1227.00,0.0496
1226.00,0.0478
1225.00,0.0463
1224.00,0.0452
1223.00,0.0443
1222.00,0.0439
1221.00,0.0437
1220.00,0.0440
1219.00,0.0446
1218.00,0.0456
1217.00,0.0467
1216.00,0.0478
1215.00,0.0486
1214.00,0.0488
1213.00,0.0483
1212.00,0.0470
1211.00,0.0451
1210.00,0.0430
1209.00,0.0409
1208.00,0.0391
1207.00,0.0377
1206.00,0.0369
1205.00,0.0368
1204.00,0.0373
1203.00,0.0385
1202.00,0.0403
1201.00,0.0426
1200.00,0.0454
1199.00,0.0484
1198.00,0.0518
1197.00,0.0552
1196.00,0.0583
1195.00,0.0604
1194.00,0.0612
1193.00,0.0606
1192.00,0.0588
1191.00,0.0561
1190.00,0.0529
1189.00,0.0495
1188.00,0.0461
1187.00,0.0428
1186.00,0.0398
1185.00,0.0373
1184.00,0.0352
1183.00,0.0335
1182.00,0.0321
1181.00,0.0311
1180.00,0.0303
1179.00,0.0297
1178.00,0.0293
1177.00,0.0290
1176.00,0.0287
1175.00,0.0286
1174.00,0.0285
1173.00,0.0285
1172.00,0.0284
1171.00,0.0284
1170.00,0.0284
1169.00,0.0284
1168.00,0.0284
1167.00,0.0285
1166.00,0.0286
1165.00,0.0289
1164.00,0.0294
1163.00,0.0303
1162.00,0.0316
1161.00,0.0337
1160.00,0.0368
1159.00,0.0409
1158.00,0.0460
1157.00,0.0515
1156.00,0.0565
1155.00,0.0597
1154.00,0.0602
1153.00,0.0577
1152.00,0.0528
1151.00,0.0468
1150.00,0.0410
1149.00,0.0361
1148.00,0.0324
1147.00,0.0298
1146.00,0.0281
1145.00,0.0270
1144.00,0.0263
1143.00,0.0258
1142.00,0.0256
1141.00,0.0256
1140.00,0.0258
1139.00,0.0264
1138.00,0.0273
1137.00,0.0287
1136.00,0.0309
1135.00,0.0340
1134.00,0.0382
1133.00,0.0437
1132.00,0.0503
1131.00,0.0571
1130.00,0.0631
1129.00,0.0672
1128.00,0.0688
1127.00,0.0682
1126.00,0.0658
1125.00,0.0622
1124.00,0.0579
1123.00,0.0530
1122.00,0.0483
1121.00,0.0439
1120.00,0.0403
1119.00,0.0376
1118.00,0.0358
1117.00,0.0348
1116.00,0.0342
1115.00,0.0340
1114.00,0.0338
1113.00,0.0334
1112.00,0.0327
1111.00,0.0319
1110.00,0.0311
1109.00,0.0304
1108.00,0.0300
1107.00,0.0300
1106.00,0.0306
1105.00,0.0320
1104.00,0.0343
1103.00,0.0375
1102.00,0.0413
1101.00,0.0450
1100.00,0.0476
1099.00,0.0484
1098.00,0.0472
1097.00,0.0444
1096.00,0.0407
1095.00,0.0369
1094.00,0.0334
1093.00,0.0307
1092.00,0.0285
1091.00,0.0269
1090.00,0.0258
1089.00,0.0250
1088.00,0.0243
1087.00,0.0238
1086.00,0.0235
1085.00,0.0232
1084.00,0.0231
1083.00,0.0230
1082.00,0.0230
1081.00,0.0231
1080.00,0.0232
1079.00,0.0233
1078.00,0.0235
1077.00,0.0237
1076.00,0.0240
1075.00,0.0243
1074.00,0.0246
1073.00,0.0250
1072.00,0.0255
1071.00,0.0260
1070.00,0.0266
1069.00,0.0274
1068.00,0.0282
1067.00,0.0292
1066.00,0.0302
1065.00,0.0316
1064.00,0.0333
1063.00,0.0355
1062.00,0.0384
1061.00,0.0423
1060.00,0.0472
1059.00,0.0533
1058.00,0.0603
1057.00,0.0679
1056.00,0.0752
1055.00,0.0813
1054.00,0.0856
1053.00,0.0882
1052.00,0.0896
1051.00,0.0902
1050.00,0.0903
1049.00,0.0895
1048.00,0.0875
1047.00,0.0841
1046.00,0.0794
1045.00,0.0740
1044.00,0.0683
1043.00,0.0627
1042.00,0.0575
1041.00,0.0530
1040.00,0.0495
1039.00,0.0471
1038.00,0.0458
1037.00,0.0454
1036.00,0.0456
1035.00,0.0462
1034.00,0.0472
1033.00,0.0487
1032.00,0.0514
1031.00,0.0556
1030.00,0.0614
1029.00,0.0681
1028.00,0.0744
1027.00,0.0787
1026.00,0.0798
1025.00,0.0773
1024.00,0.0722
1023.00,0.0659
1022.00,0.0595
1021.00,0.0538
1020.00,0.0490
1019.00,0.0450
1018.00,0.0418
1017.00,0.0391
1016.00,0.0368
1015.00,0.0349
1014.00,0.0333
1013.00,0.0321
1012.00,0.0313
1011.00,0.0309
1010.00,0.0313
1009.00,0.0323
1008.00,0.0340
1007.00,0.0362
1006.00,0.0387
1005.00,0.0411
1004.00,0.0429
1003.00,0.0438
1002.00,0.0437
1001.00,0.0427
1000.00,0.0414
999.00,0.0400
998.00,0.0387
997.00,0.0375
996.00,0.0366
995.00,0.0358
994.00,0.0350
993.00,0.0341
992.00,0.0329
991.00,0.0315
990.00,0.0300
989.00,0.0286
988.00,0.0273
987.00,0.0263
986.00,0.0254
985.00,0.0247
984.00,0.0241
983.00,0.0236
982.00,0.0232
981.00,0.0230
980.00,0.0229
979.00,0.0228
978.00,0.0228
977.00,0.0228
976.00,0.0228
975.00,0.0228
974.00,0.0227
973.00,0.0226
972.00,0.0224
971.00,0.0222
970.00,0.0221
969.00,0.0221
968.00,0.0220
967.00,0.0221
966.00,0.0222
965.00,0.0225
964.00,0.0228
963.00,0.0232
962.00,0.0233
961.00,0.0231
960.00,0.0224
959.00,0.0215
958.00,0.0206
957.00,0.0198
956.00,0.0192
955.00,0.0187
954.00,0.0183
953.00,0.0180
952.00,0.0179
951.00,0.0179
950.00,0.0182
949.00,0.0186
948.00,0.0189
947.00,0.0190
946.00,0.0189
945.00,0.0189
944.00,0.0190
943.00,0.0194
942.00,0.0201
941.00,0.0208
940.00,0.0216
939.00,0.0223
938.00,0.0229
937.00,0.0234
936.00,0.0239
935.00,0.0245
934.00,0.0250
933.00,0.0253
932.00,0.0254
931.00,0.0251
930.00,0.0246
929.00,0.0240
928.00,0.0235
927.00,0.0234
926.00,0.0236
925.00,0.0243
924.00,0.0252
923.00,0.0261
922.00,0.0268
921.00,0.0269
920.00,0.0262
919.00,0.0250
918.00,0.0235
917.00,0.0220
916.00,0.0208
915.00,0.0198
914.00,0.0190
913.00,0.0185
912.00,0.0181
911.00,0.0179
910.00,0.0178
909.00,0.0179
908.00,0.0180
907.00,0.0182
906.00,0.0187
905.00,0.0194
904.00,0.0205
903.00,0.0220
902.00,0.0239
901.00,0.0259
900.00,0.0277
899.00,0.0287
898.00,0.0286
897.00,0.0277
896.00,0.0264
895.00,0.0252
894.00,0.0246
893.00,0.0249
892.00,0.0261
891.00,0.0277
890.00,0.0287
889.00,0.0282
888.00,0.0265
887.00,0.0242
886.00,0.0223
885.00,0.0210
884.00,0.0205
883.00,0.0203
882.00,0.0206
881.00,0.0210
880.00,0.0218
879.00,0.0230
878.00,0.0248
877.00,0.0273
876.00,0.0306
875.00,0.0345
874.00,0.0390
873.00,0.0438
872.00,0.0485
871.00,0.0524
870.00,0.0547
869.00,0.0551
868.00,0.0535
867.00,0.0506
866.00,0.0475
865.00,0.0444
864.00,0.0415
863.00,0.0388
862.00,0.0362
861.00,0.0339
860.00,0.0322
859.00,0.0312
858.00,0.0312
857.00,0.0323
856.00,0.0342
855.00,0.0366
854.00,0.0390
853.00,0.0413
852.00,0.0437
851.00,0.0461
850.00,0.0484
849.00,0.0497
848.00,0.0496
847.00,0.0482
846.00,0.0459
845.00,0.0435
844.00,0.0413
843.00,0.0395
842.00,0.0383
841.00,0.0376
840.00,0.0377
839.00,0.0386
838.00,0.0405
837.00,0.0433
836.00,0.0462
835.00,0.0487
834.00,0.0505
833.00,0.0511
832.00,0.0506
831.00,0.0488
830.00,0.0460
829.00,0.0425
828.00,0.0387
827.00,0.0353
826.00,0.0331
825.00,0.0324
824.00,0.0339
823.00,0.0382
822.00,0.0449
821.00,0.0518
820.00,0.0568
819.00,0.0591
818.00,0.0608
817.00,0.0633
816.00,0.0657
815.00,0.0652
814.00,0.0602
813.00,0.0522
812.00,0.0442
811.00,0.0380
810.00,0.0337
809.00,0.0307
808.00,0.0286
807.00,0.0270
806.00,0.0258
805.00,0.0249
804.00,0.0243
803.00,0.0239
802.00,0.0235
801.00,0.0232
800.00,0.0230
799.00,0.0229
798.00,0.0228
797.00,0.0227
796.00,0.0227
795.00,0.0226
794.00,0.0225
793.00,0.0225
792.00,0.0224
791.00,0.0224
790.00,0.0223
789.00,0.0223
788.00,0.0223
787.00,0.0223
786.00,0.0223
785.00,0.0223
784.00,0.0224
783.00,0.0226
782.00,0.0228
781.00,0.0230
780.00,0.0232
779.00,0.0236
778.00,0.0244
777.00,0.0255
776.00,0.0270
775.00,0.0283
774.00,0.0290
773.00,0.0287
772.00,0.0279
771.00,0.0269
770.00,0.0262
769.00,0.0258
768.00,0.0256
767.00,0.0256
766.00,0.0257
765.00,0.0259
764.00,0.0263
763.00,0.0269
762.00,0.0277
761.00,0.0284
760.00,0.0291
759.00,0.0296
758.00,0.0298
757.00,0.0297
756.00,0.0295
755.00,0.0293
754.00,0.0293
753.00,0.0293
752.00,0.0295
751.00,0.0297
750.00,0.0300
749.00,0.0303
748.00,0.0307
747.00,0.0310
746.00,0.0315
745.00,0.0320
744.00,0.0326
743.00,0.0333
742.00,0.0341
741.00,0.0352
740.00,0.0366
739.00,0.0387
738.00,0.0416
737.00,0.0450
736.00,0.0485
735.00,0.0509
734.00,0.0516
733.00,0.0508
732.00,0.0494
731.00,0.0485
730.00,0.0484
729.00,0.0486
728.00,0.0483
727.00,0.0472
726.00,0.0453
725.00,0.0429
724.00,0.0406
723.00,0.0387
722.00,0.0375
721.00,0.0368
720.00,0.0367
719.00,0.0372
718.00,0.0381
717.00,0.0394
716.00,0.0406
715.00,0.0414
714.00,0.0416
713.00,0.0413
712.00,0.0406
711.00,0.0399
710.00,0.0391
709.00,0.0385
708.00,0.0381
707.00,0.0380
706.00,0.0381
705.00,0.0384
704.00,0.0388
703.00,0.0394
702.00,0.0400
701.00,0.0408
700.00,0.0416
699.00,0.0424
698.00,0.0430
697.00,0.0432
696.00,0.0430
695.00,0.0425
694.00,0.0419
693.00,0.0416
692.00,0.0419
691.00,0.0428
690.00,0.0441
689.00,0.0454
688.00,0.0464
687.00,0.0465
686.00,0.0461
685.00,0.0453
684.00,0.0447
683.00,0.0443
682.00,0.0442
681.00,0.0443
680.00,0.0447
679.00,0.0452
678.00,0.0459
677.00,0.0468
676.00,0.0479
675.00,0.0493
674.00,0.0507
673.00,0.0520
672.00,0.0531
671.00,0.0539
670.00,0.0542
669.00,0.0542
668.00,0.0539
667.00,0.0537
666.00,0.0536
665.00,0.0537
664.00,0.0542
663.00,0.0551
662.00,0.0559
661.00,0.0563
660.00,0.0563
659.00,0.0558
658.00,0.0551
657.00,0.0543
656.00,0.0538
655.00,0.0535
654.00,0.0533
653.00,0.0533
652.00,0.0533
651.00,0.0533
650.00,0.0533
649.00,0.0534
648.00,0.0535
647.00,0.0536
646.00,0.0535
645.00,0.0534
644.00,0.0532
643.00,0.0529
642.00,0.0526
641.00,0.0523
640.00,0.0519
639.00,0.0516
638.00,0.0514
637.00,0.0512
636.00,0.0510
635.00,0.0508
634.00,0.0507
633.00,0.0505
632.00,0.0504
631.00,0.0503
630.00,0.0503
629.00,0.0504
628.00,0.0505
627.00,0.0508
626.00,0.0512
625.00,0.0518
624.00,0.0525
623.00,0.0533
622.00,0.0541
621.00,0.0549
620.00,0.0554
619.00,0.0555
618.00,0.0551
617.00,0.0542
616.00,0.0531
615.00,0.0518
614.00,0.0506
613.00,0.0498
612.00,0.0495
611.00,0.0496
610.00,0.0501
609.00,0.0512
608.00,0.0528
607.00,0.0549
606.00,0.0573
605.00,0.0596
604.00,0.0616
603.00,0.0629
602.00,0.0637
601.00,0.0642
600.00,0.0644
599.00,0.0645
598.00,0.0644
597.00,0.0643
596.00,0.0643
595.00,0.0642
594.00,0.0642
593.00,0.0640
592.00,0.0638
591.00,0.0634
590.00,0.0631
589.00,0.0628
588.00,0.0626
587.00,0.0625
586.00,0.0626
585.00,0.0628
584.00,0.0632
583.00,0.0637
582.00,0.0645
581.00,0.0654
580.00,0.0666
579.00,0.0682
578.00,0.0700
577.00,0.0717
576.00,0.0727
575.00,0.0725
574.00,0.0712
573.00,0.0696
572.00,0.0679
571.00,0.0664
570.00,0.0651
569.00,0.0640
568.00,0.0634
567.00,0.0632
566.00,0.0636
565.00,0.0643
564.00,0.0653
563.00,0.0665
562.00,0.0679
561.00,0.0691
560.00,0.0701
559.00,0.0703
558.00,0.0697
557.00,0.0685
556.00,0.0673
555.00,0.0661
554.00,0.0652
553.00,0.0648
552.00,0.0648
551.00,0.0653
550.00,0.0663
549.00,0.0678
548.00,0.0693
547.00,0.0706
546.00,0.0713
545.00,0.0714
544.00,0.0708
543.00,0.0698
542.00,0.0684
541.00,0.0670
540.00,0.0657
539.00,0.0648
538.00,0.0641
537.00,0.0639
536.00,0.0642
535.00,0.0649
534.00,0.0661
533.00,0.0675
532.00,0.0689
531.00,0.0697
530.00,0.0697
529.00,0.0688
528.00,0.0675
527.00,0.0659
526.00,0.0643
525.00,0.0627
524.00,0.0614
523.00,0.0603
522.00,0.0596
521.00,0.0591
520.00,0.0587
519.00,0.0583
518.00,0.0579
517.00,0.0576
516.00,0.0574
515.00,0.0573
514.00,0.0570
513.00,0.0568
512.00,0.0568
511.00,0.0570
510.00,0.0574
509.00,0.0579
508.00,0.0583
507.00,0.0588
506.00,0.0590
505.00,0.0590
504.00,0.0586
503.00,0.0581
502.00,0.0576
501.00,0.0571
500.00,0.0567
499.00,0.0565
498.00,0.0563
497.00,0.0563
496.00,0.0565
495.00,0.0569
494.00,0.0574
493.00,0.0580
492.00,0.0585
491.00,0.0585
490.00,0.0582
489.00,0.0577
488.00,0.0572
487.00,0.0568
486.00,0.0566
485.00,0.0565
484.00,0.0563
483.00,0.0561
482.00,0.0560
481.00,0.0558
480.00,0.0557
479.00,0.0554
478.00,0.0551
477.00,0.0549
476.00,0.0547
475.00,0.0545
474.00,0.0542
473.00,0.0539
472.00,0.0538
471.00,0.0540
470.00,0.0542
469.00,0.0543
468.00,0.0543
467.00,0.0541
466.00,0.0537
465.00,0.0533
464.00,0.0530
463.00,0.0530
462.00,0.0532
461.00,0.0532
460.00,0.0531
459.00,0.0527
458.00,0.0524
457.00,0.0524
456.00,0.0525
455.00,0.0526
454.00,0.0526
453.00,0.0525
452.00,0.0526
451.00,0.0527
450.00,0.0526
449.00,0.0523
448.00,0.0518
447.00,0.0514
446.00,0.0511
445.00,0.0511
444.00,0.0513
443.00,0.0516
442.00,0.0517
441.00,0.0514
440.00,0.0510
439.00,0.0506
438.00,0.0502
437.00,0.0499
436.00,0.0496
435.00,0.0491
434.00,0.0486
433.00,0.0479
432.00,0.0474
431.00,0.0472
430.00,0.0474
429.00,0.0476
428.00,0.0476
427.00,0.0474
426.00,0.0471
425.00,0.0467
424.00,0.0464
423.00,0.0459
422.00,0.0454
421.00,0.0451
420.00,0.0450
419.00,0.0451
418.00,0.0452
417.00,0.0452
416.00,0.0453
415.00,0.0454
414.00,0.0458
413.00,0.0465
412.00,0.0474
411.00,0.0481
410.00,0.0481
409.00,0.0473
408.00,0.0462
407.00,0.0452
406.00,0.0451
405.00,0.0461
404.00,0.0477
403.00,0.0489
402.00,0.0488
401.00,0.0477
400.00,0.0462
