Created as New Dataset,Sample 554 By YargerLab Date Thursday, June 05 2025
cm-1,A
4000.00,0.0014
3999.00,0.0014
3998.00,0.0014
3997.00,0.0014
3996.00,0.0014
3995.00,0.0014
3994.00,0.0014
3993.00,0.0015
3992.00,0.0015
3991.00,0.0015
3990.00,0.0015
3989.00,0.0015
3988.00,0.0015
3987.00,0.0014
3986.00,0.0014
3985.00,0.0014
3984.00,0.0014
3983.00,0.0014
3982.00,0.0014
3981.00,0.0014
3980.00,0.0014
3979.00,0.0014
3978.00,0.0014
3977.00,0.0014
3976.00,0.0013
3975.00,0.0013
3974.00,0.0013
3973.00,0.0013
3972.00,0.0013
3971.00,0.0014
3970.00,0.0014
3969.00,0.0014
3968.00,0.0014
3967.00,0.0014
3966.00,0.0014
3965.00,0.0014
3964.00,0.0014
3963.00,0.0014
3962.00,0.0014
3961.00,0.0014
3960.00,0.0014
3959.00,0.0014
3958.00,0.0014
3957.00,0.0014
3956.00,0.0014
3955.00,0.0014
3954.00,0.0014
3953.00,0.0014
3952.00,0.0014
3951.00,0.0013
3950.00,0.0013
3949.00,0.0012
3948.00,0.0012
3947.00,0.0012
3946.00,0.0012
3945.00,0.0012
3944.00,0.0012
3943.00,0.0013
3942.00,0.0013
3941.00,0.0013
3940.00,0.0013
3939.00,0.0014
3938.00,0.0014
3937.00,0.0014
3936.00,0.0013
3935.00,0.0013
3934.00,0.0012
3933.00,0.0012
3932.00,0.0012
3931.00,0.0012
3930.00,0.0012
3929.00,0.0012
3928.00,0.0013
3927.00,0.0013
3926.00,0.0013
3925.00,0.0013
3924.00,0.0013
3923.00,0.0012
3922.00,0.0012
3921.00,0.0012
3920.00,0.0011
3919.00,0.0011
3918.00,0.0010
3917.00,0.0010
3916.00,0.0011
3915.00,0.0011
3914.00,0.0012
3913.00,0.0012
3912.00,0.0012
3911.00,0.0013
3910.00,0.0013
3909.00,0.0013
3908.00,0.0013
3907.00,0.0013
3906.00,0.0013
3905.00,0.0012
3904.00,0.0011
3903.00,0.0009
3902.00,0.0008
3901.00,0.0008
3900.00,0.0008
3899.00,0.0009
3898.00,0.0010
3897.00,0.0010
3896.00,0.0010
3895.00,0.0011
3894.00,0.0011
3893.00,0.0012
3892.00,0.0012
3891.00,0.0012
3890.00,0.0011
3889.00,0.0011
3888.00,0.0010
3887.00,0.0009
3886.00,0.0009
3885.00,0.0010
3884.00,0.0010
3883.00,0.0010
3882.00,0.0009
3881.00,0.0009
3880.00,0.0009
3879.00,0.0010
3878.00,0.0010
3877.00,0.0010
3876.00,0.0011
3875.00,0.0011
3874.00,0.0012
3873.00,0.0012
3872.00,0.0010
3871.00,0.0009
3870.00,0.0008
3869.00,0.0007
3868.00,0.0007
3867.00,0.0007
3866.00,0.0006
3865.00,0.0007
3864.00,0.0008
3863.00,0.0008
3862.00,0.0008
3861.00,0.0008
3860.00,0.0009
3859.00,0.0010
3858.00,0.0011
3857.00,0.0012
3856.00,0.0012
3855.00,0.0011
3854.00,0.0010
3853.00,0.0009
3852.00,0.0008
3851.00,0.0008
3850.00,0.0008
3849.00,0.0008
3848.00,0.0008
3847.00,0.0008
3846.00,0.0009
3845.00,0.0010
3844.00,0.0010
3843.00,0.0010
3842.00,0.0011
3841.00,0.0010
3840.00,0.0010
3839.00,0.0010
3838.00,0.0010
3837.00,0.0010
3836.00,0.0010
3835.00,0.0009
3834.00,0.0009
3833.00,0.0009
3832.00,0.0009
3831.00,0.0009
3830.00,0.0010
3829.00,0.0010
3828.00,0.0010
3827.00,0.0010
3826.00,0.0010
3825.00,0.0010
3824.00,0.0010
3823.00,0.0009
3822.00,0.0008
3821.00,0.0008
3820.00,0.0009
3819.00,0.0009
3818.00,0.0009
3817.00,0.0009
3816.00,0.0009
3815.00,0.0010
3814.00,0.0010
3813.00,0.0011
3812.00,0.0011
3811.00,0.0011
3810.00,0.0011
3809.00,0.0011
3808.00,0.0011
3807.00,0.0011
3806.00,0.0011
3805.00,0.0011
3804.00,0.0010
3803.00,0.0010
3802.00,0.0010
3801.00,0.0010
3800.00,0.0010
3799.00,0.0010
3798.00,0.0009
3797.00,0.0009
3796.00,0.0010
3795.00,0.0010
3794.00,0.0011
3793.00,0.0011
3792.00,0.0012
3791.00,0.0012
3790.00,0.0013
3789.00,0.0013
3788.00,0.0013
3787.00,0.0013
3786.00,0.0012
3785.00,0.0012
3784.00,0.0012
3783.00,0.0012
3782.00,0.0011
3781.00,0.0011
3780.00,0.0011
3779.00,0.0011
3778.00,0.0011
3777.00,0.0012
3776.00,0.0012
3775.00,0.0012
3774.00,0.0013
3773.00,0.0013
3772.00,0.0012
3771.00,0.0012
3770.00,0.0011
3769.00,0.0011
3768.00,0.0011
3767.00,0.0011
3766.00,0.0011
3765.00,0.0011
3764.00,0.0012
3763.00,0.0012
3762.00,0.0011
3761.00,0.0011
3760.00,0.0011
3759.00,0.0011
3758.00,0.0010
3757.00,0.0010
3756.00,0.0010
3755.00,0.0010
3754.00,0.0010
3753.00,0.0009
3752.00,0.0008
3751.00,0.0007
3750.00,0.0005
3749.00,0.0006
3748.00,0.0006
3747.00,0.0006
3746.00,0.0005
3745.00,0.0005
3744.00,0.0006
3743.00,0.0007
3742.00,0.0007
3741.00,0.0007
3740.00,0.0006
3739.00,0.0006
3738.00,0.0006
3737.00,0.0006
3736.00,0.0006
3735.00,0.0005
3734.00,0.0004
3733.00,0.0004
3732.00,0.0004
3731.00,0.0005
3730.00,0.0007
3729.00,0.0008
3728.00,0.0008
3727.00,0.0008
3726.00,0.0008
3725.00,0.0009
3724.00,0.0009
3723.00,0.0009
3722.00,0.0009
3721.00,0.0009
3720.00,0.0010
3719.00,0.0010
3718.00,0.0010
3717.00,0.0011
3716.00,0.0011
3715.00,0.0011
3714.00,0.0010
3713.00,0.0010
3712.00,0.0010
3711.00,0.0010
3710.00,0.0010
3709.00,0.0010
3708.00,0.0011
3707.00,0.0011
3706.00,0.0012
3705.00,0.0012
3704.00,0.0013
3703.00,0.0013
3702.00,0.0013
3701.00,0.0013
3700.00,0.0013
3699.00,0.0013
3698.00,0.0013
3697.00,0.0014
3696.00,0.0014
3695.00,0.0014
3694.00,0.0014
3693.00,0.0015
3692.00,0.0015
3691.00,0.0015
3690.00,0.0015
3689.00,0.0014
3688.00,0.0013
3687.00,0.0014
3686.00,0.0014
3685.00,0.0015
3684.00,0.0016
3683.00,0.0016
3682.00,0.0017
3681.00,0.0018
3680.00,0.0018
3679.00,0.0018
3678.00,0.0018
3677.00,0.0017
3676.00,0.0017
3675.00,0.0018
3674.00,0.0018
3673.00,0.0019
3672.00,0.0019
3671.00,0.0019
3670.00,0.0020
3669.00,0.0022
3668.00,0.0023
3667.00,0.0023
3666.00,0.0024
3665.00,0.0025
3664.00,0.0026
3663.00,0.0027
3662.00,0.0028
3661.00,0.0029
3660.00,0.0030
3659.00,0.0030
3658.00,0.0031
3657.00,0.0031
3656.00,0.0032
3655.00,0.0033
3654.00,0.0033
3653.00,0.0033
3652.00,0.0032
3651.00,0.0033
3650.00,0.0033
3649.00,0.0034
3648.00,0.0035
3647.00,0.0036
3646.00,0.0037
3645.00,0.0039
3644.00,0.0040
3643.00,0.0042
3642.00,0.0044
3641.00,0.0046
3640.00,0.0047
3639.00,0.0048
3638.00,0.0049
3637.00,0.0050
3636.00,0.0050
3635.00,0.0051
3634.00,0.0052
3633.00,0.0052
3632.00,0.0053
3631.00,0.0053
3630.00,0.0054
3629.00,0.0056
3628.00,0.0059
3627.00,0.0060
3626.00,0.0061
3625.00,0.0062
3624.00,0.0063
3623.00,0.0064
3622.00,0.0065
3621.00,0.0066
3620.00,0.0067
3619.00,0.0069
3618.00,0.0070
3617.00,0.0071
3616.00,0.0071
3615.00,0.0072
3614.00,0.0073
3613.00,0.0075
3612.00,0.0076
3611.00,0.0077
3610.00,0.0078
3609.00,0.0079
3608.00,0.0082
3607.00,0.0084
3606.00,0.0086
3605.00,0.0087
3604.00,0.0088
3603.00,0.0089
3602.00,0.0090
3601.00,0.0092
3600.00,0.0093
3599.00,0.0094
3598.00,0.0095
3597.00,0.0096
3596.00,0.0098
3595.00,0.0099
3594.00,0.0101
3593.00,0.0102
3592.00,0.0103
3591.00,0.0103
3590.00,0.0103
3589.00,0.0104
3588.00,0.0107
3587.00,0.0110
3586.00,0.0112
3585.00,0.0114
3584.00,0.0116
3583.00,0.0117
3582.00,0.0117
3581.00,0.0119
3580.00,0.0120
3579.00,0.0121
3578.00,0.0123
3577.00,0.0125
3576.00,0.0127
3575.00,0.0128
3574.00,0.0130
3573.00,0.0131
3572.00,0.0131
3571.00,0.0131
3570.00,0.0130
3569.00,0.0131
3568.00,0.0133
3567.00,0.0136
3566.00,0.0139
3565.00,0.0141
3564.00,0.0143
3563.00,0.0144
3562.00,0.0146
3561.00,0.0147
3560.00,0.0149
3559.00,0.0151
3558.00,0.0152
3557.00,0.0153
3556.00,0.0155
3555.00,0.0156
3554.00,0.0157
3553.00,0.0158
3552.00,0.0160
3551.00,0.0161
3550.00,0.0162
3549.00,0.0162
3548.00,0.0163
3547.00,0.0165
3546.00,0.0167
3545.00,0.0170
3544.00,0.0172
3543.00,0.0174
3542.00,0.0175
3541.00,0.0176
3540.00,0.0177
3539.00,0.0179
3538.00,0.0180
3537.00,0.0182
3536.00,0.0183
3535.00,0.0185
3534.00,0.0187
3533.00,0.0187
3532.00,0.0188
3531.00,0.0189
3530.00,0.0190
3529.00,0.0191
3528.00,0.0192
3527.00,0.0193
3526.00,0.0194
3525.00,0.0195
3524.00,0.0197
3523.00,0.0199
3522.00,0.0201
3521.00,0.0203
3520.00,0.0204
3519.00,0.0206
3518.00,0.0207
3517.00,0.0208
3516.00,0.0210
3515.00,0.0211
3514.00,0.0212
3513.00,0.0213
3512.00,0.0214
3511.00,0.0215
3510.00,0.0216
3509.00,0.0218
3508.00,0.0220
3507.00,0.0221
3506.00,0.0221
3505.00,0.0222
3504.00,0.0224
3503.00,0.0226
3502.00,0.0228
3501.00,0.0230
3500.00,0.0231
3499.00,0.0232
3498.00,0.0233
3497.00,0.0235
3496.00,0.0236
3495.00,0.0237
3494.00,0.0239
3493.00,0.0241
3492.00,0.0242
3491.00,0.0243
3490.00,0.0244
3489.00,0.0246
3488.00,0.0248
3487.00,0.0250
3486.00,0.0251
3485.00,0.0252
3484.00,0.0253
3483.00,0.0254
3482.00,0.0256
3481.00,0.0258
3480.00,0.0260
3479.00,0.0261
3478.00,0.0262
3477.00,0.0263
3476.00,0.0264
3475.00,0.0266
3474.00,0.0268
3473.00,0.0269
3472.00,0.0271
3471.00,0.0272
3470.00,0.0273
3469.00,0.0275
3468.00,0.0276
3467.00,0.0278
3466.00,0.0279
3465.00,0.0281
3464.00,0.0282
3463.00,0.0283
3462.00,0.0284
3461.00,0.0286
3460.00,0.0287
3459.00,0.0289
3458.00,0.0290
3457.00,0.0291
3456.00,0.0292
3455.00,0.0294
3454.00,0.0295
3453.00,0.0297
3452.00,0.0298
3451.00,0.0299
3450.00,0.0300
3449.00,0.0301
3448.00,0.0303
3447.00,0.0304
3446.00,0.0306
3445.00,0.0308
3444.00,0.0310
3443.00,0.0311
3442.00,0.0313
3441.00,0.0314
3440.00,0.0316
3439.00,0.0317
3438.00,0.0319
3437.00,0.0320
3436.00,0.0322
3435.00,0.0324
3434.00,0.0325
3433.00,0.0327
3432.00,0.0328
3431.00,0.0329
3430.00,0.0331
3429.00,0.0332
3428.00,0.0334
3427.00,0.0335
3426.00,0.0337
3425.00,0.0338
3424.00,0.0339
3423.00,0.0341
3422.00,0.0342
3421.00,0.0344
3420.00,0.0346
3419.00,0.0348
3418.00,0.0349
3417.00,0.0351
3416.00,0.0352
3415.00,0.0353
3414.00,0.0355
3413.00,0.0356
3412.00,0.0358
3411.00,0.0359
3410.00,0.0361
3409.00,0.0362
3408.00,0.0364
3407.00,0.0366
3406.00,0.0367
3405.00,0.0369
3404.00,0.0370
3403.00,0.0371
3402.00,0.0372
3401.00,0.0373
3400.00,0.0375
3399.00,0.0376
3398.00,0.0378
3397.00,0.0380
3396.00,0.0381
3395.00,0.0382
3394.00,0.0384
3393.00,0.0385
3392.00,0.0387
3391.00,0.0389
3390.00,0.0390
3389.00,0.0392
3388.00,0.0393
3387.00,0.0395
3386.00,0.0396
3385.00,0.0398
3384.00,0.0400
3383.00,0.0402
3382.00,0.0403
3381.00,0.0405
3380.00,0.0406
3379.00,0.0408
3378.00,0.0409
3377.00,0.0411
3376.00,0.0413
3375.00,0.0415
3374.00,0.0417
3373.00,0.0419
3372.00,0.0420
3371.00,0.0421
3370.00,0.0423
3369.00,0.0425
3368.00,0.0427
3367.00,0.0429
3366.00,0.0432
3365.00,0.0434
3364.00,0.0436
3363.00,0.0439
3362.00,0.0441
3361.00,0.0443
3360.00,0.0445
3359.00,0.0448
3358.00,0.0450
3357.00,0.0452
3356.00,0.0455
3355.00,0.0457
3354.00,0.0459
3353.00,0.0461
3352.00,0.0463
3351.00,0.0466
3350.00,0.0468
3349.00,0.0471
3348.00,0.0474
3347.00,0.0476
3346.00,0.0479
3345.00,0.0481
3344.00,0.0484
3343.00,0.0486
3342.00,0.0489
3341.00,0.0491
3340.00,0.0494
3339.00,0.0496
3338.00,0.0500
3337.00,0.0503
3336.00,0.0507
3335.00,0.0511
3334.00,0.0514
3333.00,0.0517
3332.00,0.0519
3331.00,0.0522
3330.00,0.0525
3329.00,0.0528
3328.00,0.0531
3327.00,0.0535
3326.00,0.0538
3325.00,0.0543
3324.00,0.0547
3323.00,0.0551
3322.00,0.0556
3321.00,0.0560
3320.00,0.0564
3319.00,0.0568
3318.00,0.0572
3317.00,0.0576
3316.00,0.0580
3315.00,0.0584
3314.00,0.0587
3313.00,0.0591
3312.00,0.0595
3311.00,0.0598
3310.00,0.0602
3309.00,0.0606
3308.00,0.0610
3307.00,0.0615
3306.00,0.0620
3305.00,0.0626
3304.00,0.0631
3303.00,0.0637
3302.00,0.0642
3301.00,0.0646
3300.00,0.0650
3299.00,0.0654
3298.00,0.0658
3297.00,0.0662
3296.00,0.0667
3295.00,0.0671
3294.00,0.0675
3293.00,0.0680
3292.00,0.0685
3291.00,0.0690
3290.00,0.0695
3289.00,0.0699
3288.00,0.0703
3287.00,0.0707
3286.00,0.0710
3285.00,0.0713
3284.00,0.0716
3283.00,0.0720
3282.00,0.0722
3281.00,0.0725
3280.00,0.0727
3279.00,0.0728
3278.00,0.0729
3277.00,0.0730
3276.00,0.0730
3275.00,0.0730
3274.00,0.0729
3273.00,0.0728
3272.00,0.0728
3271.00,0.0727
3270.00,0.0726
3269.00,0.0726
3268.00,0.0725
3267.00,0.0723
3266.00,0.0720
3265.00,0.0717
3264.00,0.0714
3263.00,0.0711
3262.00,0.0707
3261.00,0.0703
3260.00,0.0699
3259.00,0.0694
3258.00,0.0689
3257.00,0.0684
3256.00,0.0680
3255.00,0.0676
3254.00,0.0672
3253.00,0.0668
3252.00,0.0664
3251.00,0.0659
3250.00,0.0654
3249.00,0.0648
3248.00,0.0642
3247.00,0.0638
3246.00,0.0634
3245.00,0.0631
3244.00,0.0628
3243.00,0.0624
3242.00,0.0620
3241.00,0.0616
3240.00,0.0612
3239.00,0.0608
3238.00,0.0604
3237.00,0.0599
3236.00,0.0594
3235.00,0.0590
3234.00,0.0586
3233.00,0.0583
3232.00,0.0581
3231.00,0.0579
3230.00,0.0577
3229.00,0.0574
3228.00,0.0571
3227.00,0.0568
3226.00,0.0565
3225.00,0.0561
3224.00,0.0558
3223.00,0.0555
3222.00,0.0551
3221.00,0.0548
3220.00,0.0546
3219.00,0.0543
3218.00,0.0540
3217.00,0.0537
3216.00,0.0534
3215.00,0.0532
3214.00,0.0530
3213.00,0.0527
3212.00,0.0525
3211.00,0.0522
3210.00,0.0520
3209.00,0.0517
3208.00,0.0515
3207.00,0.0512
3206.00,0.0509
3205.00,0.0507
3204.00,0.0504
3203.00,0.0502
3202.00,0.0499
3201.00,0.0496
3200.00,0.0493
3199.00,0.0491
3198.00,0.0488
3197.00,0.0486
3196.00,0.0483
3195.00,0.0481
3194.00,0.0478
3193.00,0.0476
3192.00,0.0473
3191.00,0.0471
3190.00,0.0468
3189.00,0.0466
3188.00,0.0463
3187.00,0.0461
3186.00,0.0458
3185.00,0.0456
3184.00,0.0454
3183.00,0.0451
3182.00,0.0449
3181.00,0.0446
3180.00,0.0444
3179.00,0.0442
3178.00,0.0440
3177.00,0.0437
3176.00,0.0435
3175.00,0.0433
3174.00,0.0431
3173.00,0.0429
3172.00,0.0426
3171.00,0.0424
3170.00,0.0422
3169.00,0.0419
3168.00,0.0417
3167.00,0.0415
3166.00,0.0413
3165.00,0.0411
3164.00,0.0409
3163.00,0.0407
3162.00,0.0405
3161.00,0.0403
3160.00,0.0401
3159.00,0.0399
3158.00,0.0397
3157.00,0.0395
3156.00,0.0392
3155.00,0.0390
3154.00,0.0388
3153.00,0.0386
3152.00,0.0384
3151.00,0.0383
3150.00,0.0382
3149.00,0.0381
3148.00,0.0380
3147.00,0.0378
3146.00,0.0377
3145.00,0.0375
3144.00,0.0373
3143.00,0.0370
3142.00,0.0368
3141.00,0.0367
3140.00,0.0366
3139.00,0.0365
3138.00,0.0364
3137.00,0.0363
3136.00,0.0362
3135.00,0.0361
3134.00,0.0360
3133.00,0.0359
3132.00,0.0357
3131.00,0.0356
3130.00,0.0355
3129.00,0.0355
3128.00,0.0354
3127.00,0.0354
3126.00,0.0353
3125.00,0.0352
3124.00,0.0350
3123.00,0.0349
3122.00,0.0347
3121.00,0.0346
3120.00,0.0345
3119.00,0.0345
3118.00,0.0345
3117.00,0.0345
3116.00,0.0346
3115.00,0.0347
3114.00,0.0348
3113.00,0.0348
3112.00,0.0348
3111.00,0.0348
3110.00,0.0348
3109.00,0.0348
3108.00,0.0349
3107.00,0.0350
3106.00,0.0351
3105.00,0.0351
3104.00,0.0351
3103.00,0.0351
3102.00,0.0351
3101.00,0.0352
3100.00,0.0353
3099.00,0.0354
3098.00,0.0355
3097.00,0.0356
3096.00,0.0358
3095.00,0.0358
3094.00,0.0359
3093.00,0.0359
3092.00,0.0359
3091.00,0.0359
3090.00,0.0359
3089.00,0.0360
3088.00,0.0360
3087.00,0.0360
3086.00,0.0360
3085.00,0.0360
3084.00,0.0360
3083.00,0.0360
3082.00,0.0359
3081.00,0.0359
3080.00,0.0359
3079.00,0.0359
3078.00,0.0360
3077.00,0.0360
3076.00,0.0361
3075.00,0.0362
3074.00,0.0362
3073.00,0.0361
3072.00,0.0361
3071.00,0.0359
3070.00,0.0358
3069.00,0.0356
3068.00,0.0355
3067.00,0.0354
3066.00,0.0353
3065.00,0.0353
3064.00,0.0353
3063.00,0.0352
3062.00,0.0351
3061.00,0.0350
3060.00,0.0348
3059.00,0.0345
3058.00,0.0343
3057.00,0.0341
3056.00,0.0339
3055.00,0.0337
3054.00,0.0335
3053.00,0.0333
3052.00,0.0330
3051.00,0.0328
3050.00,0.0327
3049.00,0.0325
3048.00,0.0324
3047.00,0.0321
3046.00,0.0319
3045.00,0.0317
3044.00,0.0315
3043.00,0.0313
3042.00,0.0311
3041.00,0.0310
3040.00,0.0309
3039.00,0.0308
3038.00,0.0307
3037.00,0.0305
3036.00,0.0302
3035.00,0.0300
3034.00,0.0299
3033.00,0.0298
3032.00,0.0297
3031.00,0.0297
3030.00,0.0296
3029.00,0.0295
3028.00,0.0293
3027.00,0.0291
3026.00,0.0289
3025.00,0.0287
3024.00,0.0285
3023.00,0.0284
3022.00,0.0282
3021.00,0.0280
3020.00,0.0278
3019.00,0.0276
3018.00,0.0274
3017.00,0.0273
3016.00,0.0271
3015.00,0.0269
3014.00,0.0267
3013.00,0.0265
3012.00,0.0264
3011.00,0.0264
3010.00,0.0264
3009.00,0.0263
3008.00,0.0263
3007.00,0.0262
3006.00,0.0261
3005.00,0.0260
3004.00,0.0259
3003.00,0.0258
3002.00,0.0257
3001.00,0.0256
3000.00,0.0256
2999.00,0.0255
2998.00,0.0255
2997.00,0.0256
2996.00,0.0256
2995.00,0.0257
2994.00,0.0259
2993.00,0.0260
2992.00,0.0263
2991.00,0.0265
2990.00,0.0268
2989.00,0.0271
2988.00,0.0274
2987.00,0.0276
2986.00,0.0279
2985.00,0.0280
2984.00,0.0282
2983.00,0.0283
2982.00,0.0285
2981.00,0.0289
2980.00,0.0294
2979.00,0.0300
2978.00,0.0306
2977.00,0.0312
2976.00,0.0318
2975.00,0.0324
2974.00,0.0329
2973.00,0.0334
2972.00,0.0339
2971.00,0.0344
2970.00,0.0349
2969.00,0.0354
2968.00,0.0360
2967.00,0.0364
2966.00,0.0368
2965.00,0.0372
2964.00,0.0375
2963.00,0.0377
2962.00,0.0379
2961.00,0.0379
2960.00,0.0379
2959.00,0.0379
2958.00,0.0377
2957.00,0.0375
2956.00,0.0373
2955.00,0.0370
2954.00,0.0367
2953.00,0.0364
2952.00,0.0361
2951.00,0.0359
2950.00,0.0357
2949.00,0.0356
2948.00,0.0355
2947.00,0.0356
2946.00,0.0357
2945.00,0.0359
2944.00,0.0363
2943.00,0.0367
2942.00,0.0371
2941.00,0.0375
2940.00,0.0380
2939.00,0.0384
2938.00,0.0388
2937.00,0.0392
2936.00,0.0396
2935.00,0.0399
2934.00,0.0402
2933.00,0.0404
2932.00,0.0405
2931.00,0.0406
2930.00,0.0407
2929.00,0.0408
2928.00,0.0408
2927.00,0.0408
2926.00,0.0407
2925.00,0.0406
2924.00,0.0404
2923.00,0.0401
2922.00,0.0398
2921.00,0.0393
2920.00,0.0388
2919.00,0.0383
2918.00,0.0377
2917.00,0.0370
2916.00,0.0364
2915.00,0.0358
2914.00,0.0351
2913.00,0.0345
2912.00,0.0340
2911.00,0.0335
2910.00,0.0330
2909.00,0.0325
2908.00,0.0321
2907.00,0.0317
2906.00,0.0313
2905.00,0.0310
2904.00,0.0306
2903.00,0.0303
2902.00,0.0301
2901.00,0.0298
2900.00,0.0295
2899.00,0.0292
2898.00,0.0289
2897.00,0.0287
2896.00,0.0284
2895.00,0.0282
2894.00,0.0280
2893.00,0.0279
2892.00,0.0278
2891.00,0.0276
2890.00,0.0275
2889.00,0.0274
2888.00,0.0274
2887.00,0.0274
2886.00,0.0274
2885.00,0.0275
2884.00,0.0276
2883.00,0.0278
2882.00,0.0280
2881.00,0.0282
2880.00,0.0284
2879.00,0.0286
2878.00,0.0288
2877.00,0.0289
2876.00,0.0289
2875.00,0.0289
2874.00,0.0289
2873.00,0.0288
2872.00,0.0286
2871.00,0.0284
2870.00,0.0282
2869.00,0.0279
2868.00,0.0276
2867.00,0.0272
2866.00,0.0269
2865.00,0.0267
2864.00,0.0264
2863.00,0.0263
2862.00,0.0262
2861.00,0.0261
2860.00,0.0261
2859.00,0.0261
2858.00,0.0261
2857.00,0.0261
2856.00,0.0261
2855.00,0.0261
2854.00,0.0260
2853.00,0.0258
2852.00,0.0255
2851.00,0.0252
2850.00,0.0247
2849.00,0.0242
2848.00,0.0237
2847.00,0.0232
2846.00,0.0227
2845.00,0.0222
2844.00,0.0218
2843.00,0.0214
2842.00,0.0210
2841.00,0.0207
2840.00,0.0204
2839.00,0.0202
2838.00,0.0200
2837.00,0.0198
2836.00,0.0197
2835.00,0.0195
2834.00,0.0194
2833.00,0.0193
2832.00,0.0192
2831.00,0.0191
2830.00,0.0190
2829.00,0.0190
2828.00,0.0189
2827.00,0.0188
2826.00,0.0186
2825.00,0.0185
2824.00,0.0185
2823.00,0.0184
2822.00,0.0184
2821.00,0.0184
2820.00,0.0183
2819.00,0.0183
2818.00,0.0182
2817.00,0.0181
2816.00,0.0180
2815.00,0.0179
2814.00,0.0178
2813.00,0.0178
2812.00,0.0177
2811.00,0.0177
2810.00,0.0176
2809.00,0.0176
2808.00,0.0175
2807.00,0.0175
2806.00,0.0174
2805.00,0.0174
2804.00,0.0173
2803.00,0.0173
2802.00,0.0172
2801.00,0.0171
2800.00,0.0171
2799.00,0.0170
2798.00,0.0169
2797.00,0.0169
2796.00,0.0168
2795.00,0.0168
2794.00,0.0167
2793.00,0.0166
2792.00,0.0165
2791.00,0.0165
2790.00,0.0164
2789.00,0.0163
2788.00,0.0163
2787.00,0.0163
2786.00,0.0162
2785.00,0.0162
2784.00,0.0161
2783.00,0.0161
2782.00,0.0160
2781.00,0.0160
2780.00,0.0159
2779.00,0.0158
2778.00,0.0157
2777.00,0.0156
2776.00,0.0156
2775.00,0.0155
2774.00,0.0154
2773.00,0.0154
2772.00,0.0153
2771.00,0.0153
2770.00,0.0152
2769.00,0.0152
2768.00,0.0152
2767.00,0.0151
2766.00,0.0151
2765.00,0.0150
2764.00,0.0149
2763.00,0.0149
2762.00,0.0148
2761.00,0.0147
2760.00,0.0147
2759.00,0.0146
2758.00,0.0146
2757.00,0.0145
2756.00,0.0144
2755.00,0.0144
2754.00,0.0143
2753.00,0.0143
2752.00,0.0142
2751.00,0.0141
2750.00,0.0141
2749.00,0.0140
2748.00,0.0140
2747.00,0.0139
2746.00,0.0139
2745.00,0.0138
2744.00,0.0138
2743.00,0.0137
2742.00,0.0137
2741.00,0.0136
2740.00,0.0136
2739.00,0.0135
2738.00,0.0135
2737.00,0.0134
2736.00,0.0133
2735.00,0.0133
2734.00,0.0132
2733.00,0.0132
2732.00,0.0131
2731.00,0.0131
2730.00,0.0130
2729.00,0.0130
2728.00,0.0129
2727.00,0.0129
2726.00,0.0128
2725.00,0.0127
2724.00,0.0127
2723.00,0.0126
2722.00,0.0126
2721.00,0.0126
2720.00,0.0125
2719.00,0.0125
2718.00,0.0124
2717.00,0.0123
2716.00,0.0123
2715.00,0.0123
2714.00,0.0122
2713.00,0.0122
2712.00,0.0122
2711.00,0.0121
2710.00,0.0120
2709.00,0.0120
2708.00,0.0120
2707.00,0.0119
2706.00,0.0119
2705.00,0.0119
2704.00,0.0119
2703.00,0.0118
2702.00,0.0118
2701.00,0.0117
2700.00,0.0117
2699.00,0.0117
2698.00,0.0117
2697.00,0.0116
2696.00,0.0116
2695.00,0.0116
2694.00,0.0115
2693.00,0.0115
2692.00,0.0115
2691.00,0.0115
2690.00,0.0115
2689.00,0.0114
2688.00,0.0114
2687.00,0.0114
2686.00,0.0114
2685.00,0.0114
2684.00,0.0113
2683.00,0.0113
2682.00,0.0112
2681.00,0.0112
2680.00,0.0112
2679.00,0.0112
2678.00,0.0112
2677.00,0.0112
2676.00,0.0111
2675.00,0.0111
2674.00,0.0111
2673.00,0.0111
2672.00,0.0111
2671.00,0.0110
2670.00,0.0110
2669.00,0.0110
2668.00,0.0110
2667.00,0.0110
2666.00,0.0111
2665.00,0.0111
2664.00,0.0112
2663.00,0.0112
2662.00,0.0112
2661.00,0.0112
2660.00,0.0112
2659.00,0.0112
2658.00,0.0112
2657.00,0.0112
2656.00,0.0112
2655.00,0.0112
2654.00,0.0112
2653.00,0.0112
2652.00,0.0112
2651.00,0.0112
2650.00,0.0111
2649.00,0.0111
2648.00,0.0111
2647.00,0.0111
2646.00,0.0110
2645.00,0.0110
2644.00,0.0110
2643.00,0.0110
2642.00,0.0110
2641.00,0.0110
2640.00,0.0109
2639.00,0.0109
2638.00,0.0109
2637.00,0.0108
2636.00,0.0108
2635.00,0.0108
2634.00,0.0107
2633.00,0.0107
2632.00,0.0107
2631.00,0.0107
2630.00,0.0106
2629.00,0.0106
2628.00,0.0106
2627.00,0.0106
2626.00,0.0106
2625.00,0.0105
2624.00,0.0105
2623.00,0.0104
2622.00,0.0104
2621.00,0.0104
2620.00,0.0104
2619.00,0.0104
2618.00,0.0104
2617.00,0.0104
2616.00,0.0103
2615.00,0.0103
2614.00,0.0102
2613.00,0.0101
2612.00,0.0101
2611.00,0.0100
2610.00,0.0100
2609.00,0.0100
2608.00,0.0100
2607.00,0.0099
2606.00,0.0099
2605.00,0.0098
2604.00,0.0098
2603.00,0.0098
2602.00,0.0097
2601.00,0.0097
2600.00,0.0097
2599.00,0.0097
2598.00,0.0097
2597.00,0.0097
2596.00,0.0097
2595.00,0.0096
2594.00,0.0096
2593.00,0.0096
2592.00,0.0095
2591.00,0.0094
2590.00,0.0094
2589.00,0.0093
2588.00,0.0093
2587.00,0.0092
2586.00,0.0092
2585.00,0.0092
2584.00,0.0092
2583.00,0.0092
2582.00,0.0091
2581.00,0.0091
2580.00,0.0090
2579.00,0.0089
2578.00,0.0089
2577.00,0.0089
2576.00,0.0089
2575.00,0.0089
2574.00,0.0089
2573.00,0.0088
2572.00,0.0088
2571.00,0.0087
2570.00,0.0087
2569.00,0.0087
2568.00,0.0087
2567.00,0.0087
2566.00,0.0087
2565.00,0.0087
2564.00,0.0086
2563.00,0.0086
2562.00,0.0086
2561.00,0.0085
2560.00,0.0085
2559.00,0.0085
2558.00,0.0085
2557.00,0.0085
2556.00,0.0085
2555.00,0.0084
2554.00,0.0084
2553.00,0.0083
2552.00,0.0083
2551.00,0.0083
2550.00,0.0082
2549.00,0.0082
2548.00,0.0081
2547.00,0.0081
2546.00,0.0081
2545.00,0.0081
2544.00,0.0081
2543.00,0.0081
2542.00,0.0080
2541.00,0.0080
2540.00,0.0080
2539.00,0.0079
2538.00,0.0079
2537.00,0.0079
2536.00,0.0079
2535.00,0.0079
2534.00,0.0079
2533.00,0.0079
2532.00,0.0078
2531.00,0.0078
2530.00,0.0078
2529.00,0.0077
2528.00,0.0077
2527.00,0.0077
2526.00,0.0077
2525.00,0.0077
2524.00,0.0077
2523.00,0.0076
2522.00,0.0076
2521.00,0.0075
2520.00,0.0075
2519.00,0.0076
2518.00,0.0076
2517.00,0.0075
2516.00,0.0075
2515.00,0.0073
2514.00,0.0072
2513.00,0.0071
2512.00,0.0071
2511.00,0.0072
2510.00,0.0072
2509.00,0.0073
2508.00,0.0073
2507.00,0.0073
2506.00,0.0073
2505.00,0.0073
2504.00,0.0073
2503.00,0.0072
2502.00,0.0072
2501.00,0.0072
2500.00,0.0072
2499.00,0.0071
2498.00,0.0071
2497.00,0.0071
2496.00,0.0071
2495.00,0.0071
2494.00,0.0071
2493.00,0.0070
2492.00,0.0070
2491.00,0.0070
2490.00,0.0069
2489.00,0.0069
2488.00,0.0069
2487.00,0.0069
2486.00,0.0068
2485.00,0.0068
2484.00,0.0068
2483.00,0.0068
2482.00,0.0067
2481.00,0.0067
2480.00,0.0067
2479.00,0.0068
2478.00,0.0068
2477.00,0.0067
2476.00,0.0067
2475.00,0.0066
2474.00,0.0066
2473.00,0.0066
2472.00,0.0065
2471.00,0.0065
2470.00,0.0065
2469.00,0.0065
2468.00,0.0065
2467.00,0.0065
2466.00,0.0064
2465.00,0.0064
2464.00,0.0065
2463.00,0.0065
2462.00,0.0065
2461.00,0.0065
2460.00,0.0066
2459.00,0.0066
2458.00,0.0066
2457.00,0.0065
2456.00,0.0065
2455.00,0.0064
2454.00,0.0064
2453.00,0.0064
2452.00,0.0063
2451.00,0.0063
2450.00,0.0063
2449.00,0.0063
2448.00,0.0063
2447.00,0.0063
2446.00,0.0062
2445.00,0.0062
2444.00,0.0061
2443.00,0.0061
2442.00,0.0060
2441.00,0.0060
2440.00,0.0060
2439.00,0.0059
2438.00,0.0059
2437.00,0.0059
2436.00,0.0059
2435.00,0.0058
2434.00,0.0058
2433.00,0.0058
2432.00,0.0058
2431.00,0.0057
2430.00,0.0057
2429.00,0.0057
2428.00,0.0057
2427.00,0.0056
2426.00,0.0055
2425.00,0.0055
2424.00,0.0055
2423.00,0.0055
2422.00,0.0055
2421.00,0.0055
2420.00,0.0055
2419.00,0.0055
2418.00,0.0055
2417.00,0.0055
2416.00,0.0054
2415.00,0.0054
2414.00,0.0053
2413.00,0.0052
2412.00,0.0052
2411.00,0.0051
2410.00,0.0051
2409.00,0.0050
2408.00,0.0050
2407.00,0.0049
2406.00,0.0049
2405.00,0.0049
2404.00,0.0049
2403.00,0.0049
2402.00,0.0049
2401.00,0.0049
2400.00,0.0049
2399.00,0.0049
2398.00,0.0048
2397.00,0.0048
2396.00,0.0048
2395.00,0.0048
2394.00,0.0047
2393.00,0.0047
2392.00,0.0047
2391.00,0.0047
2390.00,0.0047
2389.00,0.0047
2388.00,0.0046
2387.00,0.0046
2386.00,0.0045
2385.00,0.0045
2384.00,0.0044
2383.00,0.0043
2382.00,0.0043
2381.00,0.0042
2380.00,0.0042
2379.00,0.0042
2378.00,0.0042
2377.00,0.0042
2376.00,0.0042
2375.00,0.0042
2374.00,0.0042
2373.00,0.0041
2372.00,0.0041
2371.00,0.0041
2370.00,0.0040
2369.00,0.0040
2368.00,0.0040
2367.00,0.0040
2366.00,0.0041
2365.00,0.0041
2364.00,0.0041
2363.00,0.0041
2362.00,0.0041
2361.00,0.0041
2360.00,0.0041
2359.00,0.0040
2358.00,0.0040
2357.00,0.0041
2356.00,0.0041
2355.00,0.0041
2354.00,0.0041
2353.00,0.0040
2352.00,0.0039
2351.00,0.0038
2350.00,0.0039
2349.00,0.0041
2348.00,0.0044
2347.00,0.0046
2346.00,0.0047
2345.00,0.0046
2344.00,0.0044
2343.00,0.0044
2342.00,0.0043
2341.00,0.0043
2340.00,0.0044
2339.00,0.0044
2338.00,0.0044
2337.00,0.0044
2336.00,0.0044
2335.00,0.0043
2334.00,0.0043
2333.00,0.0043
2332.00,0.0042
2331.00,0.0042
2330.00,0.0042
2329.00,0.0044
2328.00,0.0048
2327.00,0.0053
2326.00,0.0057
2325.00,0.0058
2324.00,0.0057
2323.00,0.0055
2322.00,0.0052
2321.00,0.0050
2320.00,0.0049
2319.00,0.0048
2318.00,0.0047
2317.00,0.0047
2316.00,0.0047
2315.00,0.0047
2314.00,0.0046
2313.00,0.0045
2312.00,0.0044
2311.00,0.0043
2310.00,0.0043
2309.00,0.0043
2308.00,0.0043
2307.00,0.0043
2306.00,0.0043
2305.00,0.0043
2304.00,0.0044
2303.00,0.0044
2302.00,0.0044
2301.00,0.0044
2300.00,0.0045
2299.00,0.0046
2298.00,0.0047
2297.00,0.0047
2296.00,0.0048
2295.00,0.0049
2294.00,0.0049
2293.00,0.0050
2292.00,0.0052
2291.00,0.0053
2290.00,0.0054
2289.00,0.0055
2288.00,0.0055
2287.00,0.0055
2286.00,0.0054
2285.00,0.0054
2284.00,0.0053
2283.00,0.0052
2282.00,0.0050
2281.00,0.0049
2280.00,0.0049
2279.00,0.0049
2278.00,0.0048
2277.00,0.0047
2276.00,0.0047
2275.00,0.0046
2274.00,0.0046
2273.00,0.0047
2272.00,0.0047
2271.00,0.0046
2270.00,0.0045
2269.00,0.0044
2268.00,0.0044
2267.00,0.0043
2266.00,0.0043
2265.00,0.0042
2264.00,0.0042
2263.00,0.0042
2262.00,0.0042
2261.00,0.0043
2260.00,0.0043
2259.00,0.0043
2258.00,0.0043
2257.00,0.0041
2256.00,0.0041
2255.00,0.0040
2254.00,0.0039
2253.00,0.0040
2252.00,0.0040
2251.00,0.0040
2250.00,0.0041
2249.00,0.0041
2248.00,0.0042
2247.00,0.0042
2246.00,0.0042
2245.00,0.0042
2244.00,0.0042
2243.00,0.0042
2242.00,0.0042
2241.00,0.0042
2240.00,0.0042
2239.00,0.0041
2238.00,0.0041
2237.00,0.0041
2236.00,0.0041
2235.00,0.0041
2234.00,0.0041
2233.00,0.0041
2232.00,0.0042
2231.00,0.0043
2230.00,0.0042
2229.00,0.0041
2228.00,0.0040
2227.00,0.0040
2226.00,0.0039
2225.00,0.0039
2224.00,0.0039
2223.00,0.0039
2222.00,0.0038
2221.00,0.0038
2220.00,0.0038
2219.00,0.0038
2218.00,0.0037
2217.00,0.0037
2216.00,0.0038
2215.00,0.0038
2214.00,0.0037
2213.00,0.0036
2212.00,0.0036
2211.00,0.0036
2210.00,0.0037
2209.00,0.0038
2208.00,0.0038
2207.00,0.0037
2206.00,0.0036
2205.00,0.0035
2204.00,0.0036
2203.00,0.0038
2202.00,0.0039
2201.00,0.0039
2200.00,0.0040
2199.00,0.0041
2198.00,0.0041
2197.00,0.0041
2196.00,0.0042
2195.00,0.0042
2194.00,0.0042
2193.00,0.0042
2192.00,0.0041
2191.00,0.0040
2190.00,0.0039
2189.00,0.0040
2188.00,0.0041
2187.00,0.0041
2186.00,0.0040
2185.00,0.0038
2184.00,0.0037
2183.00,0.0035
2182.00,0.0034
2181.00,0.0033
2180.00,0.0034
2179.00,0.0035
2178.00,0.0035
2177.00,0.0034
2176.00,0.0034
2175.00,0.0034
2174.00,0.0036
2173.00,0.0038
2172.00,0.0040
2171.00,0.0042
2170.00,0.0044
2169.00,0.0047
2168.00,0.0049
2167.00,0.0050
2166.00,0.0050
2165.00,0.0051
2164.00,0.0053
2163.00,0.0052
2162.00,0.0045
2161.00,0.0029
2160.00,0.0011
2159.00,-0.0004
2158.00,-0.0011
2157.00,-0.0009
2156.00,-0.0003
2155.00,0.0002
2154.00,0.0006
2153.00,0.0009
2152.00,0.0012
2151.00,0.0015
2150.00,0.0015
2149.00,0.0015
2148.00,0.0015
2147.00,0.0014
2146.00,0.0015
2145.00,0.0017
2144.00,0.0019
2143.00,0.0018
2142.00,0.0017
2141.00,0.0017
2140.00,0.0017
2139.00,0.0018
2138.00,0.0017
2137.00,0.0016
2136.00,0.0013
2135.00,0.0011
2134.00,0.0010
2133.00,0.0012
2132.00,0.0015
2131.00,0.0018
2130.00,0.0020
2129.00,0.0022
2128.00,0.0025
2127.00,0.0026
2126.00,0.0027
2125.00,0.0027
2124.00,0.0028
2123.00,0.0029
2122.00,0.0029
2121.00,0.0030
2120.00,0.0032
2119.00,0.0034
2118.00,0.0036
2117.00,0.0037
2116.00,0.0038
2115.00,0.0038
2114.00,0.0038
2113.00,0.0038
2112.00,0.0038
2111.00,0.0038
2110.00,0.0038
2109.00,0.0038
2108.00,0.0038
2107.00,0.0037
2106.00,0.0036
2105.00,0.0036
2104.00,0.0037
2103.00,0.0038
2102.00,0.0038
2101.00,0.0039
2100.00,0.0039
2099.00,0.0038
2098.00,0.0036
2097.00,0.0034
2096.00,0.0033
2095.00,0.0032
2094.00,0.0032
2093.00,0.0034
2092.00,0.0036
2091.00,0.0037
2090.00,0.0037
2089.00,0.0037
2088.00,0.0038
2087.00,0.0038
2086.00,0.0038
2085.00,0.0039
2084.00,0.0040
2083.00,0.0040
2082.00,0.0040
2081.00,0.0040
2080.00,0.0040
2079.00,0.0039
2078.00,0.0038
2077.00,0.0038
2076.00,0.0039
2075.00,0.0040
2074.00,0.0040
2073.00,0.0040
2072.00,0.0039
2071.00,0.0038
2070.00,0.0037
2069.00,0.0037
2068.00,0.0038
2067.00,0.0038
2066.00,0.0037
2065.00,0.0036
2064.00,0.0034
2063.00,0.0033
2062.00,0.0032
2061.00,0.0032
2060.00,0.0034
2059.00,0.0035
2058.00,0.0035
2057.00,0.0035
2056.00,0.0036
2055.00,0.0037
2054.00,0.0041
2053.00,0.0046
2052.00,0.0050
2051.00,0.0049
2050.00,0.0044
2049.00,0.0039
2048.00,0.0036
2047.00,0.0034
2046.00,0.0032
2045.00,0.0032
2044.00,0.0033
2043.00,0.0034
2042.00,0.0032
2041.00,0.0031
2040.00,0.0031
2039.00,0.0031
2038.00,0.0031
2037.00,0.0031
2036.00,0.0030
2035.00,0.0028
2034.00,0.0027
2033.00,0.0027
2032.00,0.0027
2031.00,0.0026
2030.00,0.0025
2029.00,0.0025
2028.00,0.0026
2027.00,0.0027
2026.00,0.0026
2025.00,0.0025
2024.00,0.0024
2023.00,0.0023
2022.00,0.0022
2021.00,0.0023
2020.00,0.0024
2019.00,0.0024
2018.00,0.0023
2017.00,0.0022
2016.00,0.0022
2015.00,0.0021
2014.00,0.0021
2013.00,0.0023
2012.00,0.0027
2011.00,0.0028
2010.00,0.0027
2009.00,0.0024
2008.00,0.0022
2007.00,0.0020
2006.00,0.0019
2005.00,0.0019
2004.00,0.0019
2003.00,0.0019
2002.00,0.0019
2001.00,0.0022
2000.00,0.0025
1999.00,0.0027
1998.00,0.0027
1997.00,0.0028
1996.00,0.0028
1995.00,0.0028
1994.00,0.0028
1993.00,0.0029
1992.00,0.0031
1991.00,0.0033
1990.00,0.0033
1989.00,0.0033
1988.00,0.0034
1987.00,0.0034
1986.00,0.0034
1985.00,0.0036
1984.00,0.0038
1983.00,0.0041
1982.00,0.0044
1981.00,0.0046
1980.00,0.0044
1979.00,0.0037
1978.00,0.0027
1977.00,0.0020
1976.00,0.0018
1975.00,0.0017
1974.00,0.0017
1973.00,0.0017
1972.00,0.0016
1971.00,0.0015
1970.00,0.0015
1969.00,0.0017
1968.00,0.0019
1967.00,0.0020
1966.00,0.0020
1965.00,0.0022
1964.00,0.0024
1963.00,0.0024
1962.00,0.0021
1961.00,0.0018
1960.00,0.0015
1959.00,0.0014
1958.00,0.0014
1957.00,0.0017
1956.00,0.0019
1955.00,0.0020
1954.00,0.0020
1953.00,0.0022
1952.00,0.0023
1951.00,0.0023
1950.00,0.0022
1949.00,0.0022
1948.00,0.0023
1947.00,0.0024
1946.00,0.0023
1945.00,0.0024
1944.00,0.0025
1943.00,0.0025
1942.00,0.0024
1941.00,0.0023
1940.00,0.0023
1939.00,0.0023
1938.00,0.0024
1937.00,0.0024
1936.00,0.0025
1935.00,0.0025
1934.00,0.0024
1933.00,0.0024
1932.00,0.0024
1931.00,0.0024
1930.00,0.0024
1929.00,0.0024
1928.00,0.0025
1927.00,0.0026
1926.00,0.0027
1925.00,0.0028
1924.00,0.0029
1923.00,0.0029
1922.00,0.0029
1921.00,0.0030
1920.00,0.0032
1919.00,0.0032
1918.00,0.0030
1917.00,0.0027
1916.00,0.0026
1915.00,0.0026
1914.00,0.0027
1913.00,0.0028
1912.00,0.0030
1911.00,0.0031
1910.00,0.0032
1909.00,0.0032
1908.00,0.0032
1907.00,0.0031
1906.00,0.0030
1905.00,0.0030
1904.00,0.0031
1903.00,0.0031
1902.00,0.0031
1901.00,0.0032
1900.00,0.0033
1899.00,0.0033
1898.00,0.0033
1897.00,0.0033
1896.00,0.0033
1895.00,0.0032
1894.00,0.0031
1893.00,0.0032
1892.00,0.0034
1891.00,0.0035
1890.00,0.0035
1889.00,0.0033
1888.00,0.0032
1887.00,0.0031
1886.00,0.0031
1885.00,0.0032
1884.00,0.0033
1883.00,0.0032
1882.00,0.0032
1881.00,0.0032
1880.00,0.0033
1879.00,0.0033
1878.00,0.0034
1877.00,0.0034
1876.00,0.0034
1875.00,0.0034
1874.00,0.0033
1873.00,0.0034
1872.00,0.0037
1871.00,0.0039
1870.00,0.0039
1869.00,0.0037
1868.00,0.0034
1867.00,0.0031
1866.00,0.0030
1865.00,0.0031
1864.00,0.0033
1863.00,0.0034
1862.00,0.0034
1861.00,0.0034
1860.00,0.0035
1859.00,0.0034
1858.00,0.0034
1857.00,0.0034
1856.00,0.0034
1855.00,0.0034
1854.00,0.0034
1853.00,0.0034
1852.00,0.0034
1851.00,0.0035
1850.00,0.0035
1849.00,0.0036
1848.00,0.0038
1847.00,0.0040
1846.00,0.0042
1845.00,0.0041
1844.00,0.0035
1843.00,0.0029
1842.00,0.0027
1841.00,0.0030
1840.00,0.0034
1839.00,0.0037
1838.00,0.0037
1837.00,0.0038
1836.00,0.0038
1835.00,0.0038
1834.00,0.0039
1833.00,0.0041
1832.00,0.0044
1831.00,0.0045
1830.00,0.0044
1829.00,0.0040
1828.00,0.0039
1827.00,0.0040
1826.00,0.0042
1825.00,0.0043
1824.00,0.0041
1823.00,0.0040
1822.00,0.0039
1821.00,0.0040
1820.00,0.0041
1819.00,0.0040
1818.00,0.0040
1817.00,0.0039
1816.00,0.0040
1815.00,0.0040
1814.00,0.0042
1813.00,0.0044
1812.00,0.0045
1811.00,0.0046
1810.00,0.0045
1809.00,0.0044
1808.00,0.0044
1807.00,0.0045
1806.00,0.0046
1805.00,0.0048
1804.00,0.0050
1803.00,0.0053
1802.00,0.0053
1801.00,0.0052
1800.00,0.0050
1799.00,0.0048
1798.00,0.0047
1797.00,0.0049
1796.00,0.0052
1795.00,0.0056
1794.00,0.0058
1793.00,0.0057
1792.00,0.0053
1791.00,0.0048
1790.00,0.0046
1789.00,0.0048
1788.00,0.0052
1787.00,0.0056
1786.00,0.0057
1785.00,0.0057
1784.00,0.0056
1783.00,0.0057
1782.00,0.0058
1781.00,0.0060
1780.00,0.0060
1779.00,0.0059
1778.00,0.0059
1777.00,0.0061
1776.00,0.0065
1775.00,0.0068
1774.00,0.0070
1773.00,0.0068
1772.00,0.0063
1771.00,0.0059
1770.00,0.0059
1769.00,0.0062
1768.00,0.0064
1767.00,0.0064
1766.00,0.0066
1765.00,0.0070
1764.00,0.0077
1763.00,0.0081
1762.00,0.0081
1761.00,0.0079
1760.00,0.0079
1759.00,0.0083
1758.00,0.0087
1757.00,0.0090
1756.00,0.0090
1755.00,0.0092
1754.00,0.0096
1753.00,0.0102
1752.00,0.0106
1751.00,0.0107
1750.00,0.0108
1749.00,0.0112
1748.00,0.0117
1747.00,0.0122
1746.00,0.0126
1745.00,0.0132
1744.00,0.0138
1743.00,0.0144
1742.00,0.0149
1741.00,0.0153
1740.00,0.0157
1739.00,0.0158
1738.00,0.0162
1737.00,0.0169
1736.00,0.0177
1735.00,0.0180
1734.00,0.0176
1733.00,0.0172
1732.00,0.0175
1731.00,0.0185
1730.00,0.0196
1729.00,0.0203
1728.00,0.0207
1727.00,0.0211
1726.00,0.0215
1725.00,0.0219
1724.00,0.0224
1723.00,0.0228
1722.00,0.0232
1721.00,0.0238
1720.00,0.0246
1719.00,0.0249
1718.00,0.0248
1717.00,0.0247
1716.00,0.0249
1715.00,0.0254
1714.00,0.0260
1713.00,0.0268
1712.00,0.0277
1711.00,0.0285
1710.00,0.0293
1709.00,0.0303
1708.00,0.0315
1707.00,0.0330
1706.00,0.0346
1705.00,0.0364
1704.00,0.0383
1703.00,0.0400
1702.00,0.0421
1701.00,0.0453
1700.00,0.0492
1699.00,0.0521
1698.00,0.0542
1697.00,0.0567
1696.00,0.0596
1695.00,0.0618
1694.00,0.0631
1693.00,0.0644
1692.00,0.0657
1691.00,0.0671
1690.00,0.0686
1689.00,0.0701
1688.00,0.0714
1687.00,0.0722
1686.00,0.0730
1685.00,0.0752
1684.00,0.0789
1683.00,0.0820
1682.00,0.0838
1681.00,0.0854
1680.00,0.0871
1679.00,0.0887
1678.00,0.0900
1677.00,0.0915
1676.00,0.0938
1675.00,0.0966
1674.00,0.0989
1673.00,0.1004
1672.00,0.1018
1671.00,0.1038
1670.00,0.1067
1669.00,0.1100
1668.00,0.1127
1667.00,0.1143
1666.00,0.1153
1665.00,0.1165
1664.00,0.1184
1663.00,0.1214
1662.00,0.1246
1661.00,0.1271
1660.00,0.1289
1659.00,0.1303
1658.00,0.1315
1657.00,0.1320
1656.00,0.1319
1655.00,0.1318
1654.00,0.1346
1653.00,0.1414
1652.00,0.1459
1651.00,0.1463
1650.00,0.1454
1649.00,0.1448
1648.00,0.1454
1647.00,0.1482
1646.00,0.1513
1645.00,0.1529
1644.00,0.1532
1643.00,0.1532
1642.00,0.1534
1641.00,0.1538
1640.00,0.1543
1639.00,0.1545
1638.00,0.1547
1637.00,0.1563
1636.00,0.1609
1635.00,0.1666
1634.00,0.1701
1633.00,0.1715
1632.00,0.1723
1631.00,0.1732
1630.00,0.1749
1629.00,0.1776
1628.00,0.1811
1627.00,0.1842
1626.00,0.1862
1625.00,0.1877
1624.00,0.1899
1623.00,0.1928
1622.00,0.1946
1621.00,0.1941
1620.00,0.1916
1619.00,0.1883
1618.00,0.1853
1617.00,0.1833
1616.00,0.1814
1615.00,0.1784
1614.00,0.1739
1613.00,0.1684
1612.00,0.1626
1611.00,0.1568
1610.00,0.1513
1609.00,0.1458
1608.00,0.1403
1607.00,0.1351
1606.00,0.1301
1605.00,0.1253
1604.00,0.1207
1603.00,0.1166
1602.00,0.1129
1601.00,0.1094
1600.00,0.1060
1599.00,0.1030
1598.00,0.1003
1597.00,0.0978
1596.00,0.0954
1595.00,0.0933
1594.00,0.0915
1593.00,0.0897
1592.00,0.0880
1591.00,0.0864
1590.00,0.0852
1589.00,0.0841
1588.00,0.0831
1587.00,0.0823
1586.00,0.0818
1585.00,0.0814
1584.00,0.0811
1583.00,0.0809
1582.00,0.0811
1581.00,0.0813
1580.00,0.0813
1579.00,0.0813
1578.00,0.0815
1577.00,0.0824
1576.00,0.0838
1575.00,0.0854
1574.00,0.0867
1573.00,0.0878
1572.00,0.0886
1571.00,0.0898
1570.00,0.0921
1569.00,0.0947
1568.00,0.0965
1567.00,0.0978
1566.00,0.0993
1565.00,0.1011
1564.00,0.1027
1563.00,0.1037
1562.00,0.1039
1561.00,0.1039
1560.00,0.1058
1559.00,0.1120
1558.00,0.1181
1557.00,0.1202
1556.00,0.1209
1555.00,0.1223
1554.00,0.1243
1553.00,0.1262
1552.00,0.1278
1551.00,0.1297
1550.00,0.1321
1549.00,0.1344
1548.00,0.1357
1547.00,0.1364
1546.00,0.1373
1545.00,0.1389
1544.00,0.1406
1543.00,0.1418
1542.00,0.1429
1541.00,0.1454
1540.00,0.1500
1539.00,0.1541
1538.00,0.1556
1537.00,0.1553
1536.00,0.1545
1535.00,0.1544
1534.00,0.1561
1533.00,0.1591
1532.00,0.1609
1531.00,0.1610
1530.00,0.1604
1529.00,0.1600
1528.00,0.1601
1527.00,0.1607
1526.00,0.1613
1525.00,0.1613
1524.00,0.1605
1523.00,0.1597
1522.00,0.1604
1521.00,0.1623
1520.00,0.1633
1519.00,0.1629
1518.00,0.1623
1517.00,0.1623
1516.00,0.1624
1515.00,0.1611
1514.00,0.1586
1513.00,0.1555
1512.00,0.1523
1511.00,0.1491
1510.00,0.1454
1509.00,0.1415
1508.00,0.1382
1507.00,0.1365
1506.00,0.1349
1505.00,0.1316
1504.00,0.1279
1503.00,0.1244
1502.00,0.1210
1501.00,0.1177
1500.00,0.1146
1499.00,0.1118
1498.00,0.1090
1497.00,0.1063
1496.00,0.1035
1495.00,0.1007
1494.00,0.0979
1493.00,0.0951
1492.00,0.0925
1491.00,0.0900
1490.00,0.0877
1489.00,0.0856
1488.00,0.0835
1487.00,0.0814
1486.00,0.0792
1485.00,0.0773
1484.00,0.0756
1483.00,0.0741
1482.00,0.0729
1481.00,0.0720
1480.00,0.0712
1479.00,0.0707
1478.00,0.0703
1477.00,0.0703
1476.00,0.0706
1475.00,0.0710
1474.00,0.0716
1473.00,0.0729
1472.00,0.0746
1471.00,0.0758
1470.00,0.0765
1469.00,0.0770
1468.00,0.0773
1467.00,0.0776
1466.00,0.0778
1465.00,0.0782
1464.00,0.0786
1463.00,0.0788
1462.00,0.0789
1461.00,0.0790
1460.00,0.0793
1459.00,0.0799
1458.00,0.0812
1457.00,0.0831
1456.00,0.0845
1455.00,0.0851
1454.00,0.0853
1453.00,0.0855
1452.00,0.0855
1451.00,0.0855
1450.00,0.0854
1449.00,0.0853
1448.00,0.0853
1447.00,0.0852
1446.00,0.0849
1445.00,0.0843
1444.00,0.0838
1443.00,0.0834
1442.00,0.0829
1441.00,0.0823
1440.00,0.0817
1439.00,0.0810
1438.00,0.0802
1437.00,0.0794
1436.00,0.0786
1435.00,0.0777
1434.00,0.0766
1433.00,0.0756
1432.00,0.0746
1431.00,0.0739
1430.00,0.0732
1429.00,0.0726
1428.00,0.0720
1427.00,0.0716
1426.00,0.0714
1425.00,0.0714
1424.00,0.0717
1423.00,0.0721
1422.00,0.0723
1421.00,0.0724
1420.00,0.0729
1419.00,0.0741
1418.00,0.0753
1417.00,0.0762
1416.00,0.0769
1415.00,0.0776
1414.00,0.0782
1413.00,0.0787
1412.00,0.0793
1411.00,0.0800
1410.00,0.0806
1409.00,0.0810
1408.00,0.0813
1407.00,0.0817
1406.00,0.0822
1405.00,0.0827
1404.00,0.0830
1403.00,0.0832
1402.00,0.0832
1401.00,0.0831
1400.00,0.0833
1399.00,0.0836
1398.00,0.0839
1397.00,0.0840
1396.00,0.0841
1395.00,0.0844
1394.00,0.0847
1393.00,0.0846
1392.00,0.0845
1391.00,0.0843
1390.00,0.0842
1389.00,0.0841
1388.00,0.0839
1387.00,0.0837
1386.00,0.0833
1385.00,0.0825
1384.00,0.0816
1383.00,0.0807
1382.00,0.0798
1381.00,0.0789
1380.00,0.0781
1379.00,0.0773
1378.00,0.0766
1377.00,0.0759
1376.00,0.0753
1375.00,0.0749
1374.00,0.0748
1373.00,0.0745
1372.00,0.0741
1371.00,0.0736
1370.00,0.0731
1369.00,0.0726
1368.00,0.0720
1367.00,0.0712
1366.00,0.0703
1365.00,0.0695
1364.00,0.0688
1363.00,0.0682
1362.00,0.0678
1361.00,0.0672
1360.00,0.0666
1359.00,0.0661
1358.00,0.0657
1357.00,0.0654
1356.00,0.0651
1355.00,0.0650
1354.00,0.0649
1353.00,0.0648
1352.00,0.0647
1351.00,0.0647
1350.00,0.0646
1349.00,0.0646
1348.00,0.0646
1347.00,0.0646
1346.00,0.0646
1345.00,0.0646
1344.00,0.0646
1343.00,0.0645
1342.00,0.0645
1341.00,0.0645
1340.00,0.0645
1339.00,0.0645
1338.00,0.0645
1337.00,0.0643
1336.00,0.0640
1335.00,0.0637
1334.00,0.0635
1333.00,0.0632
1332.00,0.0631
1331.00,0.0629
1330.00,0.0628
1329.00,0.0628
1328.00,0.0627
1327.00,0.0627
1326.00,0.0628
1325.00,0.0628
1324.00,0.0629
1323.00,0.0630
1322.00,0.0631
1321.00,0.0632
1320.00,0.0633
1319.00,0.0635
1318.00,0.0637
1317.00,0.0638
1316.00,0.0639
1315.00,0.0639
1314.00,0.0640
1313.00,0.0640
1312.00,0.0640
1311.00,0.0640
1310.00,0.0639
1309.00,0.0639
1308.00,0.0638
1307.00,0.0638
1306.00,0.0637
1305.00,0.0637
1304.00,0.0636
1303.00,0.0636
1302.00,0.0636
1301.00,0.0637
1300.00,0.0637
1299.00,0.0638
1298.00,0.0639
1297.00,0.0641
1296.00,0.0643
1295.00,0.0645
1294.00,0.0648
1293.00,0.0651
1292.00,0.0653
1291.00,0.0656
1290.00,0.0659
1289.00,0.0661
1288.00,0.0664
1287.00,0.0667
1286.00,0.0670
1285.00,0.0673
1284.00,0.0675
1283.00,0.0677
1282.00,0.0680
1281.00,0.0681
1280.00,0.0683
1279.00,0.0685
1278.00,0.0686
1277.00,0.0687
1276.00,0.0688
1275.00,0.0688
1274.00,0.0689
1273.00,0.0691
1272.00,0.0692
1271.00,0.0694
1270.00,0.0697
1269.00,0.0700
1268.00,0.0703
1267.00,0.0707
1266.00,0.0711
1265.00,0.0716
1264.00,0.0721
1263.00,0.0727
1262.00,0.0734
1261.00,0.0740
1260.00,0.0747
1259.00,0.0755
1258.00,0.0762
1257.00,0.0769
1256.00,0.0776
1255.00,0.0783
1254.00,0.0790
1253.00,0.0797
1252.00,0.0804
1251.00,0.0811
1250.00,0.0819
1249.00,0.0826
1248.00,0.0833
1247.00,0.0841
1246.00,0.0848
1245.00,0.0855
1244.00,0.0862
1243.00,0.0868
1242.00,0.0875
1241.00,0.0881
1240.00,0.0887
1239.00,0.0892
1238.00,0.0897
1237.00,0.0902
1236.00,0.0905
1235.00,0.0909
1234.00,0.0912
1233.00,0.0915
1232.00,0.0916
1231.00,0.0917
1230.00,0.0917
1229.00,0.0916
1228.00,0.0915
1227.00,0.0913
1226.00,0.0911
1225.00,0.0908
1224.00,0.0905
1223.00,0.0900
1222.00,0.0895
1221.00,0.0890
1220.00,0.0883
1219.00,0.0876
1218.00,0.0869
1217.00,0.0861
1216.00,0.0853
1215.00,0.0844
1214.00,0.0835
1213.00,0.0825
1212.00,0.0815
1211.00,0.0805
1210.00,0.0796
1209.00,0.0786
1208.00,0.0777
1207.00,0.0768
1206.00,0.0759
1205.00,0.0751
1204.00,0.0743
1203.00,0.0736
1202.00,0.0728
1201.00,0.0722
1200.00,0.0715
1199.00,0.0709
1198.00,0.0704
1197.00,0.0699
1196.00,0.0694
1195.00,0.0689
1194.00,0.0685
1193.00,0.0681
1192.00,0.0677
1191.00,0.0673
1190.00,0.0670
1189.00,0.0667
1188.00,0.0664
1187.00,0.0662
1186.00,0.0660
1185.00,0.0658
1184.00,0.0657
1183.00,0.0656
1182.00,0.0655
1181.00,0.0656
1180.00,0.0657
1179.00,0.0659
1178.00,0.0663
1177.00,0.0667
1176.00,0.0671
1175.00,0.0676
1174.00,0.0681
1173.00,0.0685
1172.00,0.0689
1171.00,0.0691
1170.00,0.0693
1169.00,0.0694
1168.00,0.0694
1167.00,0.0694
1166.00,0.0696
1165.00,0.0697
1164.00,0.0699
1163.00,0.0701
1162.00,0.0704
1161.00,0.0705
1160.00,0.0707
1159.00,0.0708
1158.00,0.0710
1157.00,0.0710
1156.00,0.0709
1155.00,0.0707
1154.00,0.0705
1153.00,0.0701
1152.00,0.0697
1151.00,0.0691
1150.00,0.0685
1149.00,0.0679
1148.00,0.0672
1147.00,0.0665
1146.00,0.0658
1145.00,0.0651
1144.00,0.0645
1143.00,0.0639
1142.00,0.0633
1141.00,0.0628
1140.00,0.0623
1139.00,0.0620
1138.00,0.0617
1137.00,0.0614
1136.00,0.0613
1135.00,0.0612
1134.00,0.0613
1133.00,0.0614
1132.00,0.0615
1131.00,0.0617
1130.00,0.0620
1129.00,0.0623
1128.00,0.0626
1127.00,0.0629
1126.00,0.0632
1125.00,0.0635
1124.00,0.0637
1123.00,0.0640
1122.00,0.0642
1121.00,0.0645
1120.00,0.0647
1119.00,0.0649
1118.00,0.0652
1117.00,0.0654
1116.00,0.0656
1115.00,0.0658
1114.00,0.0660
1113.00,0.0662
1112.00,0.0663
1111.00,0.0664
1110.00,0.0666
1109.00,0.0667
1108.00,0.0669
1107.00,0.0671
1106.00,0.0673
1105.00,0.0675
1104.00,0.0677
1103.00,0.0680
1102.00,0.0683
1101.00,0.0685
1100.00,0.0687
1099.00,0.0691
1098.00,0.0695
1097.00,0.0699
1096.00,0.0704
1095.00,0.0710
1094.00,0.0716
1093.00,0.0723
1092.00,0.0731
1091.00,0.0739
1090.00,0.0748
1089.00,0.0758
1088.00,0.0768
1087.00,0.0779
1086.00,0.0790
1085.00,0.0800
1084.00,0.0810
1083.00,0.0819
1082.00,0.0828
1081.00,0.0836
1080.00,0.0842
1079.00,0.0847
1078.00,0.0851
1077.00,0.0854
1076.00,0.0855
1075.00,0.0855
1074.00,0.0855
1073.00,0.0853
1072.00,0.0852
1071.00,0.0852
1070.00,0.0852
1069.00,0.0852
1068.00,0.0852
1067.00,0.0854
1066.00,0.0857
1065.00,0.0860
1064.00,0.0864
1063.00,0.0867
1062.00,0.0871
1061.00,0.0874
1060.00,0.0877
1059.00,0.0880
1058.00,0.0883
1057.00,0.0884
1056.00,0.0884
1055.00,0.0883
1054.00,0.0883
1053.00,0.0882
1052.00,0.0880
1051.00,0.0880
1050.00,0.0879
1049.00,0.0879
1048.00,0.0877
1047.00,0.0874
1046.00,0.0872
1045.00,0.0869
1044.00,0.0866
1043.00,0.0863
1042.00,0.0860
1041.00,0.0857
1040.00,0.0853
1039.00,0.0849
1038.00,0.0846
1037.00,0.0843
1036.00,0.0840
1035.00,0.0838
1034.00,0.0836
1033.00,0.0834
1032.00,0.0832
1031.00,0.0831
1030.00,0.0829
1029.00,0.0827
1028.00,0.0823
1027.00,0.0819
1026.00,0.0814
1025.00,0.0809
1024.00,0.0803
1023.00,0.0796
1022.00,0.0789
1021.00,0.0781
1020.00,0.0773
1019.00,0.0765
1018.00,0.0757
1017.00,0.0748
1016.00,0.0740
1015.00,0.0731
1014.00,0.0723
1013.00,0.0714
1012.00,0.0705
1011.00,0.0696
1010.00,0.0687
1009.00,0.0678
1008.00,0.0669
1007.00,0.0660
1006.00,0.0653
1005.00,0.0645
1004.00,0.0637
1003.00,0.0630
1002.00,0.0623
1001.00,0.0616
1000.00,0.0608
999.00,0.0601
998.00,0.0594
997.00,0.0586
996.00,0.0578
995.00,0.0571
994.00,0.0563
993.00,0.0555
992.00,0.0546
991.00,0.0538
990.00,0.0531
989.00,0.0524
988.00,0.0517
987.00,0.0510
986.00,0.0505
985.00,0.0499
984.00,0.0495
983.00,0.0491
982.00,0.0488
981.00,0.0485
980.00,0.0483
979.00,0.0482
978.00,0.0482
977.00,0.0481
976.00,0.0481
975.00,0.0481
974.00,0.0481
973.00,0.0482
972.00,0.0482
971.00,0.0482
970.00,0.0482
969.00,0.0482
968.00,0.0482
967.00,0.0481
966.00,0.0481
965.00,0.0481
964.00,0.0480
963.00,0.0480
962.00,0.0479
961.00,0.0479
960.00,0.0477
959.00,0.0475
958.00,0.0474
957.00,0.0473
956.00,0.0472
955.00,0.0471
954.00,0.0470
953.00,0.0469
952.00,0.0468
951.00,0.0467
950.00,0.0468
949.00,0.0469
948.00,0.0470
947.00,0.0471
946.00,0.0473
945.00,0.0474
944.00,0.0476
943.00,0.0478
942.00,0.0481
941.00,0.0484
940.00,0.0487
939.00,0.0490
938.00,0.0493
937.00,0.0495
936.00,0.0497
935.00,0.0499
934.00,0.0502
933.00,0.0504
932.00,0.0505
931.00,0.0505
930.00,0.0506
929.00,0.0506
928.00,0.0505
927.00,0.0504
926.00,0.0503
925.00,0.0502
924.00,0.0500
923.00,0.0498
922.00,0.0497
921.00,0.0495
920.00,0.0492
919.00,0.0490
918.00,0.0488
917.00,0.0486
916.00,0.0483
915.00,0.0481
914.00,0.0479
913.00,0.0477
912.00,0.0476
911.00,0.0474
910.00,0.0473
909.00,0.0472
908.00,0.0470
907.00,0.0468
906.00,0.0467
905.00,0.0466
904.00,0.0466
903.00,0.0465
902.00,0.0465
901.00,0.0463
900.00,0.0462
899.00,0.0461
898.00,0.0460
897.00,0.0460
896.00,0.0459
895.00,0.0459
894.00,0.0459
893.00,0.0459
892.00,0.0458
891.00,0.0458
890.00,0.0458
889.00,0.0458
888.00,0.0458
887.00,0.0458
886.00,0.0458
885.00,0.0458
884.00,0.0457
883.00,0.0457
882.00,0.0457
881.00,0.0457
880.00,0.0456
879.00,0.0455
878.00,0.0456
877.00,0.0456
876.00,0.0455
875.00,0.0455
874.00,0.0455
873.00,0.0455
872.00,0.0455
871.00,0.0455
870.00,0.0455
869.00,0.0455
868.00,0.0456
867.00,0.0457
866.00,0.0458
865.00,0.0459
864.00,0.0460
863.00,0.0461
862.00,0.0463
861.00,0.0466
860.00,0.0469
859.00,0.0473
858.00,0.0477
857.00,0.0480
856.00,0.0483
855.00,0.0487
854.00,0.0491
853.00,0.0495
852.00,0.0497
851.00,0.0499
850.00,0.0500
849.00,0.0501
848.00,0.0501
847.00,0.0501
846.00,0.0503
845.00,0.0504
844.00,0.0505
843.00,0.0507
842.00,0.0511
841.00,0.0514
840.00,0.0518
839.00,0.0521
838.00,0.0526
837.00,0.0530
836.00,0.0534
835.00,0.0538
834.00,0.0542
833.00,0.0546
832.00,0.0550
831.00,0.0554
830.00,0.0557
829.00,0.0560
828.00,0.0561
827.00,0.0563
826.00,0.0565
825.00,0.0566
824.00,0.0567
823.00,0.0567
822.00,0.0569
821.00,0.0570
820.00,0.0570
819.00,0.0572
818.00,0.0574
817.00,0.0575
816.00,0.0577
815.00,0.0579
814.00,0.0582
813.00,0.0586
812.00,0.0590
811.00,0.0593
810.00,0.0596
809.00,0.0599
808.00,0.0601
807.00,0.0604
806.00,0.0607
805.00,0.0610
804.00,0.0613
803.00,0.0616
802.00,0.0621
801.00,0.0626
800.00,0.0630
799.00,0.0635
798.00,0.0639
797.00,0.0645
796.00,0.0650
795.00,0.0656
794.00,0.0662
793.00,0.0668
792.00,0.0674
791.00,0.0681
790.00,0.0688
789.00,0.0696
788.00,0.0702
787.00,0.0709
786.00,0.0716
785.00,0.0722
784.00,0.0727
783.00,0.0732
782.00,0.0737
781.00,0.0741
780.00,0.0744
779.00,0.0748
778.00,0.0751
777.00,0.0754
776.00,0.0756
775.00,0.0758
774.00,0.0761
773.00,0.0763
772.00,0.0765
771.00,0.0767
770.00,0.0770
769.00,0.0773
768.00,0.0775
767.00,0.0777
766.00,0.0780
765.00,0.0782
764.00,0.0785
763.00,0.0787
762.00,0.0790
761.00,0.0793
760.00,0.0796
759.00,0.0798
758.00,0.0802
757.00,0.0806
756.00,0.0809
755.00,0.0814
754.00,0.0819
753.00,0.0825
752.00,0.0829
751.00,0.0834
750.00,0.0840
749.00,0.0845
748.00,0.0849
747.00,0.0854
746.00,0.0858
745.00,0.0863
744.00,0.0867
743.00,0.0871
742.00,0.0875
741.00,0.0878
740.00,0.0882
739.00,0.0885
738.00,0.0889
737.00,0.0894
736.00,0.0899
735.00,0.0903
734.00,0.0909
733.00,0.0915
732.00,0.0922
731.00,0.0931
730.00,0.0941
729.00,0.0951
728.00,0.0961
727.00,0.0971
726.00,0.0983
725.00,0.0995
724.00,0.1006
723.00,0.1017
722.00,0.1029
721.00,0.1040
720.00,0.1051
719.00,0.1061
718.00,0.1072
717.00,0.1081
716.00,0.1089
715.00,0.1097
714.00,0.1107
713.00,0.1116
712.00,0.1125
711.00,0.1134
710.00,0.1143
709.00,0.1152
708.00,0.1161
707.00,0.1172
706.00,0.1183
705.00,0.1195
704.00,0.1206
703.00,0.1216
702.00,0.1227
701.00,0.1235
700.00,0.1242
699.00,0.1246
698.00,0.1250
697.00,0.1251
696.00,0.1251
695.00,0.1249
694.00,0.1247
693.00,0.1245
692.00,0.1242
691.00,0.1241
690.00,0.1241
689.00,0.1242
688.00,0.1242
687.00,0.1243
686.00,0.1244
685.00,0.1245
684.00,0.1245
683.00,0.1246
682.00,0.1248
681.00,0.1250
680.00,0.1251
679.00,0.1252
678.00,0.1254
677.00,0.1256
676.00,0.1258
675.00,0.1260
674.00,0.1262
673.00,0.1263
672.00,0.1261
671.00,0.1256
670.00,0.1253
669.00,0.1258
668.00,0.1273
667.00,0.1288
666.00,0.1292
665.00,0.1289
664.00,0.1285
663.00,0.1285
662.00,0.1289
661.00,0.1292
660.00,0.1294
659.00,0.1296
658.00,0.1298
657.00,0.1300
656.00,0.1301
655.00,0.1303
654.00,0.1305
653.00,0.1307
652.00,0.1308
651.00,0.1310
650.00,0.1313
649.00,0.1315
648.00,0.1317
647.00,0.1319
646.00,0.1322
645.00,0.1324
644.00,0.1327
643.00,0.1329
642.00,0.1333
641.00,0.1335
640.00,0.1337
639.00,0.1339
638.00,0.1343
637.00,0.1345
636.00,0.1348
635.00,0.1352
634.00,0.1357
633.00,0.1361
632.00,0.1365
631.00,0.1368
630.00,0.1373
629.00,0.1377
628.00,0.1379
627.00,0.1382
626.00,0.1385
625.00,0.1387
624.00,0.1389
623.00,0.1391
622.00,0.1394
621.00,0.1396
620.00,0.1396
619.00,0.1396
618.00,0.1396
617.00,0.1396
616.00,0.1395
615.00,0.1396
614.00,0.1398
613.00,0.1399
612.00,0.1400
611.00,0.1402
610.00,0.1403
609.00,0.1402
608.00,0.1400
607.00,0.1399
606.00,0.1399
605.00,0.1400
604.00,0.1401
603.00,0.1402
602.00,0.1404
601.00,0.1406
600.00,0.1407
599.00,0.1408
598.00,0.1409
597.00,0.1410
596.00,0.1410
595.00,0.1411
594.00,0.1414
593.00,0.1417
592.00,0.1420
591.00,0.1422
590.00,0.1425
589.00,0.1427
588.00,0.1428
587.00,0.1431
586.00,0.1435
585.00,0.1438
584.00,0.1439
583.00,0.1442
582.00,0.1446
581.00,0.1450
580.00,0.1454
579.00,0.1456
578.00,0.1459
577.00,0.1461
576.00,0.1462
575.00,0.1464
574.00,0.1468
573.00,0.1471
572.00,0.1471
571.00,0.1472
570.00,0.1472
569.00,0.1473
568.00,0.1475
567.00,0.1478
566.00,0.1484
565.00,0.1489
564.00,0.1491
563.00,0.1493
562.00,0.1496
561.00,0.1498
560.00,0.1500
559.00,0.1503
558.00,0.1508
557.00,0.1512
556.00,0.1515
555.00,0.1517
554.00,0.1521
553.00,0.1523
552.00,0.1525
551.00,0.1528
550.00,0.1532
549.00,0.1536
548.00,0.1538
547.00,0.1538
546.00,0.1541
545.00,0.1543
544.00,0.1545
543.00,0.1548
542.00,0.1552
541.00,0.1555
540.00,0.1556
539.00,0.1558
538.00,0.1560
537.00,0.1561
536.00,0.1560
535.00,0.1560
534.00,0.1563
533.00,0.1566
532.00,0.1567
531.00,0.1569
530.00,0.1572
529.00,0.1574
528.00,0.1574
527.00,0.1574
526.00,0.1578
525.00,0.1582
524.00,0.1584
523.00,0.1585
522.00,0.1587
521.00,0.1589
520.00,0.1588
519.00,0.1589
518.00,0.1593
517.00,0.1595
516.00,0.1595
515.00,0.1595
514.00,0.1596
513.00,0.1597
512.00,0.1597
511.00,0.1599
510.00,0.1603
509.00,0.1605
508.00,0.1606
507.00,0.1608
506.00,0.1611
505.00,0.1613
504.00,0.1611
503.00,0.1609
502.00,0.1608
501.00,0.1607
500.00,0.1605
499.00,0.1604
498.00,0.1605
497.00,0.1605
496.00,0.1603
495.00,0.1601
494.00,0.1601
493.00,0.1600
492.00,0.1598
491.00,0.1599
490.00,0.1602
489.00,0.1602
488.00,0.1598
487.00,0.1595
486.00,0.1597
485.00,0.1599
484.00,0.1597
483.00,0.1594
482.00,0.1593
481.00,0.1592
480.00,0.1589
479.00,0.1587
478.00,0.1587
477.00,0.1587
476.00,0.1585
475.00,0.1584
474.00,0.1589
473.00,0.1593
472.00,0.1592
471.00,0.1589
470.00,0.1588
469.00,0.1587
468.00,0.1584
467.00,0.1583
466.00,0.1586
465.00,0.1590
464.00,0.1592
463.00,0.1594
462.00,0.1598
461.00,0.1597
460.00,0.1590
459.00,0.1585
458.00,0.1589
457.00,0.1594
456.00,0.1593
455.00,0.1588
454.00,0.1582
453.00,0.1576
452.00,0.1570
451.00,0.1569
450.00,0.1572
449.00,0.1572
448.00,0.1566
447.00,0.1560
446.00,0.1560
445.00,0.1558
444.00,0.1553
443.00,0.1551
442.00,0.1553
441.00,0.1551
440.00,0.1541
439.00,0.1533
438.00,0.1531
437.00,0.1532
436.00,0.1529
435.00,0.1527
434.00,0.1527
433.00,0.1525
432.00,0.1520
431.00,0.1520
430.00,0.1528
429.00,0.1534
428.00,0.1533
427.00,0.1529
426.00,0.1532
425.00,0.1535
424.00,0.1533
423.00,0.1527
422.00,0.1520
421.00,0.1512
420.00,0.1507
419.00,0.1518
418.00,0.1539
417.00,0.1540
416.00,0.1521
415.00,0.1503
414.00,0.1495
413.00,0.1490
412.00,0.1482
411.00,0.1478
410.00,0.1485
409.00,0.1487
408.00,0.1478
407.00,0.1472
406.00,0.1476
405.00,0.1479
404.00,0.1468
403.00,0.1460
402.00,0.1466
401.00,0.1469
400.00,0.1454
