Created as New Dataset,Sample 828 By YargerLab Date Tuesday, July 15 2025
cm-1,A
4000.00,0.0022
3999.00,0.0022
3998.00,0.0022
3997.00,0.0021
3996.00,0.0021
3995.00,0.0021
3994.00,0.0021
3993.00,0.0021
3992.00,0.0021
3991.00,0.0021
3990.00,0.0021
3989.00,0.0021
3988.00,0.0022
3987.00,0.0022
3986.00,0.0022
3985.00,0.0022
3984.00,0.0022
3983.00,0.0022
3982.00,0.0022
3981.00,0.0022
3980.00,0.0021
3979.00,0.0022
3978.00,0.0022
3977.00,0.0022
3976.00,0.0022
3975.00,0.0022
3974.00,0.0022
3973.00,0.0022
3972.00,0.0021
3971.00,0.0021
3970.00,0.0021
3969.00,0.0021
3968.00,0.0021
3967.00,0.0021
3966.00,0.0021
3965.00,0.0021
3964.00,0.0021
3963.00,0.0021
3962.00,0.0021
3961.00,0.0021
3960.00,0.0021
3959.00,0.0021
3958.00,0.0021
3957.00,0.0021
3956.00,0.0021
3955.00,0.0021
3954.00,0.0021
3953.00,0.0021
3952.00,0.0021
3951.00,0.0021
3950.00,0.0021
3949.00,0.0021
3948.00,0.0021
3947.00,0.0021
3946.00,0.0021
3945.00,0.0021
3944.00,0.0021
3943.00,0.0021
3942.00,0.0021
3941.00,0.0021
3940.00,0.0021
3939.00,0.0021
3938.00,0.0021
3937.00,0.0021
3936.00,0.0021
3935.00,0.0021
3934.00,0.0021
3933.00,0.0021
3932.00,0.0021
3931.00,0.0021
3930.00,0.0021
3929.00,0.0021
3928.00,0.0021
3927.00,0.0021
3926.00,0.0021
3925.00,0.0021
3924.00,0.0020
3923.00,0.0020
3922.00,0.0020
3921.00,0.0020
3920.00,0.0020
3919.00,0.0020
3918.00,0.0020
3917.00,0.0021
3916.00,0.0021
3915.00,0.0021
3914.00,0.0021
3913.00,0.0021
3912.00,0.0021
3911.00,0.0021
3910.00,0.0022
3909.00,0.0022
3908.00,0.0021
3907.00,0.0021
3906.00,0.0021
3905.00,0.0021
3904.00,0.0020
3903.00,0.0020
3902.00,0.0020
3901.00,0.0019
3900.00,0.0019
3899.00,0.0020
3898.00,0.0020
3897.00,0.0020
3896.00,0.0020
3895.00,0.0020
3894.00,0.0020
3893.00,0.0020
3892.00,0.0020
3891.00,0.0021
3890.00,0.0021
3889.00,0.0021
3888.00,0.0021
3887.00,0.0020
3886.00,0.0021
3885.00,0.0021
3884.00,0.0021
3883.00,0.0020
3882.00,0.0019
3881.00,0.0019
3880.00,0.0020
3879.00,0.0020
3878.00,0.0020
3877.00,0.0019
3876.00,0.0019
3875.00,0.0020
3874.00,0.0020
3873.00,0.0020
3872.00,0.0020
3871.00,0.0019
3870.00,0.0020
3869.00,0.0020
3868.00,0.0020
3867.00,0.0019
3866.00,0.0020
3865.00,0.0020
3864.00,0.0020
3863.00,0.0020
3862.00,0.0020
3861.00,0.0020
3860.00,0.0020
3859.00,0.0021
3858.00,0.0021
3857.00,0.0021
3856.00,0.0021
3855.00,0.0020
3854.00,0.0020
3853.00,0.0020
3852.00,0.0019
3851.00,0.0019
3850.00,0.0019
3849.00,0.0020
3848.00,0.0020
3847.00,0.0021
3846.00,0.0021
3845.00,0.0020
3844.00,0.0020
3843.00,0.0021
3842.00,0.0021
3841.00,0.0021
3840.00,0.0020
3839.00,0.0020
3838.00,0.0020
3837.00,0.0020
3836.00,0.0020
3835.00,0.0020
3834.00,0.0020
3833.00,0.0020
3832.00,0.0020
3831.00,0.0020
3830.00,0.0020
3829.00,0.0020
3828.00,0.0020
3827.00,0.0021
3826.00,0.0021
3825.00,0.0021
3824.00,0.0021
3823.00,0.0020
3822.00,0.0021
3821.00,0.0021
3820.00,0.0021
3819.00,0.0021
3818.00,0.0020
3817.00,0.0021
3816.00,0.0021
3815.00,0.0021
3814.00,0.0021
3813.00,0.0021
3812.00,0.0021
3811.00,0.0021
3810.00,0.0021
3809.00,0.0021
3808.00,0.0021
3807.00,0.0022
3806.00,0.0022
3805.00,0.0022
3804.00,0.0021
3803.00,0.0021
3802.00,0.0021
3801.00,0.0021
3800.00,0.0021
3799.00,0.0020
3798.00,0.0020
3797.00,0.0020
3796.00,0.0020
3795.00,0.0020
3794.00,0.0021
3793.00,0.0021
3792.00,0.0021
3791.00,0.0022
3790.00,0.0022
3789.00,0.0022
3788.00,0.0022
3787.00,0.0021
3786.00,0.0021
3785.00,0.0022
3784.00,0.0022
3783.00,0.0022
3782.00,0.0021
3781.00,0.0021
3780.00,0.0021
3779.00,0.0021
3778.00,0.0022
3777.00,0.0022
3776.00,0.0022
3775.00,0.0022
3774.00,0.0022
3773.00,0.0022
3772.00,0.0022
3771.00,0.0021
3770.00,0.0021
3769.00,0.0021
3768.00,0.0021
3767.00,0.0021
3766.00,0.0021
3765.00,0.0021
3764.00,0.0022
3763.00,0.0022
3762.00,0.0022
3761.00,0.0022
3760.00,0.0022
3759.00,0.0022
3758.00,0.0022
3757.00,0.0022
3756.00,0.0022
3755.00,0.0022
3754.00,0.0022
3753.00,0.0023
3752.00,0.0023
3751.00,0.0022
3750.00,0.0021
3749.00,0.0021
3748.00,0.0020
3747.00,0.0019
3746.00,0.0018
3745.00,0.0019
3744.00,0.0019
3743.00,0.0019
3742.00,0.0019
3741.00,0.0019
3740.00,0.0019
3739.00,0.0020
3738.00,0.0020
3737.00,0.0019
3736.00,0.0019
3735.00,0.0019
3734.00,0.0018
3733.00,0.0018
3732.00,0.0019
3731.00,0.0019
3730.00,0.0020
3729.00,0.0020
3728.00,0.0020
3727.00,0.0020
3726.00,0.0020
3725.00,0.0020
3724.00,0.0020
3723.00,0.0020
3722.00,0.0020
3721.00,0.0020
3720.00,0.0020
3719.00,0.0020
3718.00,0.0020
3717.00,0.0021
3716.00,0.0021
3715.00,0.0021
3714.00,0.0021
3713.00,0.0021
3712.00,0.0020
3711.00,0.0020
3710.00,0.0020
3709.00,0.0020
3708.00,0.0020
3707.00,0.0020
3706.00,0.0020
3705.00,0.0020
3704.00,0.0020
3703.00,0.0020
3702.00,0.0020
3701.00,0.0021
3700.00,0.0021
3699.00,0.0021
3698.00,0.0021
3697.00,0.0021
3696.00,0.0021
3695.00,0.0021
3694.00,0.0021
3693.00,0.0021
3692.00,0.0021
3691.00,0.0021
3690.00,0.0021
3689.00,0.0021
3688.00,0.0021
3687.00,0.0021
3686.00,0.0022
3685.00,0.0022
3684.00,0.0022
3683.00,0.0023
3682.00,0.0023
3681.00,0.0023
3680.00,0.0023
3679.00,0.0024
3678.00,0.0023
3677.00,0.0023
3676.00,0.0023
3675.00,0.0023
3674.00,0.0022
3673.00,0.0022
3672.00,0.0021
3671.00,0.0021
3670.00,0.0022
3669.00,0.0022
3668.00,0.0022
3667.00,0.0022
3666.00,0.0023
3665.00,0.0023
3664.00,0.0023
3663.00,0.0023
3662.00,0.0024
3661.00,0.0024
3660.00,0.0024
3659.00,0.0024
3658.00,0.0024
3657.00,0.0025
3656.00,0.0025
3655.00,0.0025
3654.00,0.0025
3653.00,0.0024
3652.00,0.0024
3651.00,0.0024
3650.00,0.0024
3649.00,0.0025
3648.00,0.0025
3647.00,0.0026
3646.00,0.0027
3645.00,0.0027
3644.00,0.0028
3643.00,0.0029
3642.00,0.0030
3641.00,0.0030
3640.00,0.0030
3639.00,0.0030
3638.00,0.0031
3637.00,0.0031
3636.00,0.0032
3635.00,0.0032
3634.00,0.0033
3633.00,0.0033
3632.00,0.0033
3631.00,0.0033
3630.00,0.0033
3629.00,0.0034
3628.00,0.0036
3627.00,0.0036
3626.00,0.0037
3625.00,0.0037
3624.00,0.0038
3623.00,0.0038
3622.00,0.0038
3621.00,0.0039
3620.00,0.0039
3619.00,0.0040
3618.00,0.0040
3617.00,0.0040
3616.00,0.0040
3615.00,0.0041
3614.00,0.0041
3613.00,0.0042
3612.00,0.0043
3611.00,0.0044
3610.00,0.0044
3609.00,0.0045
3608.00,0.0046
3607.00,0.0047
3606.00,0.0047
3605.00,0.0047
3604.00,0.0048
3603.00,0.0048
3602.00,0.0049
3601.00,0.0050
3600.00,0.0051
3599.00,0.0051
3598.00,0.0052
3597.00,0.0052
3596.00,0.0052
3595.00,0.0053
3594.00,0.0054
3593.00,0.0054
3592.00,0.0055
3591.00,0.0054
3590.00,0.0054
3589.00,0.0055
3588.00,0.0057
3587.00,0.0058
3586.00,0.0059
3585.00,0.0060
3584.00,0.0061
3583.00,0.0062
3582.00,0.0063
3581.00,0.0063
3580.00,0.0064
3579.00,0.0065
3578.00,0.0066
3577.00,0.0067
3576.00,0.0068
3575.00,0.0069
3574.00,0.0069
3573.00,0.0070
3572.00,0.0070
3571.00,0.0070
3570.00,0.0070
3569.00,0.0070
3568.00,0.0071
3567.00,0.0073
3566.00,0.0075
3565.00,0.0076
3564.00,0.0076
3563.00,0.0077
3562.00,0.0078
3561.00,0.0078
3560.00,0.0079
3559.00,0.0080
3558.00,0.0080
3557.00,0.0081
3556.00,0.0081
3555.00,0.0082
3554.00,0.0083
3553.00,0.0084
3552.00,0.0085
3551.00,0.0085
3550.00,0.0086
3549.00,0.0086
3548.00,0.0086
3547.00,0.0087
3546.00,0.0088
3545.00,0.0089
3544.00,0.0090
3543.00,0.0091
3542.00,0.0091
3541.00,0.0092
3540.00,0.0092
3539.00,0.0092
3538.00,0.0093
3537.00,0.0093
3536.00,0.0094
3535.00,0.0095
3534.00,0.0095
3533.00,0.0096
3532.00,0.0096
3531.00,0.0096
3530.00,0.0097
3529.00,0.0097
3528.00,0.0098
3527.00,0.0099
3526.00,0.0100
3525.00,0.0101
3524.00,0.0101
3523.00,0.0102
3522.00,0.0102
3521.00,0.0103
3520.00,0.0103
3519.00,0.0104
3518.00,0.0104
3517.00,0.0105
3516.00,0.0105
3515.00,0.0106
3514.00,0.0106
3513.00,0.0107
3512.00,0.0107
3511.00,0.0107
3510.00,0.0108
3509.00,0.0108
3508.00,0.0109
3507.00,0.0109
3506.00,0.0109
3505.00,0.0109
3504.00,0.0110
3503.00,0.0111
3502.00,0.0112
3501.00,0.0113
3500.00,0.0113
3499.00,0.0113
3498.00,0.0113
3497.00,0.0114
3496.00,0.0115
3495.00,0.0115
3494.00,0.0116
3493.00,0.0116
3492.00,0.0117
3491.00,0.0117
3490.00,0.0117
3489.00,0.0118
3488.00,0.0118
3487.00,0.0119
3486.00,0.0119
3485.00,0.0119
3484.00,0.0120
3483.00,0.0120
3482.00,0.0121
3481.00,0.0122
3480.00,0.0122
3479.00,0.0123
3478.00,0.0123
3477.00,0.0123
3476.00,0.0124
3475.00,0.0124
3474.00,0.0125
3473.00,0.0125
3472.00,0.0126
3471.00,0.0126
3470.00,0.0126
3469.00,0.0126
3468.00,0.0127
3467.00,0.0127
3466.00,0.0127
3465.00,0.0127
3464.00,0.0128
3463.00,0.0128
3462.00,0.0128
3461.00,0.0129
3460.00,0.0129
3459.00,0.0129
3458.00,0.0130
3457.00,0.0130
3456.00,0.0131
3455.00,0.0131
3454.00,0.0131
3453.00,0.0132
3452.00,0.0132
3451.00,0.0132
3450.00,0.0132
3449.00,0.0132
3448.00,0.0133
3447.00,0.0133
3446.00,0.0134
3445.00,0.0134
3444.00,0.0134
3443.00,0.0134
3442.00,0.0134
3441.00,0.0134
3440.00,0.0135
3439.00,0.0135
3438.00,0.0135
3437.00,0.0136
3436.00,0.0136
3435.00,0.0136
3434.00,0.0136
3433.00,0.0136
3432.00,0.0136
3431.00,0.0137
3430.00,0.0137
3429.00,0.0137
3428.00,0.0137
3427.00,0.0137
3426.00,0.0137
3425.00,0.0137
3424.00,0.0138
3423.00,0.0138
3422.00,0.0138
3421.00,0.0138
3420.00,0.0139
3419.00,0.0139
3418.00,0.0139
3417.00,0.0139
3416.00,0.0139
3415.00,0.0140
3414.00,0.0140
3413.00,0.0140
3412.00,0.0140
3411.00,0.0140
3410.00,0.0140
3409.00,0.0140
3408.00,0.0140
3407.00,0.0141
3406.00,0.0141
3405.00,0.0141
3404.00,0.0142
3403.00,0.0142
3402.00,0.0142
3401.00,0.0142
3400.00,0.0142
3399.00,0.0142
3398.00,0.0142
3397.00,0.0143
3396.00,0.0143
3395.00,0.0143
3394.00,0.0143
3393.00,0.0143
3392.00,0.0143
3391.00,0.0144
3390.00,0.0144
3389.00,0.0145
3388.00,0.0145
3387.00,0.0145
3386.00,0.0145
3385.00,0.0146
3384.00,0.0146
3383.00,0.0146
3382.00,0.0146
3381.00,0.0146
3380.00,0.0146
3379.00,0.0147
3378.00,0.0147
3377.00,0.0147
3376.00,0.0147
3375.00,0.0148
3374.00,0.0148
3373.00,0.0147
3372.00,0.0147
3371.00,0.0146
3370.00,0.0146
3369.00,0.0146
3368.00,0.0146
3367.00,0.0147
3366.00,0.0148
3365.00,0.0149
3364.00,0.0150
3363.00,0.0150
3362.00,0.0150
3361.00,0.0150
3360.00,0.0151
3359.00,0.0151
3358.00,0.0152
3357.00,0.0152
3356.00,0.0152
3355.00,0.0152
3354.00,0.0151
3353.00,0.0151
3352.00,0.0150
3351.00,0.0150
3350.00,0.0151
3349.00,0.0152
3348.00,0.0152
3347.00,0.0153
3346.00,0.0153
3345.00,0.0153
3344.00,0.0152
3343.00,0.0152
3342.00,0.0152
3341.00,0.0152
3340.00,0.0152
3339.00,0.0152
3338.00,0.0153
3337.00,0.0154
3336.00,0.0155
3335.00,0.0156
3334.00,0.0157
3333.00,0.0157
3332.00,0.0157
3331.00,0.0157
3330.00,0.0156
3329.00,0.0156
3328.00,0.0155
3327.00,0.0154
3326.00,0.0154
3325.00,0.0155
3324.00,0.0156
3323.00,0.0157
3322.00,0.0158
3321.00,0.0159
3320.00,0.0159
3319.00,0.0159
3318.00,0.0159
3317.00,0.0159
3316.00,0.0158
3315.00,0.0158
3314.00,0.0158
3313.00,0.0158
3312.00,0.0157
3311.00,0.0156
3310.00,0.0155
3309.00,0.0154
3308.00,0.0154
3307.00,0.0154
3306.00,0.0154
3305.00,0.0156
3304.00,0.0157
3303.00,0.0159
3302.00,0.0160
3301.00,0.0160
3300.00,0.0160
3299.00,0.0160
3298.00,0.0159
3297.00,0.0158
3296.00,0.0157
3295.00,0.0157
3294.00,0.0157
3293.00,0.0158
3292.00,0.0158
3291.00,0.0159
3290.00,0.0160
3289.00,0.0161
3288.00,0.0161
3287.00,0.0161
3286.00,0.0161
3285.00,0.0161
3284.00,0.0161
3283.00,0.0161
3282.00,0.0161
3281.00,0.0161
3280.00,0.0161
3279.00,0.0161
3278.00,0.0160
3277.00,0.0160
3276.00,0.0159
3275.00,0.0159
3274.00,0.0158
3273.00,0.0158
3272.00,0.0157
3271.00,0.0157
3270.00,0.0157
3269.00,0.0158
3268.00,0.0159
3267.00,0.0159
3266.00,0.0159
3265.00,0.0159
3264.00,0.0159
3263.00,0.0159
3262.00,0.0158
3261.00,0.0158
3260.00,0.0158
3259.00,0.0157
3258.00,0.0157
3257.00,0.0157
3256.00,0.0157
3255.00,0.0157
3254.00,0.0157
3253.00,0.0157
3252.00,0.0157
3251.00,0.0157
3250.00,0.0156
3249.00,0.0156
3248.00,0.0155
3247.00,0.0155
3246.00,0.0155
3245.00,0.0155
3244.00,0.0155
3243.00,0.0155
3242.00,0.0155
3241.00,0.0155
3240.00,0.0154
3239.00,0.0154
3238.00,0.0153
3237.00,0.0153
3236.00,0.0152
3235.00,0.0152
3234.00,0.0152
3233.00,0.0152
3232.00,0.0152
3231.00,0.0152
3230.00,0.0152
3229.00,0.0152
3228.00,0.0152
3227.00,0.0151
3226.00,0.0151
3225.00,0.0151
3224.00,0.0151
3223.00,0.0150
3222.00,0.0150
3221.00,0.0150
3220.00,0.0150
3219.00,0.0150
3218.00,0.0150
3217.00,0.0149
3216.00,0.0149
3215.00,0.0149
3214.00,0.0149
3213.00,0.0149
3212.00,0.0149
3211.00,0.0149
3210.00,0.0149
3209.00,0.0149
3208.00,0.0148
3207.00,0.0148
3206.00,0.0148
3205.00,0.0148
3204.00,0.0148
3203.00,0.0148
3202.00,0.0148
3201.00,0.0147
3200.00,0.0147
3199.00,0.0147
3198.00,0.0146
3197.00,0.0146
3196.00,0.0146
3195.00,0.0145
3194.00,0.0145
3193.00,0.0145
3192.00,0.0144
3191.00,0.0144
3190.00,0.0144
3189.00,0.0143
3188.00,0.0143
3187.00,0.0143
3186.00,0.0143
3185.00,0.0142
3184.00,0.0142
3183.00,0.0141
3182.00,0.0141
3181.00,0.0140
3180.00,0.0140
3179.00,0.0140
3178.00,0.0140
3177.00,0.0139
3176.00,0.0139
3175.00,0.0139
3174.00,0.0138
3173.00,0.0138
3172.00,0.0137
3171.00,0.0137
3170.00,0.0136
3169.00,0.0136
3168.00,0.0135
3167.00,0.0135
3166.00,0.0134
3165.00,0.0134
3164.00,0.0133
3163.00,0.0133
3162.00,0.0133
3161.00,0.0132
3160.00,0.0132
3159.00,0.0131
3158.00,0.0131
3157.00,0.0130
3156.00,0.0130
3155.00,0.0129
3154.00,0.0128
3153.00,0.0128
3152.00,0.0128
3151.00,0.0127
3150.00,0.0127
3149.00,0.0127
3148.00,0.0127
3147.00,0.0126
3146.00,0.0126
3145.00,0.0125
3144.00,0.0125
3143.00,0.0125
3142.00,0.0124
3141.00,0.0124
3140.00,0.0123
3139.00,0.0123
3138.00,0.0123
3137.00,0.0123
3136.00,0.0122
3135.00,0.0122
3134.00,0.0121
3133.00,0.0121
3132.00,0.0120
3131.00,0.0120
3130.00,0.0120
3129.00,0.0119
3128.00,0.0119
3127.00,0.0119
3126.00,0.0118
3125.00,0.0118
3124.00,0.0117
3123.00,0.0117
3122.00,0.0116
3121.00,0.0116
3120.00,0.0115
3119.00,0.0115
3118.00,0.0115
3117.00,0.0114
3116.00,0.0113
3115.00,0.0113
3114.00,0.0112
3113.00,0.0112
3112.00,0.0111
3111.00,0.0111
3110.00,0.0111
3109.00,0.0110
3108.00,0.0110
3107.00,0.0110
3106.00,0.0109
3105.00,0.0108
3104.00,0.0108
3103.00,0.0107
3102.00,0.0107
3101.00,0.0107
3100.00,0.0106
3099.00,0.0106
3098.00,0.0105
3097.00,0.0104
3096.00,0.0104
3095.00,0.0103
3094.00,0.0103
3093.00,0.0102
3092.00,0.0102
3091.00,0.0101
3090.00,0.0101
3089.00,0.0100
3088.00,0.0100
3087.00,0.0099
3086.00,0.0099
3085.00,0.0099
3084.00,0.0098
3083.00,0.0098
3082.00,0.0097
3081.00,0.0096
3080.00,0.0096
3079.00,0.0095
3078.00,0.0095
3077.00,0.0095
3076.00,0.0094
3075.00,0.0094
3074.00,0.0094
3073.00,0.0093
3072.00,0.0093
3071.00,0.0093
3070.00,0.0093
3069.00,0.0092
3068.00,0.0092
3067.00,0.0092
3066.00,0.0091
3065.00,0.0091
3064.00,0.0091
3063.00,0.0091
3062.00,0.0090
3061.00,0.0090
3060.00,0.0090
3059.00,0.0090
3058.00,0.0089
3057.00,0.0089
3056.00,0.0089
3055.00,0.0088
3054.00,0.0088
3053.00,0.0088
3052.00,0.0087
3051.00,0.0087
3050.00,0.0087
3049.00,0.0087
3048.00,0.0087
3047.00,0.0086
3046.00,0.0086
3045.00,0.0085
3044.00,0.0085
3043.00,0.0085
3042.00,0.0085
3041.00,0.0084
3040.00,0.0084
3039.00,0.0084
3038.00,0.0084
3037.00,0.0084
3036.00,0.0084
3035.00,0.0084
3034.00,0.0083
3033.00,0.0083
3032.00,0.0083
3031.00,0.0083
3030.00,0.0083
3029.00,0.0083
3028.00,0.0083
3027.00,0.0083
3026.00,0.0083
3025.00,0.0083
3024.00,0.0084
3023.00,0.0084
3022.00,0.0084
3021.00,0.0084
3020.00,0.0084
3019.00,0.0085
3018.00,0.0085
3017.00,0.0085
3016.00,0.0085
3015.00,0.0085
3014.00,0.0085
3013.00,0.0086
3012.00,0.0087
3011.00,0.0087
3010.00,0.0088
3009.00,0.0089
3008.00,0.0090
3007.00,0.0091
3006.00,0.0092
3005.00,0.0093
3004.00,0.0094
3003.00,0.0096
3002.00,0.0097
3001.00,0.0099
3000.00,0.0101
2999.00,0.0103
2998.00,0.0105
2997.00,0.0108
2996.00,0.0111
2995.00,0.0113
2994.00,0.0116
2993.00,0.0119
2992.00,0.0122
2991.00,0.0126
2990.00,0.0129
2989.00,0.0133
2988.00,0.0136
2987.00,0.0139
2986.00,0.0141
2985.00,0.0142
2984.00,0.0142
2983.00,0.0143
2982.00,0.0144
2981.00,0.0146
2980.00,0.0150
2979.00,0.0154
2978.00,0.0159
2977.00,0.0163
2976.00,0.0167
2975.00,0.0171
2974.00,0.0174
2973.00,0.0177
2972.00,0.0180
2971.00,0.0184
2970.00,0.0188
2969.00,0.0193
2968.00,0.0197
2967.00,0.0202
2966.00,0.0206
2965.00,0.0210
2964.00,0.0214
2963.00,0.0218
2962.00,0.0221
2961.00,0.0225
2960.00,0.0227
2959.00,0.0230
2958.00,0.0232
2957.00,0.0234
2956.00,0.0235
2955.00,0.0236
2954.00,0.0237
2953.00,0.0238
2952.00,0.0238
2951.00,0.0238
2950.00,0.0238
2949.00,0.0237
2948.00,0.0236
2947.00,0.0236
2946.00,0.0236
2945.00,0.0237
2944.00,0.0238
2943.00,0.0240
2942.00,0.0242
2941.00,0.0244
2940.00,0.0246
2939.00,0.0249
2938.00,0.0252
2937.00,0.0255
2936.00,0.0258
2935.00,0.0262
2934.00,0.0265
2933.00,0.0268
2932.00,0.0271
2931.00,0.0273
2930.00,0.0276
2929.00,0.0278
2928.00,0.0280
2927.00,0.0282
2926.00,0.0284
2925.00,0.0284
2924.00,0.0285
2923.00,0.0285
2922.00,0.0285
2921.00,0.0284
2920.00,0.0282
2919.00,0.0280
2918.00,0.0278
2917.00,0.0275
2916.00,0.0272
2915.00,0.0269
2914.00,0.0265
2913.00,0.0262
2912.00,0.0258
2911.00,0.0254
2910.00,0.0250
2909.00,0.0246
2908.00,0.0242
2907.00,0.0238
2906.00,0.0234
2905.00,0.0231
2904.00,0.0228
2903.00,0.0225
2902.00,0.0223
2901.00,0.0221
2900.00,0.0219
2899.00,0.0217
2898.00,0.0216
2897.00,0.0214
2896.00,0.0213
2895.00,0.0212
2894.00,0.0211
2893.00,0.0210
2892.00,0.0209
2891.00,0.0208
2890.00,0.0207
2889.00,0.0206
2888.00,0.0205
2887.00,0.0204
2886.00,0.0203
2885.00,0.0202
2884.00,0.0201
2883.00,0.0201
2882.00,0.0201
2881.00,0.0201
2880.00,0.0202
2879.00,0.0202
2878.00,0.0202
2877.00,0.0202
2876.00,0.0202
2875.00,0.0203
2874.00,0.0203
2873.00,0.0203
2872.00,0.0204
2871.00,0.0204
2870.00,0.0204
2869.00,0.0204
2868.00,0.0203
2867.00,0.0203
2866.00,0.0203
2865.00,0.0202
2864.00,0.0203
2863.00,0.0203
2862.00,0.0203
2861.00,0.0204
2860.00,0.0205
2859.00,0.0206
2858.00,0.0206
2857.00,0.0205
2856.00,0.0204
2855.00,0.0202
2854.00,0.0199
2853.00,0.0195
2852.00,0.0191
2851.00,0.0186
2850.00,0.0181
2849.00,0.0176
2848.00,0.0171
2847.00,0.0167
2846.00,0.0162
2845.00,0.0158
2844.00,0.0153
2843.00,0.0148
2842.00,0.0144
2841.00,0.0139
2840.00,0.0135
2839.00,0.0131
2838.00,0.0128
2837.00,0.0125
2836.00,0.0122
2835.00,0.0119
2834.00,0.0116
2833.00,0.0113
2832.00,0.0110
2831.00,0.0108
2830.00,0.0105
2829.00,0.0103
2828.00,0.0101
2827.00,0.0098
2826.00,0.0096
2825.00,0.0093
2824.00,0.0091
2823.00,0.0089
2822.00,0.0087
2821.00,0.0085
2820.00,0.0083
2819.00,0.0081
2818.00,0.0079
2817.00,0.0077
2816.00,0.0076
2815.00,0.0075
2814.00,0.0074
2813.00,0.0073
2812.00,0.0072
2811.00,0.0071
2810.00,0.0070
2809.00,0.0069
2808.00,0.0068
2807.00,0.0068
2806.00,0.0067
2805.00,0.0066
2804.00,0.0066
2803.00,0.0065
2802.00,0.0064
2801.00,0.0064
2800.00,0.0063
2799.00,0.0063
2798.00,0.0062
2797.00,0.0062
2796.00,0.0061
2795.00,0.0061
2794.00,0.0061
2793.00,0.0061
2792.00,0.0060
2791.00,0.0060
2790.00,0.0060
2789.00,0.0059
2788.00,0.0059
2787.00,0.0059
2786.00,0.0059
2785.00,0.0058
2784.00,0.0058
2783.00,0.0058
2782.00,0.0058
2781.00,0.0058
2780.00,0.0057
2779.00,0.0057
2778.00,0.0057
2777.00,0.0057
2776.00,0.0056
2775.00,0.0056
2774.00,0.0055
2773.00,0.0055
2772.00,0.0055
2771.00,0.0055
2770.00,0.0055
2769.00,0.0055
2768.00,0.0055
2767.00,0.0055
2766.00,0.0054
2765.00,0.0054
2764.00,0.0054
2763.00,0.0054
2762.00,0.0054
2761.00,0.0054
2760.00,0.0054
2759.00,0.0054
2758.00,0.0054
2757.00,0.0054
2756.00,0.0054
2755.00,0.0054
2754.00,0.0054
2753.00,0.0054
2752.00,0.0054
2751.00,0.0054
2750.00,0.0054
2749.00,0.0054
2748.00,0.0054
2747.00,0.0054
2746.00,0.0054
2745.00,0.0054
2744.00,0.0055
2743.00,0.0055
2742.00,0.0055
2741.00,0.0055
2740.00,0.0055
2739.00,0.0055
2738.00,0.0055
2737.00,0.0055
2736.00,0.0055
2735.00,0.0056
2734.00,0.0056
2733.00,0.0056
2732.00,0.0056
2731.00,0.0056
2730.00,0.0056
2729.00,0.0055
2728.00,0.0055
2727.00,0.0055
2726.00,0.0055
2725.00,0.0055
2724.00,0.0056
2723.00,0.0055
2722.00,0.0055
2721.00,0.0055
2720.00,0.0055
2719.00,0.0055
2718.00,0.0055
2717.00,0.0054
2716.00,0.0054
2715.00,0.0054
2714.00,0.0054
2713.00,0.0054
2712.00,0.0054
2711.00,0.0054
2710.00,0.0054
2709.00,0.0053
2708.00,0.0053
2707.00,0.0053
2706.00,0.0053
2705.00,0.0053
2704.00,0.0053
2703.00,0.0053
2702.00,0.0053
2701.00,0.0053
2700.00,0.0052
2699.00,0.0053
2698.00,0.0053
2697.00,0.0053
2696.00,0.0053
2695.00,0.0052
2694.00,0.0052
2693.00,0.0052
2692.00,0.0052
2691.00,0.0051
2690.00,0.0051
2689.00,0.0051
2688.00,0.0051
2687.00,0.0051
2686.00,0.0051
2685.00,0.0051
2684.00,0.0050
2683.00,0.0050
2682.00,0.0050
2681.00,0.0050
2680.00,0.0050
2679.00,0.0050
2678.00,0.0050
2677.00,0.0050
2676.00,0.0050
2675.00,0.0049
2674.00,0.0049
2673.00,0.0049
2672.00,0.0049
2671.00,0.0049
2670.00,0.0049
2669.00,0.0049
2668.00,0.0049
2667.00,0.0049
2666.00,0.0050
2665.00,0.0050
2664.00,0.0051
2663.00,0.0052
2662.00,0.0052
2661.00,0.0052
2660.00,0.0053
2659.00,0.0053
2658.00,0.0053
2657.00,0.0053
2656.00,0.0053
2655.00,0.0053
2654.00,0.0053
2653.00,0.0053
2652.00,0.0053
2651.00,0.0053
2650.00,0.0053
2649.00,0.0053
2648.00,0.0052
2647.00,0.0052
2646.00,0.0052
2645.00,0.0052
2644.00,0.0052
2643.00,0.0052
2642.00,0.0052
2641.00,0.0051
2640.00,0.0051
2639.00,0.0051
2638.00,0.0051
2637.00,0.0051
2636.00,0.0051
2635.00,0.0050
2634.00,0.0050
2633.00,0.0050
2632.00,0.0049
2631.00,0.0049
2630.00,0.0049
2629.00,0.0049
2628.00,0.0049
2627.00,0.0049
2626.00,0.0048
2625.00,0.0048
2624.00,0.0048
2623.00,0.0048
2622.00,0.0048
2621.00,0.0047
2620.00,0.0047
2619.00,0.0047
2618.00,0.0047
2617.00,0.0047
2616.00,0.0047
2615.00,0.0047
2614.00,0.0046
2613.00,0.0046
2612.00,0.0046
2611.00,0.0045
2610.00,0.0044
2609.00,0.0044
2608.00,0.0044
2607.00,0.0044
2606.00,0.0045
2605.00,0.0045
2604.00,0.0044
2603.00,0.0044
2602.00,0.0044
2601.00,0.0044
2600.00,0.0044
2599.00,0.0044
2598.00,0.0044
2597.00,0.0044
2596.00,0.0044
2595.00,0.0044
2594.00,0.0044
2593.00,0.0044
2592.00,0.0044
2591.00,0.0044
2590.00,0.0043
2589.00,0.0043
2588.00,0.0043
2587.00,0.0043
2586.00,0.0042
2585.00,0.0042
2584.00,0.0043
2583.00,0.0043
2582.00,0.0043
2581.00,0.0043
2580.00,0.0043
2579.00,0.0043
2578.00,0.0043
2577.00,0.0043
2576.00,0.0042
2575.00,0.0042
2574.00,0.0042
2573.00,0.0041
2572.00,0.0041
2571.00,0.0041
2570.00,0.0041
2569.00,0.0041
2568.00,0.0041
2567.00,0.0041
2566.00,0.0041
2565.00,0.0041
2564.00,0.0040
2563.00,0.0040
2562.00,0.0040
2561.00,0.0040
2560.00,0.0040
2559.00,0.0039
2558.00,0.0039
2557.00,0.0039
2556.00,0.0038
2555.00,0.0038
2554.00,0.0038
2553.00,0.0038
2552.00,0.0038
2551.00,0.0039
2550.00,0.0039
2549.00,0.0039
2548.00,0.0038
2547.00,0.0038
2546.00,0.0037
2545.00,0.0037
2544.00,0.0037
2543.00,0.0037
2542.00,0.0037
2541.00,0.0036
2540.00,0.0036
2539.00,0.0036
2538.00,0.0036
2537.00,0.0036
2536.00,0.0036
2535.00,0.0036
2534.00,0.0036
2533.00,0.0036
2532.00,0.0036
2531.00,0.0036
2530.00,0.0036
2529.00,0.0036
2528.00,0.0036
2527.00,0.0036
2526.00,0.0036
2525.00,0.0036
2524.00,0.0035
2523.00,0.0035
2522.00,0.0035
2521.00,0.0035
2520.00,0.0035
2519.00,0.0035
2518.00,0.0034
2517.00,0.0034
2516.00,0.0034
2515.00,0.0034
2514.00,0.0034
2513.00,0.0034
2512.00,0.0034
2511.00,0.0034
2510.00,0.0034
2509.00,0.0034
2508.00,0.0034
2507.00,0.0033
2506.00,0.0033
2505.00,0.0033
2504.00,0.0032
2503.00,0.0032
2502.00,0.0032
2501.00,0.0032
2500.00,0.0032
2499.00,0.0032
2498.00,0.0032
2497.00,0.0032
2496.00,0.0033
2495.00,0.0032
2494.00,0.0032
2493.00,0.0032
2492.00,0.0031
2491.00,0.0031
2490.00,0.0031
2489.00,0.0031
2488.00,0.0032
2487.00,0.0032
2486.00,0.0032
2485.00,0.0031
2484.00,0.0031
2483.00,0.0031
2482.00,0.0031
2481.00,0.0031
2480.00,0.0030
2479.00,0.0030
2478.00,0.0030
2477.00,0.0031
2476.00,0.0031
2475.00,0.0031
2474.00,0.0031
2473.00,0.0031
2472.00,0.0031
2471.00,0.0031
2470.00,0.0031
2469.00,0.0031
2468.00,0.0031
2467.00,0.0031
2466.00,0.0031
2465.00,0.0031
2464.00,0.0031
2463.00,0.0031
2462.00,0.0031
2461.00,0.0031
2460.00,0.0031
2459.00,0.0031
2458.00,0.0031
2457.00,0.0032
2456.00,0.0032
2455.00,0.0032
2454.00,0.0032
2453.00,0.0032
2452.00,0.0032
2451.00,0.0031
2450.00,0.0031
2449.00,0.0031
2448.00,0.0031
2447.00,0.0031
2446.00,0.0031
2445.00,0.0031
2444.00,0.0030
2443.00,0.0030
2442.00,0.0030
2441.00,0.0030
2440.00,0.0030
2439.00,0.0030
2438.00,0.0030
2437.00,0.0030
2436.00,0.0030
2435.00,0.0030
2434.00,0.0030
2433.00,0.0029
2432.00,0.0029
2431.00,0.0029
2430.00,0.0029
2429.00,0.0028
2428.00,0.0028
2427.00,0.0028
2426.00,0.0028
2425.00,0.0028
2424.00,0.0028
2423.00,0.0029
2422.00,0.0029
2421.00,0.0029
2420.00,0.0029
2419.00,0.0029
2418.00,0.0028
2417.00,0.0028
2416.00,0.0028
2415.00,0.0028
2414.00,0.0028
2413.00,0.0028
2412.00,0.0029
2411.00,0.0029
2410.00,0.0029
2409.00,0.0028
2408.00,0.0028
2407.00,0.0027
2406.00,0.0027
2405.00,0.0027
2404.00,0.0027
2403.00,0.0027
2402.00,0.0026
2401.00,0.0026
2400.00,0.0026
2399.00,0.0027
2398.00,0.0026
2397.00,0.0026
2396.00,0.0026
2395.00,0.0026
2394.00,0.0026
2393.00,0.0026
2392.00,0.0026
2391.00,0.0025
2390.00,0.0025
2389.00,0.0025
2388.00,0.0025
2387.00,0.0025
2386.00,0.0024
2385.00,0.0024
2384.00,0.0023
2383.00,0.0022
2382.00,0.0022
2381.00,0.0022
2380.00,0.0021
2379.00,0.0021
2378.00,0.0021
2377.00,0.0021
2376.00,0.0021
2375.00,0.0022
2374.00,0.0021
2373.00,0.0021
2372.00,0.0021
2371.00,0.0021
2370.00,0.0020
2369.00,0.0020
2368.00,0.0020
2367.00,0.0020
2366.00,0.0020
2365.00,0.0021
2364.00,0.0021
2363.00,0.0021
2362.00,0.0021
2361.00,0.0022
2360.00,0.0022
2359.00,0.0022
2358.00,0.0022
2357.00,0.0022
2356.00,0.0023
2355.00,0.0023
2354.00,0.0022
2353.00,0.0022
2352.00,0.0022
2351.00,0.0022
2350.00,0.0023
2349.00,0.0023
2348.00,0.0025
2347.00,0.0025
2346.00,0.0026
2345.00,0.0025
2344.00,0.0025
2343.00,0.0026
2342.00,0.0026
2341.00,0.0027
2340.00,0.0027
2339.00,0.0027
2338.00,0.0027
2337.00,0.0027
2336.00,0.0027
2335.00,0.0027
2334.00,0.0027
2333.00,0.0027
2332.00,0.0026
2331.00,0.0026
2330.00,0.0027
2329.00,0.0030
2328.00,0.0034
2327.00,0.0040
2326.00,0.0044
2325.00,0.0044
2324.00,0.0042
2323.00,0.0039
2322.00,0.0037
2321.00,0.0035
2320.00,0.0034
2319.00,0.0034
2318.00,0.0034
2317.00,0.0034
2316.00,0.0033
2315.00,0.0033
2314.00,0.0032
2313.00,0.0032
2312.00,0.0032
2311.00,0.0031
2310.00,0.0031
2309.00,0.0031
2308.00,0.0031
2307.00,0.0031
2306.00,0.0032
2305.00,0.0032
2304.00,0.0033
2303.00,0.0033
2302.00,0.0033
2301.00,0.0033
2300.00,0.0034
2299.00,0.0034
2298.00,0.0034
2297.00,0.0035
2296.00,0.0035
2295.00,0.0036
2294.00,0.0038
2293.00,0.0039
2292.00,0.0040
2291.00,0.0041
2290.00,0.0042
2289.00,0.0042
2288.00,0.0042
2287.00,0.0042
2286.00,0.0042
2285.00,0.0041
2284.00,0.0041
2283.00,0.0040
2282.00,0.0039
2281.00,0.0038
2280.00,0.0037
2279.00,0.0036
2278.00,0.0036
2277.00,0.0036
2276.00,0.0036
2275.00,0.0036
2274.00,0.0036
2273.00,0.0036
2272.00,0.0036
2271.00,0.0035
2270.00,0.0035
2269.00,0.0034
2268.00,0.0033
2267.00,0.0031
2266.00,0.0031
2265.00,0.0031
2264.00,0.0032
2263.00,0.0033
2262.00,0.0034
2261.00,0.0035
2260.00,0.0035
2259.00,0.0035
2258.00,0.0035
2257.00,0.0034
2256.00,0.0032
2255.00,0.0031
2254.00,0.0031
2253.00,0.0031
2252.00,0.0031
2251.00,0.0031
2250.00,0.0031
2249.00,0.0032
2248.00,0.0032
2247.00,0.0032
2246.00,0.0032
2245.00,0.0032
2244.00,0.0032
2243.00,0.0032
2242.00,0.0032
2241.00,0.0032
2240.00,0.0033
2239.00,0.0033
2238.00,0.0033
2237.00,0.0032
2236.00,0.0032
2235.00,0.0032
2234.00,0.0032
2233.00,0.0032
2232.00,0.0033
2231.00,0.0033
2230.00,0.0032
2229.00,0.0032
2228.00,0.0032
2227.00,0.0031
2226.00,0.0031
2225.00,0.0031
2224.00,0.0032
2223.00,0.0032
2222.00,0.0032
2221.00,0.0032
2220.00,0.0032
2219.00,0.0032
2218.00,0.0031
2217.00,0.0031
2216.00,0.0031
2215.00,0.0030
2214.00,0.0031
2213.00,0.0031
2212.00,0.0032
2211.00,0.0032
2210.00,0.0032
2209.00,0.0032
2208.00,0.0032
2207.00,0.0031
2206.00,0.0031
2205.00,0.0031
2204.00,0.0032
2203.00,0.0033
2202.00,0.0033
2201.00,0.0032
2200.00,0.0031
2199.00,0.0031
2198.00,0.0031
2197.00,0.0033
2196.00,0.0035
2195.00,0.0036
2194.00,0.0036
2193.00,0.0036
2192.00,0.0036
2191.00,0.0036
2190.00,0.0036
2189.00,0.0037
2188.00,0.0038
2187.00,0.0037
2186.00,0.0036
2185.00,0.0035
2184.00,0.0032
2183.00,0.0029
2182.00,0.0026
2181.00,0.0026
2180.00,0.0027
2179.00,0.0027
2178.00,0.0027
2177.00,0.0026
2176.00,0.0026
2175.00,0.0026
2174.00,0.0028
2173.00,0.0030
2172.00,0.0033
2171.00,0.0036
2170.00,0.0039
2169.00,0.0042
2168.00,0.0044
2167.00,0.0045
2166.00,0.0045
2165.00,0.0046
2164.00,0.0048
2163.00,0.0046
2162.00,0.0036
2161.00,0.0020
2160.00,0.0003
2159.00,-0.0009
2158.00,-0.0012
2157.00,-0.0009
2156.00,-0.0005
2155.00,-0.0001
2154.00,0.0001
2153.00,0.0003
2152.00,0.0007
2151.00,0.0009
2150.00,0.0010
2149.00,0.0009
2148.00,0.0008
2147.00,0.0008
2146.00,0.0007
2145.00,0.0008
2144.00,0.0009
2143.00,0.0010
2142.00,0.0009
2141.00,0.0010
2140.00,0.0011
2139.00,0.0011
2138.00,0.0009
2137.00,0.0007
2136.00,0.0003
2135.00,0.0001
2134.00,0.0002
2133.00,0.0004
2132.00,0.0007
2131.00,0.0010
2130.00,0.0012
2129.00,0.0013
2128.00,0.0015
2127.00,0.0016
2126.00,0.0017
2125.00,0.0018
2124.00,0.0020
2123.00,0.0021
2122.00,0.0022
2121.00,0.0022
2120.00,0.0023
2119.00,0.0023
2118.00,0.0025
2117.00,0.0026
2116.00,0.0028
2115.00,0.0029
2114.00,0.0029
2113.00,0.0029
2112.00,0.0029
2111.00,0.0028
2110.00,0.0027
2109.00,0.0027
2108.00,0.0026
2107.00,0.0026
2106.00,0.0026
2105.00,0.0026
2104.00,0.0027
2103.00,0.0026
2102.00,0.0026
2101.00,0.0025
2100.00,0.0025
2099.00,0.0024
2098.00,0.0022
2097.00,0.0020
2096.00,0.0020
2095.00,0.0020
2094.00,0.0020
2093.00,0.0022
2092.00,0.0023
2091.00,0.0024
2090.00,0.0025
2089.00,0.0026
2088.00,0.0027
2087.00,0.0028
2086.00,0.0028
2085.00,0.0028
2084.00,0.0028
2083.00,0.0029
2082.00,0.0029
2081.00,0.0029
2080.00,0.0030
2079.00,0.0030
2078.00,0.0029
2077.00,0.0028
2076.00,0.0028
2075.00,0.0028
2074.00,0.0028
2073.00,0.0028
2072.00,0.0028
2071.00,0.0028
2070.00,0.0027
2069.00,0.0027
2068.00,0.0027
2067.00,0.0027
2066.00,0.0027
2065.00,0.0026
2064.00,0.0026
2063.00,0.0025
2062.00,0.0025
2061.00,0.0024
2060.00,0.0025
2059.00,0.0026
2058.00,0.0027
2057.00,0.0028
2056.00,0.0028
2055.00,0.0030
2054.00,0.0033
2053.00,0.0037
2052.00,0.0040
2051.00,0.0039
2050.00,0.0033
2049.00,0.0028
2048.00,0.0026
2047.00,0.0025
2046.00,0.0025
2045.00,0.0026
2044.00,0.0027
2043.00,0.0027
2042.00,0.0028
2041.00,0.0029
2040.00,0.0030
2039.00,0.0031
2038.00,0.0031
2037.00,0.0031
2036.00,0.0029
2035.00,0.0026
2034.00,0.0022
2033.00,0.0019
2032.00,0.0019
2031.00,0.0018
2030.00,0.0017
2029.00,0.0017
2028.00,0.0018
2027.00,0.0017
2026.00,0.0016
2025.00,0.0017
2024.00,0.0018
2023.00,0.0019
2022.00,0.0019
2021.00,0.0019
2020.00,0.0020
2019.00,0.0020
2018.00,0.0020
2017.00,0.0020
2016.00,0.0021
2015.00,0.0022
2014.00,0.0021
2013.00,0.0020
2012.00,0.0020
2011.00,0.0020
2010.00,0.0018
2009.00,0.0016
2008.00,0.0013
2007.00,0.0010
2006.00,0.0008
2005.00,0.0010
2004.00,0.0012
2003.00,0.0015
2002.00,0.0015
2001.00,0.0016
2000.00,0.0017
1999.00,0.0018
1998.00,0.0018
1997.00,0.0019
1996.00,0.0021
1995.00,0.0021
1994.00,0.0021
1993.00,0.0022
1992.00,0.0024
1991.00,0.0025
1990.00,0.0026
1989.00,0.0027
1988.00,0.0028
1987.00,0.0029
1986.00,0.0030
1985.00,0.0031
1984.00,0.0035
1983.00,0.0039
1982.00,0.0041
1981.00,0.0041
1980.00,0.0037
1979.00,0.0029
1978.00,0.0020
1977.00,0.0014
1976.00,0.0011
1975.00,0.0010
1974.00,0.0009
1973.00,0.0009
1972.00,0.0010
1971.00,0.0010
1970.00,0.0009
1969.00,0.0009
1968.00,0.0010
1967.00,0.0010
1966.00,0.0009
1965.00,0.0009
1964.00,0.0010
1963.00,0.0010
1962.00,0.0009
1961.00,0.0007
1960.00,0.0007
1959.00,0.0007
1958.00,0.0008
1957.00,0.0010
1956.00,0.0013
1955.00,0.0014
1954.00,0.0013
1953.00,0.0013
1952.00,0.0014
1951.00,0.0014
1950.00,0.0014
1949.00,0.0015
1948.00,0.0015
1947.00,0.0015
1946.00,0.0014
1945.00,0.0013
1944.00,0.0013
1943.00,0.0013
1942.00,0.0012
1941.00,0.0013
1940.00,0.0013
1939.00,0.0014
1938.00,0.0014
1937.00,0.0015
1936.00,0.0015
1935.00,0.0015
1934.00,0.0015
1933.00,0.0015
1932.00,0.0016
1931.00,0.0016
1930.00,0.0016
1929.00,0.0015
1928.00,0.0016
1927.00,0.0016
1926.00,0.0015
1925.00,0.0016
1924.00,0.0017
1923.00,0.0017
1922.00,0.0018
1921.00,0.0019
1920.00,0.0019
1919.00,0.0020
1918.00,0.0019
1917.00,0.0019
1916.00,0.0019
1915.00,0.0019
1914.00,0.0019
1913.00,0.0019
1912.00,0.0019
1911.00,0.0019
1910.00,0.0019
1909.00,0.0018
1908.00,0.0018
1907.00,0.0018
1906.00,0.0018
1905.00,0.0019
1904.00,0.0020
1903.00,0.0020
1902.00,0.0020
1901.00,0.0020
1900.00,0.0020
1899.00,0.0020
1898.00,0.0019
1897.00,0.0019
1896.00,0.0020
1895.00,0.0020
1894.00,0.0020
1893.00,0.0020
1892.00,0.0020
1891.00,0.0020
1890.00,0.0020
1889.00,0.0019
1888.00,0.0019
1887.00,0.0020
1886.00,0.0020
1885.00,0.0021
1884.00,0.0021
1883.00,0.0020
1882.00,0.0020
1881.00,0.0019
1880.00,0.0020
1879.00,0.0020
1878.00,0.0020
1877.00,0.0020
1876.00,0.0020
1875.00,0.0021
1874.00,0.0021
1873.00,0.0022
1872.00,0.0022
1871.00,0.0022
1870.00,0.0022
1869.00,0.0022
1868.00,0.0021
1867.00,0.0021
1866.00,0.0020
1865.00,0.0020
1864.00,0.0020
1863.00,0.0020
1862.00,0.0020
1861.00,0.0021
1860.00,0.0021
1859.00,0.0021
1858.00,0.0021
1857.00,0.0021
1856.00,0.0021
1855.00,0.0021
1854.00,0.0021
1853.00,0.0021
1852.00,0.0021
1851.00,0.0022
1850.00,0.0022
1849.00,0.0022
1848.00,0.0022
1847.00,0.0023
1846.00,0.0022
1845.00,0.0022
1844.00,0.0021
1843.00,0.0021
1842.00,0.0021
1841.00,0.0021
1840.00,0.0022
1839.00,0.0022
1838.00,0.0022
1837.00,0.0022
1836.00,0.0022
1835.00,0.0022
1834.00,0.0022
1833.00,0.0022
1832.00,0.0023
1831.00,0.0023
1830.00,0.0023
1829.00,0.0022
1828.00,0.0023
1827.00,0.0023
1826.00,0.0023
1825.00,0.0022
1824.00,0.0023
1823.00,0.0023
1822.00,0.0022
1821.00,0.0022
1820.00,0.0021
1819.00,0.0020
1818.00,0.0019
1817.00,0.0018
1816.00,0.0019
1815.00,0.0020
1814.00,0.0021
1813.00,0.0022
1812.00,0.0023
1811.00,0.0023
1810.00,0.0022
1809.00,0.0022
1808.00,0.0023
1807.00,0.0023
1806.00,0.0023
1805.00,0.0023
1804.00,0.0024
1803.00,0.0024
1802.00,0.0024
1801.00,0.0024
1800.00,0.0024
1799.00,0.0024
1798.00,0.0024
1797.00,0.0025
1796.00,0.0026
1795.00,0.0026
1794.00,0.0026
1793.00,0.0025
1792.00,0.0025
1791.00,0.0025
1790.00,0.0024
1789.00,0.0025
1788.00,0.0025
1787.00,0.0026
1786.00,0.0026
1785.00,0.0026
1784.00,0.0026
1783.00,0.0027
1782.00,0.0027
1781.00,0.0027
1780.00,0.0027
1779.00,0.0026
1778.00,0.0026
1777.00,0.0027
1776.00,0.0028
1775.00,0.0028
1774.00,0.0028
1773.00,0.0027
1772.00,0.0027
1771.00,0.0027
1770.00,0.0028
1769.00,0.0028
1768.00,0.0028
1767.00,0.0028
1766.00,0.0028
1765.00,0.0029
1764.00,0.0030
1763.00,0.0030
1762.00,0.0030
1761.00,0.0030
1760.00,0.0031
1759.00,0.0031
1758.00,0.0032
1757.00,0.0032
1756.00,0.0032
1755.00,0.0033
1754.00,0.0033
1753.00,0.0034
1752.00,0.0035
1751.00,0.0036
1750.00,0.0036
1749.00,0.0036
1748.00,0.0036
1747.00,0.0037
1746.00,0.0037
1745.00,0.0038
1744.00,0.0039
1743.00,0.0039
1742.00,0.0038
1741.00,0.0038
1740.00,0.0039
1739.00,0.0039
1738.00,0.0040
1737.00,0.0041
1736.00,0.0042
1735.00,0.0043
1734.00,0.0043
1733.00,0.0044
1732.00,0.0045
1731.00,0.0047
1730.00,0.0047
1729.00,0.0048
1728.00,0.0049
1727.00,0.0050
1726.00,0.0050
1725.00,0.0052
1724.00,0.0054
1723.00,0.0055
1722.00,0.0056
1721.00,0.0058
1720.00,0.0060
1719.00,0.0063
1718.00,0.0066
1717.00,0.0068
1716.00,0.0072
1715.00,0.0075
1714.00,0.0077
1713.00,0.0081
1712.00,0.0085
1711.00,0.0090
1710.00,0.0095
1709.00,0.0101
1708.00,0.0108
1707.00,0.0116
1706.00,0.0127
1705.00,0.0139
1704.00,0.0151
1703.00,0.0159
1702.00,0.0169
1701.00,0.0190
1700.00,0.0224
1699.00,0.0252
1698.00,0.0272
1697.00,0.0296
1696.00,0.0333
1695.00,0.0373
1694.00,0.0404
1693.00,0.0427
1692.00,0.0451
1691.00,0.0480
1690.00,0.0514
1689.00,0.0548
1688.00,0.0575
1687.00,0.0594
1686.00,0.0614
1685.00,0.0656
1684.00,0.0720
1683.00,0.0770
1682.00,0.0793
1681.00,0.0805
1680.00,0.0818
1679.00,0.0830
1678.00,0.0838
1677.00,0.0847
1676.00,0.0868
1675.00,0.0897
1674.00,0.0920
1673.00,0.0928
1672.00,0.0931
1671.00,0.0942
1670.00,0.0967
1669.00,0.0999
1668.00,0.1023
1667.00,0.1033
1666.00,0.1034
1665.00,0.1035
1664.00,0.1047
1663.00,0.1071
1662.00,0.1099
1661.00,0.1118
1660.00,0.1127
1659.00,0.1130
1658.00,0.1129
1657.00,0.1120
1656.00,0.1105
1655.00,0.1094
1654.00,0.1114
1653.00,0.1171
1652.00,0.1205
1651.00,0.1191
1650.00,0.1154
1649.00,0.1118
1648.00,0.1095
1647.00,0.1087
1646.00,0.1081
1645.00,0.1061
1644.00,0.1029
1643.00,0.0991
1642.00,0.0952
1641.00,0.0914
1640.00,0.0876
1639.00,0.0838
1638.00,0.0799
1637.00,0.0764
1636.00,0.0736
1635.00,0.0713
1634.00,0.0687
1633.00,0.0657
1632.00,0.0627
1631.00,0.0598
1630.00,0.0572
1629.00,0.0551
1628.00,0.0533
1627.00,0.0517
1626.00,0.0503
1625.00,0.0489
1624.00,0.0479
1623.00,0.0473
1622.00,0.0466
1621.00,0.0457
1620.00,0.0444
1619.00,0.0431
1618.00,0.0420
1617.00,0.0412
1616.00,0.0406
1615.00,0.0396
1614.00,0.0384
1613.00,0.0370
1612.00,0.0357
1611.00,0.0347
1610.00,0.0338
1609.00,0.0332
1608.00,0.0328
1607.00,0.0326
1606.00,0.0327
1605.00,0.0329
1604.00,0.0334
1603.00,0.0340
1602.00,0.0346
1601.00,0.0351
1600.00,0.0354
1599.00,0.0355
1598.00,0.0354
1597.00,0.0349
1596.00,0.0343
1595.00,0.0335
1594.00,0.0326
1593.00,0.0317
1592.00,0.0307
1591.00,0.0297
1590.00,0.0289
1589.00,0.0280
1588.00,0.0272
1587.00,0.0264
1586.00,0.0256
1585.00,0.0248
1584.00,0.0239
1583.00,0.0231
1582.00,0.0223
1581.00,0.0214
1580.00,0.0206
1579.00,0.0199
1578.00,0.0192
1577.00,0.0185
1576.00,0.0179
1575.00,0.0174
1574.00,0.0169
1573.00,0.0164
1572.00,0.0158
1571.00,0.0153
1570.00,0.0150
1569.00,0.0147
1568.00,0.0145
1567.00,0.0142
1566.00,0.0139
1565.00,0.0136
1564.00,0.0134
1563.00,0.0131
1562.00,0.0128
1561.00,0.0124
1560.00,0.0122
1559.00,0.0122
1558.00,0.0122
1557.00,0.0122
1556.00,0.0121
1555.00,0.0120
1554.00,0.0119
1553.00,0.0118
1552.00,0.0118
1551.00,0.0117
1550.00,0.0117
1549.00,0.0116
1548.00,0.0115
1547.00,0.0114
1546.00,0.0114
1545.00,0.0115
1544.00,0.0115
1543.00,0.0114
1542.00,0.0114
1541.00,0.0114
1540.00,0.0114
1539.00,0.0114
1538.00,0.0114
1537.00,0.0113
1536.00,0.0112
1535.00,0.0111
1534.00,0.0111
1533.00,0.0111
1532.00,0.0111
1531.00,0.0110
1530.00,0.0110
1529.00,0.0110
1528.00,0.0110
1527.00,0.0110
1526.00,0.0111
1525.00,0.0111
1524.00,0.0111
1523.00,0.0111
1522.00,0.0112
1521.00,0.0113
1520.00,0.0114
1519.00,0.0115
1518.00,0.0115
1517.00,0.0117
1516.00,0.0118
1515.00,0.0118
1514.00,0.0118
1513.00,0.0119
1512.00,0.0121
1511.00,0.0123
1510.00,0.0126
1509.00,0.0129
1508.00,0.0134
1507.00,0.0142
1506.00,0.0152
1505.00,0.0162
1504.00,0.0170
1503.00,0.0177
1502.00,0.0186
1501.00,0.0197
1500.00,0.0209
1499.00,0.0223
1498.00,0.0238
1497.00,0.0253
1496.00,0.0267
1495.00,0.0275
1494.00,0.0277
1493.00,0.0275
1492.00,0.0270
1491.00,0.0263
1490.00,0.0254
1489.00,0.0243
1488.00,0.0229
1487.00,0.0214
1486.00,0.0201
1485.00,0.0190
1484.00,0.0180
1483.00,0.0173
1482.00,0.0167
1481.00,0.0163
1480.00,0.0162
1479.00,0.0161
1478.00,0.0163
1477.00,0.0168
1476.00,0.0175
1475.00,0.0183
1474.00,0.0196
1473.00,0.0216
1472.00,0.0242
1471.00,0.0268
1470.00,0.0290
1469.00,0.0313
1468.00,0.0336
1467.00,0.0361
1466.00,0.0392
1465.00,0.0428
1464.00,0.0460
1463.00,0.0481
1462.00,0.0491
1461.00,0.0493
1460.00,0.0490
1459.00,0.0483
1458.00,0.0474
1457.00,0.0465
1456.00,0.0454
1455.00,0.0441
1454.00,0.0428
1453.00,0.0419
1452.00,0.0413
1451.00,0.0412
1450.00,0.0416
1449.00,0.0427
1448.00,0.0445
1447.00,0.0465
1446.00,0.0486
1445.00,0.0507
1444.00,0.0529
1443.00,0.0551
1442.00,0.0574
1441.00,0.0596
1440.00,0.0613
1439.00,0.0627
1438.00,0.0644
1437.00,0.0673
1436.00,0.0704
1435.00,0.0725
1434.00,0.0736
1433.00,0.0743
1432.00,0.0753
1431.00,0.0766
1430.00,0.0781
1429.00,0.0796
1428.00,0.0807
1427.00,0.0814
1426.00,0.0820
1425.00,0.0829
1424.00,0.0839
1423.00,0.0841
1422.00,0.0833
1421.00,0.0817
1420.00,0.0796
1419.00,0.0767
1418.00,0.0731
1417.00,0.0688
1416.00,0.0641
1415.00,0.0593
1414.00,0.0548
1413.00,0.0507
1412.00,0.0470
1411.00,0.0437
1410.00,0.0408
1409.00,0.0384
1408.00,0.0364
1407.00,0.0347
1406.00,0.0333
1405.00,0.0321
1404.00,0.0311
1403.00,0.0302
1402.00,0.0295
1401.00,0.0288
1400.00,0.0284
1399.00,0.0280
1398.00,0.0278
1397.00,0.0276
1396.00,0.0274
1395.00,0.0274
1394.00,0.0275
1393.00,0.0277
1392.00,0.0278
1391.00,0.0280
1390.00,0.0283
1389.00,0.0289
1388.00,0.0297
1387.00,0.0307
1386.00,0.0317
1385.00,0.0326
1384.00,0.0334
1383.00,0.0342
1382.00,0.0350
1381.00,0.0358
1380.00,0.0366
1379.00,0.0373
1378.00,0.0378
1377.00,0.0381
1376.00,0.0383
1375.00,0.0383
1374.00,0.0382
1373.00,0.0379
1372.00,0.0373
1371.00,0.0366
1370.00,0.0360
1369.00,0.0353
1368.00,0.0346
1367.00,0.0339
1366.00,0.0331
1365.00,0.0323
1364.00,0.0315
1363.00,0.0308
1362.00,0.0300
1361.00,0.0293
1360.00,0.0285
1359.00,0.0278
1358.00,0.0272
1357.00,0.0267
1356.00,0.0263
1355.00,0.0259
1354.00,0.0256
1353.00,0.0253
1352.00,0.0250
1351.00,0.0246
1350.00,0.0242
1349.00,0.0239
1348.00,0.0235
1347.00,0.0231
1346.00,0.0227
1345.00,0.0224
1344.00,0.0222
1343.00,0.0220
1342.00,0.0219
1341.00,0.0219
1340.00,0.0219
1339.00,0.0220
1338.00,0.0221
1337.00,0.0222
1336.00,0.0222
1335.00,0.0224
1334.00,0.0226
1333.00,0.0229
1332.00,0.0233
1331.00,0.0238
1330.00,0.0244
1329.00,0.0252
1328.00,0.0260
1327.00,0.0269
1326.00,0.0279
1325.00,0.0290
1324.00,0.0302
1323.00,0.0314
1322.00,0.0325
1321.00,0.0336
1320.00,0.0345
1319.00,0.0353
1318.00,0.0359
1317.00,0.0361
1316.00,0.0361
1315.00,0.0359
1314.00,0.0355
1313.00,0.0350
1312.00,0.0343
1311.00,0.0336
1310.00,0.0330
1309.00,0.0325
1308.00,0.0321
1307.00,0.0319
1306.00,0.0319
1305.00,0.0322
1304.00,0.0328
1303.00,0.0337
1302.00,0.0351
1301.00,0.0368
1300.00,0.0391
1299.00,0.0419
1298.00,0.0452
1297.00,0.0490
1296.00,0.0532
1295.00,0.0577
1294.00,0.0623
1293.00,0.0668
1292.00,0.0711
1291.00,0.0749
1290.00,0.0782
1289.00,0.0808
1288.00,0.0827
1287.00,0.0839
1286.00,0.0842
1285.00,0.0838
1284.00,0.0827
1283.00,0.0812
1282.00,0.0794
1281.00,0.0777
1280.00,0.0762
1279.00,0.0752
1278.00,0.0746
1277.00,0.0745
1276.00,0.0747
1275.00,0.0751
1274.00,0.0756
1273.00,0.0759
1272.00,0.0760
1271.00,0.0756
1270.00,0.0748
1269.00,0.0735
1268.00,0.0717
1267.00,0.0695
1266.00,0.0670
1265.00,0.0644
1264.00,0.0617
1263.00,0.0590
1262.00,0.0563
1261.00,0.0538
1260.00,0.0514
1259.00,0.0492
1258.00,0.0471
1257.00,0.0452
1256.00,0.0434
1255.00,0.0418
1254.00,0.0403
1253.00,0.0389
1252.00,0.0377
1251.00,0.0367
1250.00,0.0357
1249.00,0.0350
1248.00,0.0342
1247.00,0.0337
1246.00,0.0332
1245.00,0.0329
1244.00,0.0327
1243.00,0.0327
1242.00,0.0327
1241.00,0.0330
1240.00,0.0333
1239.00,0.0339
1238.00,0.0345
1237.00,0.0353
1236.00,0.0363
1235.00,0.0373
1234.00,0.0384
1233.00,0.0395
1232.00,0.0405
1231.00,0.0414
1230.00,0.0422
1229.00,0.0427
1228.00,0.0431
1227.00,0.0433
1226.00,0.0434
1225.00,0.0433
1224.00,0.0432
1223.00,0.0430
1222.00,0.0428
1221.00,0.0425
1220.00,0.0422
1219.00,0.0417
1218.00,0.0412
1217.00,0.0406
1216.00,0.0399
1215.00,0.0391
1214.00,0.0383
1213.00,0.0375
1212.00,0.0367
1211.00,0.0360
1210.00,0.0352
1209.00,0.0345
1208.00,0.0339
1207.00,0.0333
1206.00,0.0328
1205.00,0.0323
1204.00,0.0318
1203.00,0.0313
1202.00,0.0308
1201.00,0.0304
1200.00,0.0299
1199.00,0.0294
1198.00,0.0289
1197.00,0.0284
1196.00,0.0280
1195.00,0.0276
1194.00,0.0272
1193.00,0.0269
1192.00,0.0266
1191.00,0.0264
1190.00,0.0262
1189.00,0.0260
1188.00,0.0258
1187.00,0.0257
1186.00,0.0256
1185.00,0.0255
1184.00,0.0255
1183.00,0.0255
1182.00,0.0256
1181.00,0.0258
1180.00,0.0261
1179.00,0.0265
1178.00,0.0270
1177.00,0.0276
1176.00,0.0283
1175.00,0.0290
1174.00,0.0299
1173.00,0.0307
1172.00,0.0316
1171.00,0.0324
1170.00,0.0333
1169.00,0.0340
1168.00,0.0346
1167.00,0.0350
1166.00,0.0352
1165.00,0.0352
1164.00,0.0350
1163.00,0.0345
1162.00,0.0339
1161.00,0.0332
1160.00,0.0325
1159.00,0.0317
1158.00,0.0309
1157.00,0.0301
1156.00,0.0293
1155.00,0.0285
1154.00,0.0277
1153.00,0.0269
1152.00,0.0261
1151.00,0.0254
1150.00,0.0246
1149.00,0.0239
1148.00,0.0231
1147.00,0.0224
1146.00,0.0218
1145.00,0.0212
1144.00,0.0207
1143.00,0.0202
1142.00,0.0198
1141.00,0.0194
1140.00,0.0191
1139.00,0.0187
1138.00,0.0183
1137.00,0.0180
1136.00,0.0176
1135.00,0.0173
1134.00,0.0170
1133.00,0.0167
1132.00,0.0165
1131.00,0.0162
1130.00,0.0161
1129.00,0.0159
1128.00,0.0158
1127.00,0.0157
1126.00,0.0156
1125.00,0.0155
1124.00,0.0155
1123.00,0.0155
1122.00,0.0155
1121.00,0.0156
1120.00,0.0156
1119.00,0.0157
1118.00,0.0158
1117.00,0.0160
1116.00,0.0163
1115.00,0.0165
1114.00,0.0168
1113.00,0.0171
1112.00,0.0173
1111.00,0.0175
1110.00,0.0176
1109.00,0.0178
1108.00,0.0178
1107.00,0.0178
1106.00,0.0178
1105.00,0.0177
1104.00,0.0177
1103.00,0.0177
1102.00,0.0177
1101.00,0.0178
1100.00,0.0179
1099.00,0.0180
1098.00,0.0182
1097.00,0.0184
1096.00,0.0185
1095.00,0.0186
1094.00,0.0187
1093.00,0.0187
1092.00,0.0188
1091.00,0.0188
1090.00,0.0189
1089.00,0.0191
1088.00,0.0193
1087.00,0.0196
1086.00,0.0198
1085.00,0.0201
1084.00,0.0202
1083.00,0.0203
1082.00,0.0203
1081.00,0.0203
1080.00,0.0202
1079.00,0.0200
1078.00,0.0198
1077.00,0.0196
1076.00,0.0194
1075.00,0.0191
1074.00,0.0188
1073.00,0.0184
1072.00,0.0180
1071.00,0.0175
1070.00,0.0171
1069.00,0.0168
1068.00,0.0165
1067.00,0.0163
1066.00,0.0162
1065.00,0.0161
1064.00,0.0162
1063.00,0.0164
1062.00,0.0168
1061.00,0.0174
1060.00,0.0182
1059.00,0.0193
1058.00,0.0207
1057.00,0.0225
1056.00,0.0245
1055.00,0.0268
1054.00,0.0293
1053.00,0.0318
1052.00,0.0340
1051.00,0.0358
1050.00,0.0369
1049.00,0.0374
1048.00,0.0371
1047.00,0.0363
1046.00,0.0351
1045.00,0.0337
1044.00,0.0323
1043.00,0.0310
1042.00,0.0298
1041.00,0.0287
1040.00,0.0279
1039.00,0.0271
1038.00,0.0265
1037.00,0.0260
1036.00,0.0255
1035.00,0.0250
1034.00,0.0246
1033.00,0.0242
1032.00,0.0239
1031.00,0.0236
1030.00,0.0235
1029.00,0.0234
1028.00,0.0234
1027.00,0.0234
1026.00,0.0235
1025.00,0.0235
1024.00,0.0236
1023.00,0.0237
1022.00,0.0238
1021.00,0.0239
1020.00,0.0238
1019.00,0.0237
1018.00,0.0235
1017.00,0.0231
1016.00,0.0226
1015.00,0.0219
1014.00,0.0211
1013.00,0.0203
1012.00,0.0196
1011.00,0.0190
1010.00,0.0185
1009.00,0.0183
1008.00,0.0181
1007.00,0.0182
1006.00,0.0184
1005.00,0.0187
1004.00,0.0190
1003.00,0.0192
1002.00,0.0192
1001.00,0.0191
1000.00,0.0189
999.00,0.0185
998.00,0.0181
997.00,0.0177
996.00,0.0173
995.00,0.0171
994.00,0.0168
993.00,0.0167
992.00,0.0165
991.00,0.0165
990.00,0.0165
989.00,0.0165
988.00,0.0165
987.00,0.0165
986.00,0.0165
985.00,0.0164
984.00,0.0163
983.00,0.0161
982.00,0.0158
981.00,0.0155
980.00,0.0153
979.00,0.0151
978.00,0.0149
977.00,0.0146
976.00,0.0144
975.00,0.0141
974.00,0.0139
973.00,0.0136
972.00,0.0134
971.00,0.0131
970.00,0.0129
969.00,0.0126
968.00,0.0123
967.00,0.0121
966.00,0.0119
965.00,0.0118
964.00,0.0117
963.00,0.0116
962.00,0.0115
961.00,0.0113
960.00,0.0112
959.00,0.0110
958.00,0.0108
957.00,0.0106
956.00,0.0105
955.00,0.0104
954.00,0.0103
953.00,0.0103
952.00,0.0102
951.00,0.0101
950.00,0.0101
949.00,0.0101
948.00,0.0101
947.00,0.0101
946.00,0.0102
945.00,0.0103
944.00,0.0104
943.00,0.0106
942.00,0.0108
941.00,0.0111
940.00,0.0115
939.00,0.0120
938.00,0.0125
937.00,0.0130
936.00,0.0135
935.00,0.0139
934.00,0.0142
933.00,0.0144
932.00,0.0144
931.00,0.0142
930.00,0.0140
929.00,0.0139
928.00,0.0137
927.00,0.0137
926.00,0.0137
925.00,0.0138
924.00,0.0138
923.00,0.0138
922.00,0.0138
921.00,0.0138
920.00,0.0139
919.00,0.0139
918.00,0.0140
917.00,0.0142
916.00,0.0144
915.00,0.0145
914.00,0.0147
913.00,0.0149
912.00,0.0150
911.00,0.0152
910.00,0.0154
909.00,0.0155
908.00,0.0156
907.00,0.0157
906.00,0.0158
905.00,0.0159
904.00,0.0160
903.00,0.0161
902.00,0.0161
901.00,0.0162
900.00,0.0162
899.00,0.0162
898.00,0.0162
897.00,0.0163
896.00,0.0163
895.00,0.0162
894.00,0.0161
893.00,0.0160
892.00,0.0158
891.00,0.0156
890.00,0.0154
889.00,0.0153
888.00,0.0151
887.00,0.0150
886.00,0.0149
885.00,0.0148
884.00,0.0148
883.00,0.0147
882.00,0.0148
881.00,0.0148
880.00,0.0148
879.00,0.0149
878.00,0.0150
877.00,0.0151
876.00,0.0152
875.00,0.0153
874.00,0.0154
873.00,0.0156
872.00,0.0157
871.00,0.0159
870.00,0.0161
869.00,0.0164
868.00,0.0167
867.00,0.0171
866.00,0.0175
865.00,0.0179
864.00,0.0184
863.00,0.0189
862.00,0.0194
861.00,0.0200
860.00,0.0207
859.00,0.0214
858.00,0.0222
857.00,0.0230
856.00,0.0238
855.00,0.0245
854.00,0.0253
853.00,0.0261
852.00,0.0268
851.00,0.0276
850.00,0.0283
849.00,0.0289
848.00,0.0295
847.00,0.0299
846.00,0.0303
845.00,0.0307
844.00,0.0309
843.00,0.0311
842.00,0.0312
841.00,0.0313
840.00,0.0313
839.00,0.0313
838.00,0.0313
837.00,0.0314
836.00,0.0314
835.00,0.0315
834.00,0.0315
833.00,0.0314
832.00,0.0313
831.00,0.0311
830.00,0.0308
829.00,0.0305
828.00,0.0301
827.00,0.0296
826.00,0.0291
825.00,0.0284
824.00,0.0277
823.00,0.0269
822.00,0.0261
821.00,0.0253
820.00,0.0245
819.00,0.0237
818.00,0.0230
817.00,0.0224
816.00,0.0219
815.00,0.0214
814.00,0.0210
813.00,0.0206
812.00,0.0202
811.00,0.0198
810.00,0.0195
809.00,0.0192
808.00,0.0189
807.00,0.0187
806.00,0.0186
805.00,0.0185
804.00,0.0185
803.00,0.0184
802.00,0.0185
801.00,0.0186
800.00,0.0187
799.00,0.0189
798.00,0.0190
797.00,0.0191
796.00,0.0192
795.00,0.0193
794.00,0.0195
793.00,0.0196
792.00,0.0197
791.00,0.0197
790.00,0.0198
789.00,0.0199
788.00,0.0199
787.00,0.0200
786.00,0.0202
785.00,0.0203
784.00,0.0204
783.00,0.0206
782.00,0.0207
781.00,0.0209
780.00,0.0211
779.00,0.0213
778.00,0.0214
777.00,0.0216
776.00,0.0217
775.00,0.0218
774.00,0.0219
773.00,0.0220
772.00,0.0221
771.00,0.0222
770.00,0.0223
769.00,0.0225
768.00,0.0226
767.00,0.0227
766.00,0.0228
765.00,0.0231
764.00,0.0233
763.00,0.0236
762.00,0.0240
761.00,0.0243
760.00,0.0246
759.00,0.0251
758.00,0.0255
757.00,0.0260
756.00,0.0266
755.00,0.0271
754.00,0.0276
753.00,0.0280
752.00,0.0285
751.00,0.0290
750.00,0.0295
749.00,0.0300
748.00,0.0305
747.00,0.0310
746.00,0.0315
745.00,0.0320
744.00,0.0325
743.00,0.0329
742.00,0.0333
741.00,0.0337
740.00,0.0341
739.00,0.0344
738.00,0.0347
737.00,0.0350
736.00,0.0351
735.00,0.0351
734.00,0.0350
733.00,0.0347
732.00,0.0343
731.00,0.0338
730.00,0.0332
729.00,0.0325
728.00,0.0318
727.00,0.0311
726.00,0.0305
725.00,0.0299
724.00,0.0294
723.00,0.0289
722.00,0.0284
721.00,0.0279
720.00,0.0274
719.00,0.0271
718.00,0.0269
717.00,0.0267
716.00,0.0266
715.00,0.0266
714.00,0.0265
713.00,0.0264
712.00,0.0264
711.00,0.0264
710.00,0.0264
709.00,0.0264
708.00,0.0265
707.00,0.0266
706.00,0.0267
705.00,0.0268
704.00,0.0268
703.00,0.0269
702.00,0.0270
701.00,0.0272
700.00,0.0273
699.00,0.0274
698.00,0.0276
697.00,0.0278
696.00,0.0280
695.00,0.0283
694.00,0.0285
693.00,0.0287
692.00,0.0289
691.00,0.0291
690.00,0.0294
689.00,0.0297
688.00,0.0300
687.00,0.0303
686.00,0.0307
685.00,0.0310
684.00,0.0314
683.00,0.0318
682.00,0.0322
681.00,0.0326
680.00,0.0330
679.00,0.0334
678.00,0.0338
677.00,0.0341
676.00,0.0345
675.00,0.0349
674.00,0.0353
673.00,0.0357
672.00,0.0361
671.00,0.0363
670.00,0.0366
669.00,0.0373
668.00,0.0384
667.00,0.0396
666.00,0.0403
665.00,0.0408
664.00,0.0413
663.00,0.0420
662.00,0.0428
661.00,0.0435
660.00,0.0443
659.00,0.0452
658.00,0.0460
657.00,0.0468
656.00,0.0475
655.00,0.0483
654.00,0.0491
653.00,0.0497
652.00,0.0503
651.00,0.0507
650.00,0.0510
649.00,0.0512
648.00,0.0512
647.00,0.0510
646.00,0.0507
645.00,0.0503
644.00,0.0497
643.00,0.0492
642.00,0.0485
641.00,0.0479
640.00,0.0472
639.00,0.0465
638.00,0.0457
637.00,0.0449
636.00,0.0442
635.00,0.0436
634.00,0.0430
633.00,0.0424
632.00,0.0418
631.00,0.0413
630.00,0.0408
629.00,0.0403
628.00,0.0399
627.00,0.0396
626.00,0.0394
625.00,0.0391
624.00,0.0389
623.00,0.0387
622.00,0.0385
621.00,0.0384
620.00,0.0382
619.00,0.0382
618.00,0.0382
617.00,0.0382
616.00,0.0383
615.00,0.0383
614.00,0.0383
613.00,0.0383
612.00,0.0383
611.00,0.0384
610.00,0.0385
609.00,0.0387
608.00,0.0388
607.00,0.0390
606.00,0.0393
605.00,0.0395
604.00,0.0398
603.00,0.0401
602.00,0.0403
601.00,0.0405
600.00,0.0407
599.00,0.0408
598.00,0.0410
597.00,0.0413
596.00,0.0417
595.00,0.0422
594.00,0.0426
593.00,0.0430
592.00,0.0434
591.00,0.0439
590.00,0.0443
589.00,0.0449
588.00,0.0455
587.00,0.0463
586.00,0.0471
585.00,0.0480
584.00,0.0488
583.00,0.0496
582.00,0.0503
581.00,0.0511
580.00,0.0517
579.00,0.0523
578.00,0.0528
577.00,0.0533
576.00,0.0537
575.00,0.0539
574.00,0.0539
573.00,0.0538
572.00,0.0537
571.00,0.0535
570.00,0.0532
569.00,0.0528
568.00,0.0524
567.00,0.0520
566.00,0.0515
565.00,0.0509
564.00,0.0503
563.00,0.0498
562.00,0.0493
561.00,0.0487
560.00,0.0482
559.00,0.0476
558.00,0.0470
557.00,0.0463
556.00,0.0458
555.00,0.0453
554.00,0.0449
553.00,0.0446
552.00,0.0443
551.00,0.0439
550.00,0.0436
549.00,0.0434
548.00,0.0432
547.00,0.0430
546.00,0.0428
545.00,0.0426
544.00,0.0423
543.00,0.0421
542.00,0.0418
541.00,0.0415
540.00,0.0413
539.00,0.0411
538.00,0.0411
537.00,0.0412
536.00,0.0412
535.00,0.0413
534.00,0.0413
533.00,0.0412
532.00,0.0411
531.00,0.0409
530.00,0.0408
529.00,0.0406
528.00,0.0406
527.00,0.0406
526.00,0.0407
525.00,0.0406
524.00,0.0404
523.00,0.0401
522.00,0.0399
521.00,0.0397
520.00,0.0397
519.00,0.0397
518.00,0.0396
517.00,0.0394
516.00,0.0391
515.00,0.0389
514.00,0.0388
513.00,0.0388
512.00,0.0387
511.00,0.0385
510.00,0.0384
509.00,0.0383
508.00,0.0382
507.00,0.0383
506.00,0.0385
505.00,0.0386
504.00,0.0386
503.00,0.0385
502.00,0.0384
501.00,0.0383
500.00,0.0383
499.00,0.0384
498.00,0.0386
497.00,0.0387
496.00,0.0386
495.00,0.0385
494.00,0.0383
493.00,0.0382
492.00,0.0382
491.00,0.0383
490.00,0.0384
489.00,0.0385
488.00,0.0387
487.00,0.0387
486.00,0.0387
485.00,0.0387
484.00,0.0386
483.00,0.0387
482.00,0.0390
481.00,0.0391
480.00,0.0392
479.00,0.0393
478.00,0.0393
477.00,0.0393
476.00,0.0393
475.00,0.0392
474.00,0.0393
473.00,0.0395
472.00,0.0395
471.00,0.0395
470.00,0.0395
469.00,0.0396
468.00,0.0397
467.00,0.0397
466.00,0.0398
465.00,0.0398
464.00,0.0399
463.00,0.0399
462.00,0.0398
461.00,0.0397
460.00,0.0398
459.00,0.0400
458.00,0.0402
457.00,0.0402
456.00,0.0402
455.00,0.0403
454.00,0.0406
453.00,0.0407
452.00,0.0405
451.00,0.0402
450.00,0.0401
449.00,0.0402
448.00,0.0403
447.00,0.0402
446.00,0.0397
445.00,0.0390
444.00,0.0383
443.00,0.0378
442.00,0.0375
441.00,0.0373
440.00,0.0373
439.00,0.0374
438.00,0.0375
437.00,0.0374
436.00,0.0372
435.00,0.0372
434.00,0.0372
433.00,0.0372
432.00,0.0371
431.00,0.0372
430.00,0.0374
429.00,0.0375
428.00,0.0375
427.00,0.0373
426.00,0.0369
425.00,0.0364
424.00,0.0360
423.00,0.0359
422.00,0.0360
421.00,0.0358
420.00,0.0354
419.00,0.0351
418.00,0.0354
417.00,0.0362
416.00,0.0368
415.00,0.0374
414.00,0.0378
413.00,0.0381
412.00,0.0379
411.00,0.0374
410.00,0.0365
409.00,0.0358
408.00,0.0356
407.00,0.0362
406.00,0.0371
405.00,0.0379
404.00,0.0382
403.00,0.0382
402.00,0.0380
401.00,0.0371
400.00,0.0357
