Created as New Dataset,Sample 986 By YargerLab Date Wednesday, July 30 2025
cm-1,A
4000.00,0.0042
3999.00,0.0042
3998.00,0.0042
3997.00,0.0042
3996.00,0.0042
3995.00,0.0042
3994.00,0.0042
3993.00,0.0042
3992.00,0.0042
3991.00,0.0042
3990.00,0.0042
3989.00,0.0042
3988.00,0.0042
3987.00,0.0042
3986.00,0.0042
3985.00,0.0042
3984.00,0.0042
3983.00,0.0042
3982.00,0.0043
3981.00,0.0043
3980.00,0.0043
3979.00,0.0043
3978.00,0.0043
3977.00,0.0043
3976.00,0.0042
3975.00,0.0042
3974.00,0.0042
3973.00,0.0042
3972.00,0.0042
3971.00,0.0042
3970.00,0.0042
3969.00,0.0042
3968.00,0.0042
3967.00,0.0042
3966.00,0.0042
3965.00,0.0043
3964.00,0.0043
3963.00,0.0043
3962.00,0.0043
3961.00,0.0042
3960.00,0.0042
3959.00,0.0042
3958.00,0.0042
3957.00,0.0042
3956.00,0.0042
3955.00,0.0043
3954.00,0.0043
3953.00,0.0043
3952.00,0.0043
3951.00,0.0043
3950.00,0.0043
3949.00,0.0043
3948.00,0.0042
3947.00,0.0042
3946.00,0.0042
3945.00,0.0042
3944.00,0.0042
3943.00,0.0042
3942.00,0.0042
3941.00,0.0042
3940.00,0.0042
3939.00,0.0042
3938.00,0.0042
3937.00,0.0042
3936.00,0.0042
3935.00,0.0042
3934.00,0.0042
3933.00,0.0042
3932.00,0.0042
3931.00,0.0042
3930.00,0.0042
3929.00,0.0042
3928.00,0.0042
3927.00,0.0042
3926.00,0.0042
3925.00,0.0042
3924.00,0.0042
3923.00,0.0042
3922.00,0.0042
3921.00,0.0042
3920.00,0.0042
3919.00,0.0042
3918.00,0.0042
3917.00,0.0042
3916.00,0.0042
3915.00,0.0042
3914.00,0.0042
3913.00,0.0042
3912.00,0.0042
3911.00,0.0042
3910.00,0.0042
3909.00,0.0042
3908.00,0.0042
3907.00,0.0042
3906.00,0.0042
3905.00,0.0042
3904.00,0.0042
3903.00,0.0042
3902.00,0.0042
3901.00,0.0041
3900.00,0.0041
3899.00,0.0041
3898.00,0.0041
3897.00,0.0041
3896.00,0.0042
3895.00,0.0042
3894.00,0.0042
3893.00,0.0042
3892.00,0.0042
3891.00,0.0042
3890.00,0.0042
3889.00,0.0042
3888.00,0.0042
3887.00,0.0041
3886.00,0.0041
3885.00,0.0041
3884.00,0.0041
3883.00,0.0041
3882.00,0.0041
3881.00,0.0041
3880.00,0.0041
3879.00,0.0041
3878.00,0.0041
3877.00,0.0042
3876.00,0.0042
3875.00,0.0042
3874.00,0.0042
3873.00,0.0042
3872.00,0.0042
3871.00,0.0042
3870.00,0.0042
3869.00,0.0042
3868.00,0.0042
3867.00,0.0041
3866.00,0.0041
3865.00,0.0041
3864.00,0.0041
3863.00,0.0041
3862.00,0.0041
3861.00,0.0041
3860.00,0.0041
3859.00,0.0042
3858.00,0.0042
3857.00,0.0042
3856.00,0.0042
3855.00,0.0042
3854.00,0.0041
3853.00,0.0041
3852.00,0.0041
3851.00,0.0041
3850.00,0.0041
3849.00,0.0041
3848.00,0.0041
3847.00,0.0041
3846.00,0.0041
3845.00,0.0041
3844.00,0.0041
3843.00,0.0041
3842.00,0.0042
3841.00,0.0042
3840.00,0.0042
3839.00,0.0042
3838.00,0.0042
3837.00,0.0042
3836.00,0.0042
3835.00,0.0041
3834.00,0.0041
3833.00,0.0041
3832.00,0.0041
3831.00,0.0041
3830.00,0.0041
3829.00,0.0041
3828.00,0.0041
3827.00,0.0041
3826.00,0.0041
3825.00,0.0042
3824.00,0.0042
3823.00,0.0042
3822.00,0.0042
3821.00,0.0042
3820.00,0.0042
3819.00,0.0042
3818.00,0.0042
3817.00,0.0041
3816.00,0.0041
3815.00,0.0041
3814.00,0.0041
3813.00,0.0041
3812.00,0.0041
3811.00,0.0042
3810.00,0.0042
3809.00,0.0042
3808.00,0.0042
3807.00,0.0042
3806.00,0.0042
3805.00,0.0042
3804.00,0.0042
3803.00,0.0042
3802.00,0.0042
3801.00,0.0042
3800.00,0.0042
3799.00,0.0042
3798.00,0.0041
3797.00,0.0041
3796.00,0.0041
3795.00,0.0041
3794.00,0.0040
3793.00,0.0040
3792.00,0.0040
3791.00,0.0041
3790.00,0.0041
3789.00,0.0041
3788.00,0.0041
3787.00,0.0041
3786.00,0.0041
3785.00,0.0041
3784.00,0.0041
3783.00,0.0041
3782.00,0.0041
3781.00,0.0041
3780.00,0.0041
3779.00,0.0041
3778.00,0.0040
3777.00,0.0040
3776.00,0.0040
3775.00,0.0041
3774.00,0.0041
3773.00,0.0041
3772.00,0.0041
3771.00,0.0041
3770.00,0.0040
3769.00,0.0040
3768.00,0.0040
3767.00,0.0040
3766.00,0.0040
3765.00,0.0040
3764.00,0.0041
3763.00,0.0041
3762.00,0.0041
3761.00,0.0041
3760.00,0.0041
3759.00,0.0041
3758.00,0.0041
3757.00,0.0041
3756.00,0.0041
3755.00,0.0042
3754.00,0.0042
3753.00,0.0042
3752.00,0.0042
3751.00,0.0042
3750.00,0.0041
3749.00,0.0041
3748.00,0.0041
3747.00,0.0041
3746.00,0.0041
3745.00,0.0041
3744.00,0.0041
3743.00,0.0041
3742.00,0.0041
3741.00,0.0041
3740.00,0.0041
3739.00,0.0041
3738.00,0.0041
3737.00,0.0041
3736.00,0.0040
3735.00,0.0040
3734.00,0.0040
3733.00,0.0039
3732.00,0.0039
3731.00,0.0039
3730.00,0.0040
3729.00,0.0040
3728.00,0.0040
3727.00,0.0040
3726.00,0.0040
3725.00,0.0040
3724.00,0.0040
3723.00,0.0040
3722.00,0.0039
3721.00,0.0039
3720.00,0.0039
3719.00,0.0040
3718.00,0.0040
3717.00,0.0040
3716.00,0.0041
3715.00,0.0041
3714.00,0.0041
3713.00,0.0040
3712.00,0.0040
3711.00,0.0040
3710.00,0.0040
3709.00,0.0040
3708.00,0.0040
3707.00,0.0040
3706.00,0.0040
3705.00,0.0041
3704.00,0.0041
3703.00,0.0041
3702.00,0.0040
3701.00,0.0040
3700.00,0.0040
3699.00,0.0040
3698.00,0.0040
3697.00,0.0040
3696.00,0.0041
3695.00,0.0041
3694.00,0.0041
3693.00,0.0041
3692.00,0.0041
3691.00,0.0041
3690.00,0.0042
3689.00,0.0042
3688.00,0.0042
3687.00,0.0042
3686.00,0.0042
3685.00,0.0043
3684.00,0.0043
3683.00,0.0043
3682.00,0.0043
3681.00,0.0043
3680.00,0.0043
3679.00,0.0043
3678.00,0.0043
3677.00,0.0043
3676.00,0.0044
3675.00,0.0045
3674.00,0.0045
3673.00,0.0045
3672.00,0.0045
3671.00,0.0045
3670.00,0.0046
3669.00,0.0046
3668.00,0.0047
3667.00,0.0047
3666.00,0.0048
3665.00,0.0048
3664.00,0.0049
3663.00,0.0049
3662.00,0.0049
3661.00,0.0049
3660.00,0.0050
3659.00,0.0050
3658.00,0.0050
3657.00,0.0051
3656.00,0.0051
3655.00,0.0052
3654.00,0.0052
3653.00,0.0052
3652.00,0.0053
3651.00,0.0054
3650.00,0.0055
3649.00,0.0056
3648.00,0.0057
3647.00,0.0058
3646.00,0.0058
3645.00,0.0058
3644.00,0.0058
3643.00,0.0059
3642.00,0.0059
3641.00,0.0059
3640.00,0.0060
3639.00,0.0060
3638.00,0.0061
3637.00,0.0061
3636.00,0.0062
3635.00,0.0063
3634.00,0.0063
3633.00,0.0064
3632.00,0.0064
3631.00,0.0065
3630.00,0.0066
3629.00,0.0068
3628.00,0.0069
3627.00,0.0070
3626.00,0.0070
3625.00,0.0070
3624.00,0.0071
3623.00,0.0072
3622.00,0.0072
3621.00,0.0072
3620.00,0.0073
3619.00,0.0074
3618.00,0.0075
3617.00,0.0076
3616.00,0.0077
3615.00,0.0078
3614.00,0.0079
3613.00,0.0080
3612.00,0.0080
3611.00,0.0081
3610.00,0.0082
3609.00,0.0082
3608.00,0.0083
3607.00,0.0084
3606.00,0.0085
3605.00,0.0085
3604.00,0.0086
3603.00,0.0087
3602.00,0.0087
3601.00,0.0088
3600.00,0.0089
3599.00,0.0090
3598.00,0.0091
3597.00,0.0092
3596.00,0.0093
3595.00,0.0094
3594.00,0.0095
3593.00,0.0096
3592.00,0.0096
3591.00,0.0096
3590.00,0.0097
3589.00,0.0098
3588.00,0.0100
3587.00,0.0101
3586.00,0.0103
3585.00,0.0104
3584.00,0.0104
3583.00,0.0105
3582.00,0.0105
3581.00,0.0106
3580.00,0.0107
3579.00,0.0108
3578.00,0.0109
3577.00,0.0110
3576.00,0.0111
3575.00,0.0112
3574.00,0.0113
3573.00,0.0114
3572.00,0.0114
3571.00,0.0115
3570.00,0.0115
3569.00,0.0116
3568.00,0.0118
3567.00,0.0120
3566.00,0.0122
3565.00,0.0124
3564.00,0.0125
3563.00,0.0125
3562.00,0.0126
3561.00,0.0127
3560.00,0.0128
3559.00,0.0129
3558.00,0.0130
3557.00,0.0131
3556.00,0.0132
3555.00,0.0133
3554.00,0.0134
3553.00,0.0135
3552.00,0.0136
3551.00,0.0138
3550.00,0.0138
3549.00,0.0140
3548.00,0.0141
3547.00,0.0143
3546.00,0.0144
3545.00,0.0146
3544.00,0.0147
3543.00,0.0148
3542.00,0.0148
3541.00,0.0149
3540.00,0.0150
3539.00,0.0151
3538.00,0.0152
3537.00,0.0154
3536.00,0.0155
3535.00,0.0157
3534.00,0.0158
3533.00,0.0159
3532.00,0.0160
3531.00,0.0161
3530.00,0.0163
3529.00,0.0164
3528.00,0.0166
3527.00,0.0167
3526.00,0.0169
3525.00,0.0170
3524.00,0.0172
3523.00,0.0173
3522.00,0.0175
3521.00,0.0176
3520.00,0.0178
3519.00,0.0180
3518.00,0.0181
3517.00,0.0183
3516.00,0.0185
3515.00,0.0186
3514.00,0.0188
3513.00,0.0189
3512.00,0.0191
3511.00,0.0193
3510.00,0.0195
3509.00,0.0197
3508.00,0.0199
3507.00,0.0201
3506.00,0.0203
3505.00,0.0204
3504.00,0.0206
3503.00,0.0209
3502.00,0.0211
3501.00,0.0213
3500.00,0.0215
3499.00,0.0217
3498.00,0.0219
3497.00,0.0220
3496.00,0.0222
3495.00,0.0224
3494.00,0.0226
3493.00,0.0228
3492.00,0.0230
3491.00,0.0232
3490.00,0.0234
3489.00,0.0236
3488.00,0.0238
3487.00,0.0240
3486.00,0.0242
3485.00,0.0244
3484.00,0.0246
3483.00,0.0248
3482.00,0.0250
3481.00,0.0252
3480.00,0.0254
3479.00,0.0256
3478.00,0.0257
3477.00,0.0259
3476.00,0.0261
3475.00,0.0263
3474.00,0.0264
3473.00,0.0266
3472.00,0.0268
3471.00,0.0270
3470.00,0.0271
3469.00,0.0273
3468.00,0.0275
3467.00,0.0276
3466.00,0.0278
3465.00,0.0279
3464.00,0.0280
3463.00,0.0282
3462.00,0.0284
3461.00,0.0286
3460.00,0.0287
3459.00,0.0288
3458.00,0.0290
3457.00,0.0291
3456.00,0.0292
3455.00,0.0293
3454.00,0.0294
3453.00,0.0295
3452.00,0.0296
3451.00,0.0297
3450.00,0.0298
3449.00,0.0300
3448.00,0.0301
3447.00,0.0303
3446.00,0.0304
3445.00,0.0305
3444.00,0.0306
3443.00,0.0308
3442.00,0.0309
3441.00,0.0310
3440.00,0.0311
3439.00,0.0312
3438.00,0.0313
3437.00,0.0314
3436.00,0.0316
3435.00,0.0317
3434.00,0.0318
3433.00,0.0319
3432.00,0.0320
3431.00,0.0320
3430.00,0.0321
3429.00,0.0322
3428.00,0.0323
3427.00,0.0324
3426.00,0.0325
3425.00,0.0326
3424.00,0.0326
3423.00,0.0328
3422.00,0.0329
3421.00,0.0330
3420.00,0.0332
3419.00,0.0333
3418.00,0.0334
3417.00,0.0335
3416.00,0.0335
3415.00,0.0336
3414.00,0.0337
3413.00,0.0339
3412.00,0.0340
3411.00,0.0341
3410.00,0.0342
3409.00,0.0343
3408.00,0.0344
3407.00,0.0345
3406.00,0.0347
3405.00,0.0348
3404.00,0.0349
3403.00,0.0350
3402.00,0.0350
3401.00,0.0351
3400.00,0.0353
3399.00,0.0354
3398.00,0.0355
3397.00,0.0357
3396.00,0.0358
3395.00,0.0359
3394.00,0.0361
3393.00,0.0362
3392.00,0.0364
3391.00,0.0365
3390.00,0.0367
3389.00,0.0368
3388.00,0.0370
3387.00,0.0371
3386.00,0.0373
3385.00,0.0375
3384.00,0.0377
3383.00,0.0379
3382.00,0.0380
3381.00,0.0382
3380.00,0.0384
3379.00,0.0386
3378.00,0.0388
3377.00,0.0390
3376.00,0.0392
3375.00,0.0393
3374.00,0.0395
3373.00,0.0397
3372.00,0.0398
3371.00,0.0400
3370.00,0.0401
3369.00,0.0403
3368.00,0.0406
3367.00,0.0408
3366.00,0.0410
3365.00,0.0412
3364.00,0.0415
3363.00,0.0417
3362.00,0.0419
3361.00,0.0421
3360.00,0.0423
3359.00,0.0425
3358.00,0.0427
3357.00,0.0429
3356.00,0.0431
3355.00,0.0433
3354.00,0.0435
3353.00,0.0436
3352.00,0.0438
3351.00,0.0439
3350.00,0.0441
3349.00,0.0443
3348.00,0.0444
3347.00,0.0446
3346.00,0.0448
3345.00,0.0450
3344.00,0.0451
3343.00,0.0453
3342.00,0.0454
3341.00,0.0456
3340.00,0.0457
3339.00,0.0458
3338.00,0.0460
3337.00,0.0462
3336.00,0.0464
3335.00,0.0466
3334.00,0.0468
3333.00,0.0470
3332.00,0.0471
3331.00,0.0473
3330.00,0.0474
3329.00,0.0475
3328.00,0.0477
3327.00,0.0478
3326.00,0.0480
3325.00,0.0482
3324.00,0.0484
3323.00,0.0486
3322.00,0.0488
3321.00,0.0490
3320.00,0.0492
3319.00,0.0494
3318.00,0.0495
3317.00,0.0497
3316.00,0.0499
3315.00,0.0501
3314.00,0.0503
3313.00,0.0505
3312.00,0.0506
3311.00,0.0507
3310.00,0.0508
3309.00,0.0509
3308.00,0.0511
3307.00,0.0513
3306.00,0.0515
3305.00,0.0518
3304.00,0.0521
3303.00,0.0524
3302.00,0.0526
3301.00,0.0528
3300.00,0.0530
3299.00,0.0531
3298.00,0.0532
3297.00,0.0534
3296.00,0.0535
3295.00,0.0536
3294.00,0.0538
3293.00,0.0540
3292.00,0.0542
3291.00,0.0545
3290.00,0.0547
3289.00,0.0548
3288.00,0.0550
3287.00,0.0551
3286.00,0.0552
3285.00,0.0553
3284.00,0.0554
3283.00,0.0555
3282.00,0.0555
3281.00,0.0556
3280.00,0.0556
3279.00,0.0557
3278.00,0.0557
3277.00,0.0556
3276.00,0.0556
3275.00,0.0556
3274.00,0.0555
3273.00,0.0554
3272.00,0.0553
3271.00,0.0552
3270.00,0.0552
3269.00,0.0552
3268.00,0.0552
3267.00,0.0551
3266.00,0.0550
3265.00,0.0549
3264.00,0.0547
3263.00,0.0545
3262.00,0.0544
3261.00,0.0542
3260.00,0.0540
3259.00,0.0537
3258.00,0.0535
3257.00,0.0532
3256.00,0.0530
3255.00,0.0528
3254.00,0.0527
3253.00,0.0525
3252.00,0.0523
3251.00,0.0521
3250.00,0.0518
3249.00,0.0516
3248.00,0.0513
3247.00,0.0511
3246.00,0.0510
3245.00,0.0509
3244.00,0.0508
3243.00,0.0507
3242.00,0.0505
3241.00,0.0504
3240.00,0.0502
3239.00,0.0500
3238.00,0.0498
3237.00,0.0496
3236.00,0.0494
3235.00,0.0492
3234.00,0.0490
3233.00,0.0490
3232.00,0.0489
3231.00,0.0489
3230.00,0.0489
3229.00,0.0488
3228.00,0.0488
3227.00,0.0487
3226.00,0.0486
3225.00,0.0485
3224.00,0.0484
3223.00,0.0483
3222.00,0.0482
3221.00,0.0481
3220.00,0.0481
3219.00,0.0480
3218.00,0.0479
3217.00,0.0478
3216.00,0.0477
3215.00,0.0477
3214.00,0.0476
3213.00,0.0475
3212.00,0.0474
3211.00,0.0473
3210.00,0.0472
3209.00,0.0472
3208.00,0.0471
3207.00,0.0470
3206.00,0.0469
3205.00,0.0468
3204.00,0.0467
3203.00,0.0466
3202.00,0.0465
3201.00,0.0464
3200.00,0.0463
3199.00,0.0462
3198.00,0.0460
3197.00,0.0459
3196.00,0.0458
3195.00,0.0456
3194.00,0.0455
3193.00,0.0453
3192.00,0.0451
3191.00,0.0450
3190.00,0.0448
3189.00,0.0446
3188.00,0.0445
3187.00,0.0443
3186.00,0.0442
3185.00,0.0440
3184.00,0.0438
3183.00,0.0436
3182.00,0.0435
3181.00,0.0433
3180.00,0.0431
3179.00,0.0429
3178.00,0.0428
3177.00,0.0426
3176.00,0.0424
3175.00,0.0422
3174.00,0.0420
3173.00,0.0418
3172.00,0.0416
3171.00,0.0414
3170.00,0.0412
3169.00,0.0410
3168.00,0.0408
3167.00,0.0407
3166.00,0.0405
3165.00,0.0403
3164.00,0.0401
3163.00,0.0399
3162.00,0.0397
3161.00,0.0396
3160.00,0.0394
3159.00,0.0392
3158.00,0.0390
3157.00,0.0388
3156.00,0.0386
3155.00,0.0384
3154.00,0.0382
3153.00,0.0380
3152.00,0.0378
3151.00,0.0377
3150.00,0.0376
3149.00,0.0374
3148.00,0.0373
3147.00,0.0371
3146.00,0.0370
3145.00,0.0368
3144.00,0.0367
3143.00,0.0365
3142.00,0.0363
3141.00,0.0361
3140.00,0.0360
3139.00,0.0359
3138.00,0.0358
3137.00,0.0357
3136.00,0.0356
3135.00,0.0355
3134.00,0.0354
3133.00,0.0352
3132.00,0.0351
3131.00,0.0349
3130.00,0.0348
3129.00,0.0347
3128.00,0.0346
3127.00,0.0345
3126.00,0.0344
3125.00,0.0343
3124.00,0.0342
3123.00,0.0340
3122.00,0.0339
3121.00,0.0337
3120.00,0.0336
3119.00,0.0335
3118.00,0.0334
3117.00,0.0334
3116.00,0.0334
3115.00,0.0334
3114.00,0.0334
3113.00,0.0334
3112.00,0.0334
3111.00,0.0333
3110.00,0.0332
3109.00,0.0332
3108.00,0.0332
3107.00,0.0332
3106.00,0.0332
3105.00,0.0332
3104.00,0.0332
3103.00,0.0331
3102.00,0.0330
3101.00,0.0330
3100.00,0.0330
3099.00,0.0330
3098.00,0.0331
3097.00,0.0331
3096.00,0.0332
3095.00,0.0332
3094.00,0.0332
3093.00,0.0331
3092.00,0.0331
3091.00,0.0330
3090.00,0.0330
3089.00,0.0330
3088.00,0.0330
3087.00,0.0330
3086.00,0.0330
3085.00,0.0329
3084.00,0.0329
3083.00,0.0329
3082.00,0.0329
3081.00,0.0328
3080.00,0.0328
3079.00,0.0328
3078.00,0.0328
3077.00,0.0329
3076.00,0.0330
3075.00,0.0331
3074.00,0.0331
3073.00,0.0331
3072.00,0.0330
3071.00,0.0330
3070.00,0.0329
3069.00,0.0328
3068.00,0.0327
3067.00,0.0327
3066.00,0.0327
3065.00,0.0327
3064.00,0.0327
3063.00,0.0326
3062.00,0.0326
3061.00,0.0325
3060.00,0.0324
3059.00,0.0323
3058.00,0.0321
3057.00,0.0320
3056.00,0.0319
3055.00,0.0318
3054.00,0.0316
3053.00,0.0315
3052.00,0.0313
3051.00,0.0312
3050.00,0.0311
3049.00,0.0310
3048.00,0.0309
3047.00,0.0307
3046.00,0.0305
3045.00,0.0304
3044.00,0.0302
3043.00,0.0300
3042.00,0.0299
3041.00,0.0299
3040.00,0.0298
3039.00,0.0298
3038.00,0.0296
3037.00,0.0295
3036.00,0.0293
3035.00,0.0291
3034.00,0.0290
3033.00,0.0289
3032.00,0.0289
3031.00,0.0288
3030.00,0.0287
3029.00,0.0286
3028.00,0.0285
3027.00,0.0283
3026.00,0.0282
3025.00,0.0280
3024.00,0.0279
3023.00,0.0278
3022.00,0.0276
3021.00,0.0274
3020.00,0.0273
3019.00,0.0271
3018.00,0.0269
3017.00,0.0268
3016.00,0.0266
3015.00,0.0265
3014.00,0.0264
3013.00,0.0263
3012.00,0.0262
3011.00,0.0261
3010.00,0.0261
3009.00,0.0260
3008.00,0.0260
3007.00,0.0259
3006.00,0.0258
3005.00,0.0258
3004.00,0.0257
3003.00,0.0257
3002.00,0.0256
3001.00,0.0256
3000.00,0.0255
2999.00,0.0254
2998.00,0.0254
2997.00,0.0254
2996.00,0.0255
2995.00,0.0255
2994.00,0.0255
2993.00,0.0256
2992.00,0.0257
2991.00,0.0258
2990.00,0.0260
2989.00,0.0261
2988.00,0.0263
2987.00,0.0264
2986.00,0.0266
2985.00,0.0267
2984.00,0.0269
2983.00,0.0270
2982.00,0.0272
2981.00,0.0274
2980.00,0.0276
2979.00,0.0279
2978.00,0.0282
2977.00,0.0285
2976.00,0.0288
2975.00,0.0291
2974.00,0.0294
2973.00,0.0297
2972.00,0.0299
2971.00,0.0302
2970.00,0.0305
2969.00,0.0308
2968.00,0.0310
2967.00,0.0312
2966.00,0.0313
2965.00,0.0314
2964.00,0.0315
2963.00,0.0316
2962.00,0.0317
2961.00,0.0317
2960.00,0.0316
2959.00,0.0315
2958.00,0.0314
2957.00,0.0313
2956.00,0.0311
2955.00,0.0309
2954.00,0.0307
2953.00,0.0305
2952.00,0.0304
2951.00,0.0303
2950.00,0.0302
2949.00,0.0301
2948.00,0.0301
2947.00,0.0301
2946.00,0.0301
2945.00,0.0302
2944.00,0.0304
2943.00,0.0306
2942.00,0.0307
2941.00,0.0309
2940.00,0.0311
2939.00,0.0313
2938.00,0.0314
2937.00,0.0315
2936.00,0.0315
2935.00,0.0315
2934.00,0.0315
2933.00,0.0315
2932.00,0.0314
2931.00,0.0313
2930.00,0.0313
2929.00,0.0312
2928.00,0.0311
2927.00,0.0309
2926.00,0.0307
2925.00,0.0305
2924.00,0.0303
2923.00,0.0300
2922.00,0.0297
2921.00,0.0294
2920.00,0.0291
2919.00,0.0287
2918.00,0.0284
2917.00,0.0281
2916.00,0.0278
2915.00,0.0277
2914.00,0.0275
2913.00,0.0275
2912.00,0.0274
2911.00,0.0273
2910.00,0.0272
2909.00,0.0271
2908.00,0.0269
2907.00,0.0268
2906.00,0.0266
2905.00,0.0264
2904.00,0.0262
2903.00,0.0261
2902.00,0.0260
2901.00,0.0259
2900.00,0.0257
2899.00,0.0256
2898.00,0.0254
2897.00,0.0253
2896.00,0.0252
2895.00,0.0251
2894.00,0.0250
2893.00,0.0249
2892.00,0.0248
2891.00,0.0248
2890.00,0.0247
2889.00,0.0246
2888.00,0.0246
2887.00,0.0246
2886.00,0.0246
2885.00,0.0247
2884.00,0.0247
2883.00,0.0248
2882.00,0.0249
2881.00,0.0250
2880.00,0.0251
2879.00,0.0252
2878.00,0.0252
2877.00,0.0252
2876.00,0.0252
2875.00,0.0252
2874.00,0.0251
2873.00,0.0250
2872.00,0.0249
2871.00,0.0247
2870.00,0.0246
2869.00,0.0244
2868.00,0.0242
2867.00,0.0240
2866.00,0.0238
2865.00,0.0236
2864.00,0.0233
2863.00,0.0231
2862.00,0.0229
2861.00,0.0227
2860.00,0.0226
2859.00,0.0225
2858.00,0.0224
2857.00,0.0223
2856.00,0.0222
2855.00,0.0221
2854.00,0.0219
2853.00,0.0217
2852.00,0.0214
2851.00,0.0212
2850.00,0.0209
2849.00,0.0207
2848.00,0.0206
2847.00,0.0205
2846.00,0.0205
2845.00,0.0205
2844.00,0.0204
2843.00,0.0204
2842.00,0.0203
2841.00,0.0202
2840.00,0.0201
2839.00,0.0200
2838.00,0.0200
2837.00,0.0199
2836.00,0.0199
2835.00,0.0198
2834.00,0.0197
2833.00,0.0197
2832.00,0.0197
2831.00,0.0196
2830.00,0.0196
2829.00,0.0196
2828.00,0.0195
2827.00,0.0195
2826.00,0.0194
2825.00,0.0194
2824.00,0.0193
2823.00,0.0192
2822.00,0.0192
2821.00,0.0191
2820.00,0.0191
2819.00,0.0191
2818.00,0.0190
2817.00,0.0190
2816.00,0.0189
2815.00,0.0189
2814.00,0.0188
2813.00,0.0188
2812.00,0.0187
2811.00,0.0186
2810.00,0.0186
2809.00,0.0186
2808.00,0.0185
2807.00,0.0185
2806.00,0.0184
2805.00,0.0184
2804.00,0.0183
2803.00,0.0183
2802.00,0.0182
2801.00,0.0181
2800.00,0.0181
2799.00,0.0180
2798.00,0.0180
2797.00,0.0179
2796.00,0.0179
2795.00,0.0178
2794.00,0.0178
2793.00,0.0177
2792.00,0.0177
2791.00,0.0176
2790.00,0.0175
2789.00,0.0175
2788.00,0.0175
2787.00,0.0174
2786.00,0.0174
2785.00,0.0174
2784.00,0.0173
2783.00,0.0173
2782.00,0.0172
2781.00,0.0172
2780.00,0.0172
2779.00,0.0171
2778.00,0.0170
2777.00,0.0170
2776.00,0.0169
2775.00,0.0168
2774.00,0.0168
2773.00,0.0168
2772.00,0.0167
2771.00,0.0167
2770.00,0.0167
2769.00,0.0166
2768.00,0.0166
2767.00,0.0165
2766.00,0.0165
2765.00,0.0165
2764.00,0.0164
2763.00,0.0164
2762.00,0.0163
2761.00,0.0163
2760.00,0.0163
2759.00,0.0162
2758.00,0.0162
2757.00,0.0161
2756.00,0.0160
2755.00,0.0160
2754.00,0.0159
2753.00,0.0159
2752.00,0.0158
2751.00,0.0158
2750.00,0.0157
2749.00,0.0157
2748.00,0.0157
2747.00,0.0156
2746.00,0.0156
2745.00,0.0156
2744.00,0.0155
2743.00,0.0155
2742.00,0.0155
2741.00,0.0154
2740.00,0.0154
2739.00,0.0153
2738.00,0.0153
2737.00,0.0152
2736.00,0.0152
2735.00,0.0151
2734.00,0.0151
2733.00,0.0151
2732.00,0.0150
2731.00,0.0150
2730.00,0.0149
2729.00,0.0148
2728.00,0.0148
2727.00,0.0147
2726.00,0.0147
2725.00,0.0147
2724.00,0.0146
2723.00,0.0146
2722.00,0.0146
2721.00,0.0145
2720.00,0.0145
2719.00,0.0144
2718.00,0.0144
2717.00,0.0144
2716.00,0.0143
2715.00,0.0142
2714.00,0.0142
2713.00,0.0141
2712.00,0.0141
2711.00,0.0141
2710.00,0.0141
2709.00,0.0140
2708.00,0.0140
2707.00,0.0140
2706.00,0.0139
2705.00,0.0139
2704.00,0.0139
2703.00,0.0139
2702.00,0.0139
2701.00,0.0138
2700.00,0.0138
2699.00,0.0138
2698.00,0.0137
2697.00,0.0137
2696.00,0.0137
2695.00,0.0137
2694.00,0.0137
2693.00,0.0136
2692.00,0.0136
2691.00,0.0136
2690.00,0.0136
2689.00,0.0135
2688.00,0.0135
2687.00,0.0135
2686.00,0.0134
2685.00,0.0134
2684.00,0.0134
2683.00,0.0134
2682.00,0.0133
2681.00,0.0133
2680.00,0.0133
2679.00,0.0133
2678.00,0.0132
2677.00,0.0132
2676.00,0.0132
2675.00,0.0132
2674.00,0.0132
2673.00,0.0131
2672.00,0.0131
2671.00,0.0131
2670.00,0.0131
2669.00,0.0131
2668.00,0.0131
2667.00,0.0131
2666.00,0.0132
2665.00,0.0132
2664.00,0.0132
2663.00,0.0132
2662.00,0.0132
2661.00,0.0132
2660.00,0.0133
2659.00,0.0133
2658.00,0.0133
2657.00,0.0133
2656.00,0.0133
2655.00,0.0133
2654.00,0.0133
2653.00,0.0133
2652.00,0.0132
2651.00,0.0132
2650.00,0.0132
2649.00,0.0131
2648.00,0.0131
2647.00,0.0131
2646.00,0.0131
2645.00,0.0130
2644.00,0.0130
2643.00,0.0130
2642.00,0.0130
2641.00,0.0130
2640.00,0.0129
2639.00,0.0129
2638.00,0.0129
2637.00,0.0128
2636.00,0.0128
2635.00,0.0128
2634.00,0.0127
2633.00,0.0127
2632.00,0.0127
2631.00,0.0127
2630.00,0.0127
2629.00,0.0127
2628.00,0.0127
2627.00,0.0126
2626.00,0.0126
2625.00,0.0125
2624.00,0.0125
2623.00,0.0124
2622.00,0.0124
2621.00,0.0124
2620.00,0.0124
2619.00,0.0124
2618.00,0.0123
2617.00,0.0123
2616.00,0.0123
2615.00,0.0122
2614.00,0.0122
2613.00,0.0122
2612.00,0.0121
2611.00,0.0121
2610.00,0.0121
2609.00,0.0120
2608.00,0.0119
2607.00,0.0119
2606.00,0.0118
2605.00,0.0118
2604.00,0.0118
2603.00,0.0118
2602.00,0.0118
2601.00,0.0117
2600.00,0.0117
2599.00,0.0117
2598.00,0.0117
2597.00,0.0116
2596.00,0.0116
2595.00,0.0116
2594.00,0.0115
2593.00,0.0115
2592.00,0.0114
2591.00,0.0114
2590.00,0.0114
2589.00,0.0114
2588.00,0.0114
2587.00,0.0113
2586.00,0.0113
2585.00,0.0113
2584.00,0.0113
2583.00,0.0112
2582.00,0.0112
2581.00,0.0112
2580.00,0.0112
2579.00,0.0111
2578.00,0.0111
2577.00,0.0110
2576.00,0.0110
2575.00,0.0110
2574.00,0.0109
2573.00,0.0109
2572.00,0.0109
2571.00,0.0108
2570.00,0.0108
2569.00,0.0109
2568.00,0.0109
2567.00,0.0108
2566.00,0.0108
2565.00,0.0107
2564.00,0.0107
2563.00,0.0106
2562.00,0.0106
2561.00,0.0106
2560.00,0.0105
2559.00,0.0105
2558.00,0.0104
2557.00,0.0104
2556.00,0.0104
2555.00,0.0104
2554.00,0.0104
2553.00,0.0104
2552.00,0.0104
2551.00,0.0104
2550.00,0.0104
2549.00,0.0104
2548.00,0.0104
2547.00,0.0104
2546.00,0.0103
2545.00,0.0103
2544.00,0.0103
2543.00,0.0102
2542.00,0.0101
2541.00,0.0101
2540.00,0.0101
2539.00,0.0100
2538.00,0.0100
2537.00,0.0100
2536.00,0.0100
2535.00,0.0100
2534.00,0.0100
2533.00,0.0100
2532.00,0.0100
2531.00,0.0099
2530.00,0.0099
2529.00,0.0099
2528.00,0.0099
2527.00,0.0099
2526.00,0.0099
2525.00,0.0099
2524.00,0.0098
2523.00,0.0098
2522.00,0.0098
2521.00,0.0098
2520.00,0.0098
2519.00,0.0098
2518.00,0.0097
2517.00,0.0097
2516.00,0.0097
2515.00,0.0097
2514.00,0.0096
2513.00,0.0096
2512.00,0.0096
2511.00,0.0096
2510.00,0.0096
2509.00,0.0096
2508.00,0.0096
2507.00,0.0096
2506.00,0.0096
2505.00,0.0095
2504.00,0.0095
2503.00,0.0095
2502.00,0.0095
2501.00,0.0095
2500.00,0.0095
2499.00,0.0095
2498.00,0.0095
2497.00,0.0095
2496.00,0.0095
2495.00,0.0095
2494.00,0.0095
2493.00,0.0095
2492.00,0.0095
2491.00,0.0094
2490.00,0.0094
2489.00,0.0093
2488.00,0.0093
2487.00,0.0093
2486.00,0.0093
2485.00,0.0093
2484.00,0.0092
2483.00,0.0092
2482.00,0.0092
2481.00,0.0092
2480.00,0.0092
2479.00,0.0091
2478.00,0.0091
2477.00,0.0091
2476.00,0.0091
2475.00,0.0091
2474.00,0.0090
2473.00,0.0090
2472.00,0.0091
2471.00,0.0091
2470.00,0.0091
2469.00,0.0090
2468.00,0.0090
2467.00,0.0090
2466.00,0.0089
2465.00,0.0089
2464.00,0.0089
2463.00,0.0089
2462.00,0.0090
2461.00,0.0090
2460.00,0.0090
2459.00,0.0090
2458.00,0.0090
2457.00,0.0090
2456.00,0.0090
2455.00,0.0090
2454.00,0.0090
2453.00,0.0089
2452.00,0.0089
2451.00,0.0088
2450.00,0.0088
2449.00,0.0088
2448.00,0.0088
2447.00,0.0088
2446.00,0.0088
2445.00,0.0088
2444.00,0.0087
2443.00,0.0087
2442.00,0.0087
2441.00,0.0086
2440.00,0.0086
2439.00,0.0086
2438.00,0.0085
2437.00,0.0085
2436.00,0.0085
2435.00,0.0085
2434.00,0.0084
2433.00,0.0084
2432.00,0.0083
2431.00,0.0083
2430.00,0.0083
2429.00,0.0083
2428.00,0.0083
2427.00,0.0083
2426.00,0.0083
2425.00,0.0083
2424.00,0.0083
2423.00,0.0082
2422.00,0.0082
2421.00,0.0082
2420.00,0.0082
2419.00,0.0081
2418.00,0.0081
2417.00,0.0081
2416.00,0.0082
2415.00,0.0081
2414.00,0.0081
2413.00,0.0081
2412.00,0.0081
2411.00,0.0081
2410.00,0.0080
2409.00,0.0080
2408.00,0.0079
2407.00,0.0079
2406.00,0.0078
2405.00,0.0078
2404.00,0.0079
2403.00,0.0079
2402.00,0.0078
2401.00,0.0078
2400.00,0.0077
2399.00,0.0077
2398.00,0.0077
2397.00,0.0077
2396.00,0.0077
2395.00,0.0077
2394.00,0.0077
2393.00,0.0077
2392.00,0.0076
2391.00,0.0076
2390.00,0.0076
2389.00,0.0075
2388.00,0.0075
2387.00,0.0074
2386.00,0.0073
2385.00,0.0073
2384.00,0.0072
2383.00,0.0072
2382.00,0.0071
2381.00,0.0071
2380.00,0.0071
2379.00,0.0071
2378.00,0.0071
2377.00,0.0070
2376.00,0.0070
2375.00,0.0070
2374.00,0.0069
2373.00,0.0069
2372.00,0.0070
2371.00,0.0070
2370.00,0.0069
2369.00,0.0069
2368.00,0.0069
2367.00,0.0069
2366.00,0.0069
2365.00,0.0069
2364.00,0.0069
2363.00,0.0069
2362.00,0.0069
2361.00,0.0069
2360.00,0.0069
2359.00,0.0069
2358.00,0.0069
2357.00,0.0069
2356.00,0.0069
2355.00,0.0069
2354.00,0.0069
2353.00,0.0069
2352.00,0.0069
2351.00,0.0069
2350.00,0.0070
2349.00,0.0070
2348.00,0.0072
2347.00,0.0072
2346.00,0.0072
2345.00,0.0072
2344.00,0.0071
2343.00,0.0071
2342.00,0.0072
2341.00,0.0072
2340.00,0.0073
2339.00,0.0073
2338.00,0.0073
2337.00,0.0073
2336.00,0.0073
2335.00,0.0074
2334.00,0.0074
2333.00,0.0074
2332.00,0.0074
2331.00,0.0074
2330.00,0.0074
2329.00,0.0076
2328.00,0.0080
2327.00,0.0085
2326.00,0.0088
2325.00,0.0089
2324.00,0.0088
2323.00,0.0085
2322.00,0.0083
2321.00,0.0081
2320.00,0.0080
2319.00,0.0079
2318.00,0.0078
2317.00,0.0078
2316.00,0.0078
2315.00,0.0078
2314.00,0.0077
2313.00,0.0077
2312.00,0.0076
2311.00,0.0076
2310.00,0.0076
2309.00,0.0076
2308.00,0.0076
2307.00,0.0076
2306.00,0.0077
2305.00,0.0077
2304.00,0.0078
2303.00,0.0078
2302.00,0.0079
2301.00,0.0079
2300.00,0.0079
2299.00,0.0079
2298.00,0.0079
2297.00,0.0079
2296.00,0.0080
2295.00,0.0081
2294.00,0.0083
2293.00,0.0084
2292.00,0.0085
2291.00,0.0086
2290.00,0.0087
2289.00,0.0087
2288.00,0.0088
2287.00,0.0088
2286.00,0.0087
2285.00,0.0087
2284.00,0.0086
2283.00,0.0086
2282.00,0.0085
2281.00,0.0084
2280.00,0.0084
2279.00,0.0083
2278.00,0.0082
2277.00,0.0081
2276.00,0.0081
2275.00,0.0080
2274.00,0.0080
2273.00,0.0080
2272.00,0.0080
2271.00,0.0079
2270.00,0.0079
2269.00,0.0079
2268.00,0.0079
2267.00,0.0078
2266.00,0.0078
2265.00,0.0078
2264.00,0.0077
2263.00,0.0077
2262.00,0.0078
2261.00,0.0078
2260.00,0.0079
2259.00,0.0078
2258.00,0.0077
2257.00,0.0075
2256.00,0.0073
2255.00,0.0073
2254.00,0.0074
2253.00,0.0074
2252.00,0.0075
2251.00,0.0076
2250.00,0.0076
2249.00,0.0076
2248.00,0.0076
2247.00,0.0077
2246.00,0.0077
2245.00,0.0077
2244.00,0.0077
2243.00,0.0077
2242.00,0.0077
2241.00,0.0076
2240.00,0.0076
2239.00,0.0076
2238.00,0.0076
2237.00,0.0076
2236.00,0.0077
2235.00,0.0077
2234.00,0.0077
2233.00,0.0076
2232.00,0.0075
2231.00,0.0075
2230.00,0.0075
2229.00,0.0075
2228.00,0.0074
2227.00,0.0074
2226.00,0.0074
2225.00,0.0074
2224.00,0.0074
2223.00,0.0075
2222.00,0.0075
2221.00,0.0075
2220.00,0.0075
2219.00,0.0076
2218.00,0.0076
2217.00,0.0076
2216.00,0.0076
2215.00,0.0076
2214.00,0.0075
2213.00,0.0075
2212.00,0.0075
2211.00,0.0075
2210.00,0.0075
2209.00,0.0074
2208.00,0.0074
2207.00,0.0074
2206.00,0.0073
2205.00,0.0074
2204.00,0.0074
2203.00,0.0075
2202.00,0.0075
2201.00,0.0075
2200.00,0.0075
2199.00,0.0074
2198.00,0.0073
2197.00,0.0074
2196.00,0.0075
2195.00,0.0076
2194.00,0.0076
2193.00,0.0076
2192.00,0.0076
2191.00,0.0076
2190.00,0.0076
2189.00,0.0077
2188.00,0.0078
2187.00,0.0077
2186.00,0.0075
2185.00,0.0073
2184.00,0.0071
2183.00,0.0069
2182.00,0.0068
2181.00,0.0069
2180.00,0.0071
2179.00,0.0071
2178.00,0.0070
2177.00,0.0068
2176.00,0.0067
2175.00,0.0067
2174.00,0.0068
2173.00,0.0070
2172.00,0.0073
2171.00,0.0076
2170.00,0.0078
2169.00,0.0080
2168.00,0.0080
2167.00,0.0080
2166.00,0.0078
2165.00,0.0079
2164.00,0.0080
2163.00,0.0081
2162.00,0.0076
2161.00,0.0065
2160.00,0.0050
2159.00,0.0037
2158.00,0.0030
2157.00,0.0030
2156.00,0.0034
2155.00,0.0037
2154.00,0.0040
2153.00,0.0043
2152.00,0.0046
2151.00,0.0048
2150.00,0.0050
2149.00,0.0051
2148.00,0.0051
2147.00,0.0051
2146.00,0.0051
2145.00,0.0051
2144.00,0.0053
2143.00,0.0053
2142.00,0.0053
2141.00,0.0054
2140.00,0.0054
2139.00,0.0054
2138.00,0.0052
2137.00,0.0050
2136.00,0.0047
2135.00,0.0045
2134.00,0.0045
2133.00,0.0046
2132.00,0.0049
2131.00,0.0051
2130.00,0.0054
2129.00,0.0056
2128.00,0.0059
2127.00,0.0060
2126.00,0.0061
2125.00,0.0062
2124.00,0.0062
2123.00,0.0062
2122.00,0.0062
2121.00,0.0063
2120.00,0.0065
2119.00,0.0067
2118.00,0.0068
2117.00,0.0069
2116.00,0.0069
2115.00,0.0069
2114.00,0.0069
2113.00,0.0069
2112.00,0.0070
2111.00,0.0070
2110.00,0.0070
2109.00,0.0071
2108.00,0.0071
2107.00,0.0071
2106.00,0.0070
2105.00,0.0069
2104.00,0.0069
2103.00,0.0069
2102.00,0.0069
2101.00,0.0069
2100.00,0.0069
2099.00,0.0068
2098.00,0.0067
2097.00,0.0065
2096.00,0.0063
2095.00,0.0062
2094.00,0.0062
2093.00,0.0064
2092.00,0.0065
2091.00,0.0067
2090.00,0.0067
2089.00,0.0067
2088.00,0.0067
2087.00,0.0066
2086.00,0.0067
2085.00,0.0068
2084.00,0.0069
2083.00,0.0069
2082.00,0.0069
2081.00,0.0069
2080.00,0.0069
2079.00,0.0069
2078.00,0.0069
2077.00,0.0069
2076.00,0.0070
2075.00,0.0070
2074.00,0.0070
2073.00,0.0070
2072.00,0.0069
2071.00,0.0068
2070.00,0.0068
2069.00,0.0067
2068.00,0.0066
2067.00,0.0065
2066.00,0.0064
2065.00,0.0064
2064.00,0.0064
2063.00,0.0064
2062.00,0.0064
2061.00,0.0064
2060.00,0.0064
2059.00,0.0064
2058.00,0.0064
2057.00,0.0064
2056.00,0.0063
2055.00,0.0063
2054.00,0.0065
2053.00,0.0070
2052.00,0.0073
2051.00,0.0073
2050.00,0.0070
2049.00,0.0067
2048.00,0.0066
2047.00,0.0066
2046.00,0.0065
2045.00,0.0064
2044.00,0.0062
2043.00,0.0060
2042.00,0.0059
2041.00,0.0060
2040.00,0.0062
2039.00,0.0063
2038.00,0.0064
2037.00,0.0063
2036.00,0.0060
2035.00,0.0058
2034.00,0.0055
2033.00,0.0054
2032.00,0.0053
2031.00,0.0051
2030.00,0.0050
2029.00,0.0050
2028.00,0.0051
2027.00,0.0050
2026.00,0.0050
2025.00,0.0051
2024.00,0.0052
2023.00,0.0053
2022.00,0.0053
2021.00,0.0053
2020.00,0.0053
2019.00,0.0052
2018.00,0.0051
2017.00,0.0051
2016.00,0.0051
2015.00,0.0051
2014.00,0.0051
2013.00,0.0053
2012.00,0.0053
2011.00,0.0053
2010.00,0.0051
2009.00,0.0049
2008.00,0.0047
2007.00,0.0044
2006.00,0.0043
2005.00,0.0043
2004.00,0.0045
2003.00,0.0047
2002.00,0.0049
2001.00,0.0050
2000.00,0.0052
1999.00,0.0052
1998.00,0.0052
1997.00,0.0053
1996.00,0.0054
1995.00,0.0054
1994.00,0.0055
1993.00,0.0056
1992.00,0.0057
1991.00,0.0057
1990.00,0.0057
1989.00,0.0057
1988.00,0.0057
1987.00,0.0058
1986.00,0.0059
1985.00,0.0061
1984.00,0.0064
1983.00,0.0067
1982.00,0.0069
1981.00,0.0069
1980.00,0.0065
1979.00,0.0059
1978.00,0.0052
1977.00,0.0050
1976.00,0.0049
1975.00,0.0048
1974.00,0.0046
1973.00,0.0045
1972.00,0.0045
1971.00,0.0045
1970.00,0.0045
1969.00,0.0045
1968.00,0.0046
1967.00,0.0046
1966.00,0.0045
1965.00,0.0045
1964.00,0.0046
1963.00,0.0045
1962.00,0.0044
1961.00,0.0042
1960.00,0.0042
1959.00,0.0041
1958.00,0.0042
1957.00,0.0043
1956.00,0.0045
1955.00,0.0045
1954.00,0.0044
1953.00,0.0044
1952.00,0.0045
1951.00,0.0046
1950.00,0.0046
1949.00,0.0046
1948.00,0.0048
1947.00,0.0048
1946.00,0.0049
1945.00,0.0049
1944.00,0.0049
1943.00,0.0048
1942.00,0.0046
1941.00,0.0045
1940.00,0.0046
1939.00,0.0046
1938.00,0.0046
1937.00,0.0046
1936.00,0.0046
1935.00,0.0046
1934.00,0.0046
1933.00,0.0046
1932.00,0.0047
1931.00,0.0047
1930.00,0.0047
1929.00,0.0047
1928.00,0.0047
1927.00,0.0047
1926.00,0.0047
1925.00,0.0048
1924.00,0.0050
1923.00,0.0051
1922.00,0.0052
1921.00,0.0052
1920.00,0.0052
1919.00,0.0051
1918.00,0.0050
1917.00,0.0049
1916.00,0.0050
1915.00,0.0050
1914.00,0.0051
1913.00,0.0051
1912.00,0.0052
1911.00,0.0052
1910.00,0.0052
1909.00,0.0052
1908.00,0.0052
1907.00,0.0052
1906.00,0.0052
1905.00,0.0052
1904.00,0.0051
1903.00,0.0051
1902.00,0.0050
1901.00,0.0050
1900.00,0.0051
1899.00,0.0051
1898.00,0.0051
1897.00,0.0051
1896.00,0.0052
1895.00,0.0051
1894.00,0.0051
1893.00,0.0052
1892.00,0.0053
1891.00,0.0053
1890.00,0.0053
1889.00,0.0051
1888.00,0.0051
1887.00,0.0051
1886.00,0.0051
1885.00,0.0052
1884.00,0.0052
1883.00,0.0052
1882.00,0.0051
1881.00,0.0052
1880.00,0.0052
1879.00,0.0053
1878.00,0.0053
1877.00,0.0053
1876.00,0.0053
1875.00,0.0052
1874.00,0.0052
1873.00,0.0052
1872.00,0.0053
1871.00,0.0054
1870.00,0.0054
1869.00,0.0053
1868.00,0.0051
1867.00,0.0050
1866.00,0.0050
1865.00,0.0050
1864.00,0.0051
1863.00,0.0052
1862.00,0.0052
1861.00,0.0052
1860.00,0.0052
1859.00,0.0052
1858.00,0.0051
1857.00,0.0051
1856.00,0.0051
1855.00,0.0052
1854.00,0.0052
1853.00,0.0052
1852.00,0.0052
1851.00,0.0053
1850.00,0.0053
1849.00,0.0053
1848.00,0.0054
1847.00,0.0055
1846.00,0.0055
1845.00,0.0054
1844.00,0.0052
1843.00,0.0050
1842.00,0.0049
1841.00,0.0051
1840.00,0.0052
1839.00,0.0053
1838.00,0.0053
1837.00,0.0053
1836.00,0.0053
1835.00,0.0053
1834.00,0.0054
1833.00,0.0055
1832.00,0.0056
1831.00,0.0057
1830.00,0.0055
1829.00,0.0053
1828.00,0.0054
1827.00,0.0055
1826.00,0.0055
1825.00,0.0055
1824.00,0.0054
1823.00,0.0054
1822.00,0.0054
1821.00,0.0054
1820.00,0.0053
1819.00,0.0052
1818.00,0.0051
1817.00,0.0051
1816.00,0.0052
1815.00,0.0053
1814.00,0.0055
1813.00,0.0056
1812.00,0.0057
1811.00,0.0056
1810.00,0.0055
1809.00,0.0055
1808.00,0.0055
1807.00,0.0056
1806.00,0.0056
1805.00,0.0057
1804.00,0.0058
1803.00,0.0058
1802.00,0.0059
1801.00,0.0059
1800.00,0.0058
1799.00,0.0058
1798.00,0.0058
1797.00,0.0059
1796.00,0.0060
1795.00,0.0061
1794.00,0.0061
1793.00,0.0060
1792.00,0.0058
1791.00,0.0056
1790.00,0.0056
1789.00,0.0058
1788.00,0.0060
1787.00,0.0060
1786.00,0.0060
1785.00,0.0060
1784.00,0.0060
1783.00,0.0061
1782.00,0.0062
1781.00,0.0062
1780.00,0.0061
1779.00,0.0060
1778.00,0.0060
1777.00,0.0062
1776.00,0.0063
1775.00,0.0065
1774.00,0.0065
1773.00,0.0064
1772.00,0.0062
1771.00,0.0059
1770.00,0.0059
1769.00,0.0060
1768.00,0.0060
1767.00,0.0061
1766.00,0.0062
1765.00,0.0064
1764.00,0.0066
1763.00,0.0067
1762.00,0.0065
1761.00,0.0064
1760.00,0.0065
1759.00,0.0066
1758.00,0.0067
1757.00,0.0067
1756.00,0.0067
1755.00,0.0068
1754.00,0.0070
1753.00,0.0072
1752.00,0.0073
1751.00,0.0073
1750.00,0.0073
1749.00,0.0074
1748.00,0.0075
1747.00,0.0076
1746.00,0.0077
1745.00,0.0078
1744.00,0.0079
1743.00,0.0081
1742.00,0.0081
1741.00,0.0082
1740.00,0.0082
1739.00,0.0082
1738.00,0.0084
1737.00,0.0087
1736.00,0.0090
1735.00,0.0091
1734.00,0.0087
1733.00,0.0086
1732.00,0.0090
1731.00,0.0094
1730.00,0.0098
1729.00,0.0100
1728.00,0.0103
1727.00,0.0106
1726.00,0.0109
1725.00,0.0113
1724.00,0.0117
1723.00,0.0121
1722.00,0.0125
1721.00,0.0130
1720.00,0.0136
1719.00,0.0141
1718.00,0.0145
1717.00,0.0148
1716.00,0.0152
1715.00,0.0156
1714.00,0.0161
1713.00,0.0167
1712.00,0.0175
1711.00,0.0182
1710.00,0.0189
1709.00,0.0196
1708.00,0.0205
1707.00,0.0215
1706.00,0.0225
1705.00,0.0236
1704.00,0.0247
1703.00,0.0257
1702.00,0.0269
1701.00,0.0286
1700.00,0.0309
1699.00,0.0328
1698.00,0.0345
1697.00,0.0363
1696.00,0.0383
1695.00,0.0401
1694.00,0.0416
1693.00,0.0430
1692.00,0.0443
1691.00,0.0457
1690.00,0.0472
1689.00,0.0486
1688.00,0.0499
1687.00,0.0510
1686.00,0.0522
1685.00,0.0543
1684.00,0.0570
1683.00,0.0593
1682.00,0.0609
1681.00,0.0624
1680.00,0.0640
1679.00,0.0656
1678.00,0.0669
1677.00,0.0685
1676.00,0.0707
1675.00,0.0732
1674.00,0.0755
1673.00,0.0772
1672.00,0.0789
1671.00,0.0809
1670.00,0.0834
1669.00,0.0861
1668.00,0.0884
1667.00,0.0901
1666.00,0.0915
1665.00,0.0930
1664.00,0.0950
1663.00,0.0976
1662.00,0.1002
1661.00,0.1024
1660.00,0.1043
1659.00,0.1060
1658.00,0.1074
1657.00,0.1084
1656.00,0.1091
1655.00,0.1102
1654.00,0.1130
1653.00,0.1176
1652.00,0.1208
1651.00,0.1217
1650.00,0.1215
1649.00,0.1216
1648.00,0.1227
1647.00,0.1246
1646.00,0.1264
1645.00,0.1274
1644.00,0.1279
1643.00,0.1282
1642.00,0.1285
1641.00,0.1289
1640.00,0.1293
1639.00,0.1295
1638.00,0.1298
1637.00,0.1307
1636.00,0.1328
1635.00,0.1349
1634.00,0.1360
1633.00,0.1362
1632.00,0.1361
1631.00,0.1361
1630.00,0.1363
1629.00,0.1368
1628.00,0.1375
1627.00,0.1378
1626.00,0.1376
1625.00,0.1374
1624.00,0.1373
1623.00,0.1374
1622.00,0.1369
1621.00,0.1357
1620.00,0.1340
1619.00,0.1323
1618.00,0.1308
1617.00,0.1295
1616.00,0.1282
1615.00,0.1265
1614.00,0.1243
1613.00,0.1220
1612.00,0.1196
1611.00,0.1174
1610.00,0.1153
1609.00,0.1133
1608.00,0.1112
1607.00,0.1093
1606.00,0.1074
1605.00,0.1056
1604.00,0.1038
1603.00,0.1023
1602.00,0.1008
1601.00,0.0993
1600.00,0.0978
1599.00,0.0965
1598.00,0.0952
1597.00,0.0940
1596.00,0.0928
1595.00,0.0916
1594.00,0.0905
1593.00,0.0894
1592.00,0.0882
1591.00,0.0872
1590.00,0.0862
1589.00,0.0853
1588.00,0.0844
1587.00,0.0837
1586.00,0.0831
1585.00,0.0826
1584.00,0.0821
1583.00,0.0818
1582.00,0.0815
1581.00,0.0813
1580.00,0.0810
1579.00,0.0808
1578.00,0.0808
1577.00,0.0812
1576.00,0.0819
1575.00,0.0826
1574.00,0.0828
1573.00,0.0828
1572.00,0.0828
1571.00,0.0833
1570.00,0.0843
1569.00,0.0854
1568.00,0.0862
1567.00,0.0868
1566.00,0.0874
1565.00,0.0883
1564.00,0.0890
1563.00,0.0893
1562.00,0.0893
1561.00,0.0894
1560.00,0.0909
1559.00,0.0945
1558.00,0.0976
1557.00,0.0988
1556.00,0.0994
1555.00,0.1003
1554.00,0.1016
1553.00,0.1029
1552.00,0.1040
1551.00,0.1053
1550.00,0.1068
1549.00,0.1081
1548.00,0.1090
1547.00,0.1097
1546.00,0.1104
1545.00,0.1115
1544.00,0.1125
1543.00,0.1132
1542.00,0.1140
1541.00,0.1155
1540.00,0.1176
1539.00,0.1193
1538.00,0.1198
1537.00,0.1194
1536.00,0.1189
1535.00,0.1188
1534.00,0.1195
1533.00,0.1206
1532.00,0.1211
1531.00,0.1210
1530.00,0.1207
1529.00,0.1204
1528.00,0.1204
1527.00,0.1204
1526.00,0.1205
1525.00,0.1203
1524.00,0.1198
1523.00,0.1194
1522.00,0.1197
1521.00,0.1203
1520.00,0.1206
1519.00,0.1203
1518.00,0.1201
1517.00,0.1202
1516.00,0.1201
1515.00,0.1195
1514.00,0.1183
1513.00,0.1168
1512.00,0.1153
1511.00,0.1136
1510.00,0.1118
1509.00,0.1099
1508.00,0.1084
1507.00,0.1072
1506.00,0.1057
1505.00,0.1039
1504.00,0.1019
1503.00,0.0998
1502.00,0.0978
1501.00,0.0959
1500.00,0.0940
1499.00,0.0923
1498.00,0.0907
1497.00,0.0891
1496.00,0.0874
1495.00,0.0857
1494.00,0.0840
1493.00,0.0822
1492.00,0.0805
1491.00,0.0790
1490.00,0.0775
1489.00,0.0761
1488.00,0.0747
1487.00,0.0733
1486.00,0.0719
1485.00,0.0707
1484.00,0.0696
1483.00,0.0686
1482.00,0.0678
1481.00,0.0672
1480.00,0.0666
1479.00,0.0662
1478.00,0.0659
1477.00,0.0658
1476.00,0.0659
1475.00,0.0661
1474.00,0.0666
1473.00,0.0674
1472.00,0.0684
1471.00,0.0692
1470.00,0.0696
1469.00,0.0698
1468.00,0.0699
1467.00,0.0700
1466.00,0.0702
1465.00,0.0707
1464.00,0.0712
1463.00,0.0715
1462.00,0.0717
1461.00,0.0719
1460.00,0.0720
1459.00,0.0725
1458.00,0.0734
1457.00,0.0749
1456.00,0.0762
1455.00,0.0769
1454.00,0.0771
1453.00,0.0772
1452.00,0.0772
1451.00,0.0771
1450.00,0.0770
1449.00,0.0770
1448.00,0.0770
1447.00,0.0769
1446.00,0.0766
1445.00,0.0763
1444.00,0.0758
1443.00,0.0754
1442.00,0.0749
1441.00,0.0743
1440.00,0.0736
1439.00,0.0728
1438.00,0.0719
1437.00,0.0712
1436.00,0.0706
1435.00,0.0699
1434.00,0.0691
1433.00,0.0681
1432.00,0.0672
1431.00,0.0664
1430.00,0.0657
1429.00,0.0650
1428.00,0.0644
1427.00,0.0640
1426.00,0.0636
1425.00,0.0634
1424.00,0.0634
1423.00,0.0635
1422.00,0.0634
1421.00,0.0634
1420.00,0.0637
1419.00,0.0645
1418.00,0.0653
1417.00,0.0659
1416.00,0.0663
1415.00,0.0666
1414.00,0.0670
1413.00,0.0673
1412.00,0.0678
1411.00,0.0683
1410.00,0.0687
1409.00,0.0691
1408.00,0.0695
1407.00,0.0700
1406.00,0.0706
1405.00,0.0713
1404.00,0.0720
1403.00,0.0725
1402.00,0.0729
1401.00,0.0732
1400.00,0.0737
1399.00,0.0743
1398.00,0.0747
1397.00,0.0750
1396.00,0.0752
1395.00,0.0755
1394.00,0.0758
1393.00,0.0759
1392.00,0.0758
1391.00,0.0757
1390.00,0.0754
1389.00,0.0751
1388.00,0.0749
1387.00,0.0746
1386.00,0.0742
1385.00,0.0736
1384.00,0.0728
1383.00,0.0720
1382.00,0.0712
1381.00,0.0703
1380.00,0.0695
1379.00,0.0687
1378.00,0.0679
1377.00,0.0672
1376.00,0.0666
1375.00,0.0661
1374.00,0.0656
1373.00,0.0651
1372.00,0.0646
1371.00,0.0641
1370.00,0.0636
1369.00,0.0631
1368.00,0.0625
1367.00,0.0618
1366.00,0.0610
1365.00,0.0602
1364.00,0.0595
1363.00,0.0589
1362.00,0.0583
1361.00,0.0578
1360.00,0.0573
1359.00,0.0569
1358.00,0.0565
1357.00,0.0562
1356.00,0.0559
1355.00,0.0557
1354.00,0.0555
1353.00,0.0553
1352.00,0.0551
1351.00,0.0550
1350.00,0.0549
1349.00,0.0549
1348.00,0.0548
1347.00,0.0548
1346.00,0.0548
1345.00,0.0548
1344.00,0.0549
1343.00,0.0549
1342.00,0.0550
1341.00,0.0551
1340.00,0.0552
1339.00,0.0552
1338.00,0.0552
1337.00,0.0552
1336.00,0.0552
1335.00,0.0551
1334.00,0.0551
1333.00,0.0550
1332.00,0.0550
1331.00,0.0550
1330.00,0.0550
1329.00,0.0550
1328.00,0.0550
1327.00,0.0550
1326.00,0.0551
1325.00,0.0551
1324.00,0.0552
1323.00,0.0553
1322.00,0.0554
1321.00,0.0555
1320.00,0.0557
1319.00,0.0558
1318.00,0.0560
1317.00,0.0561
1316.00,0.0561
1315.00,0.0562
1314.00,0.0563
1313.00,0.0563
1312.00,0.0563
1311.00,0.0562
1310.00,0.0562
1309.00,0.0561
1308.00,0.0560
1307.00,0.0560
1306.00,0.0559
1305.00,0.0558
1304.00,0.0557
1303.00,0.0557
1302.00,0.0556
1301.00,0.0555
1300.00,0.0554
1299.00,0.0553
1298.00,0.0551
1297.00,0.0550
1296.00,0.0548
1295.00,0.0547
1294.00,0.0546
1293.00,0.0545
1292.00,0.0543
1291.00,0.0542
1290.00,0.0542
1289.00,0.0542
1288.00,0.0543
1287.00,0.0544
1286.00,0.0546
1285.00,0.0547
1284.00,0.0549
1283.00,0.0551
1282.00,0.0552
1281.00,0.0554
1280.00,0.0555
1279.00,0.0556
1278.00,0.0557
1277.00,0.0558
1276.00,0.0558
1275.00,0.0559
1274.00,0.0560
1273.00,0.0561
1272.00,0.0562
1271.00,0.0565
1270.00,0.0567
1269.00,0.0570
1268.00,0.0574
1267.00,0.0577
1266.00,0.0581
1265.00,0.0586
1264.00,0.0590
1263.00,0.0595
1262.00,0.0601
1261.00,0.0606
1260.00,0.0611
1259.00,0.0617
1258.00,0.0623
1257.00,0.0629
1256.00,0.0635
1255.00,0.0641
1254.00,0.0648
1253.00,0.0654
1252.00,0.0659
1251.00,0.0665
1250.00,0.0671
1249.00,0.0677
1248.00,0.0683
1247.00,0.0688
1246.00,0.0694
1245.00,0.0699
1244.00,0.0704
1243.00,0.0709
1242.00,0.0713
1241.00,0.0717
1240.00,0.0720
1239.00,0.0724
1238.00,0.0726
1237.00,0.0729
1236.00,0.0731
1235.00,0.0732
1234.00,0.0732
1233.00,0.0732
1232.00,0.0732
1231.00,0.0731
1230.00,0.0729
1229.00,0.0727
1228.00,0.0725
1227.00,0.0722
1226.00,0.0719
1225.00,0.0715
1224.00,0.0710
1223.00,0.0705
1222.00,0.0699
1221.00,0.0693
1220.00,0.0686
1219.00,0.0680
1218.00,0.0674
1217.00,0.0667
1216.00,0.0660
1215.00,0.0652
1214.00,0.0645
1213.00,0.0637
1212.00,0.0629
1211.00,0.0622
1210.00,0.0614
1209.00,0.0607
1208.00,0.0599
1207.00,0.0592
1206.00,0.0585
1205.00,0.0578
1204.00,0.0571
1203.00,0.0564
1202.00,0.0557
1201.00,0.0551
1200.00,0.0544
1199.00,0.0538
1198.00,0.0532
1197.00,0.0526
1196.00,0.0521
1195.00,0.0516
1194.00,0.0512
1193.00,0.0508
1192.00,0.0505
1191.00,0.0502
1190.00,0.0499
1189.00,0.0497
1188.00,0.0495
1187.00,0.0493
1186.00,0.0492
1185.00,0.0491
1184.00,0.0490
1183.00,0.0490
1182.00,0.0491
1181.00,0.0492
1180.00,0.0494
1179.00,0.0497
1178.00,0.0500
1177.00,0.0504
1176.00,0.0508
1175.00,0.0513
1174.00,0.0517
1173.00,0.0522
1172.00,0.0526
1171.00,0.0531
1170.00,0.0535
1169.00,0.0538
1168.00,0.0542
1167.00,0.0546
1166.00,0.0550
1165.00,0.0555
1164.00,0.0560
1163.00,0.0565
1162.00,0.0570
1161.00,0.0574
1160.00,0.0578
1159.00,0.0581
1158.00,0.0584
1157.00,0.0587
1156.00,0.0589
1155.00,0.0591
1154.00,0.0591
1153.00,0.0590
1152.00,0.0588
1151.00,0.0585
1150.00,0.0582
1149.00,0.0578
1148.00,0.0574
1147.00,0.0570
1146.00,0.0566
1145.00,0.0561
1144.00,0.0556
1143.00,0.0552
1142.00,0.0547
1141.00,0.0543
1140.00,0.0539
1139.00,0.0537
1138.00,0.0534
1137.00,0.0533
1136.00,0.0531
1135.00,0.0531
1134.00,0.0531
1133.00,0.0532
1132.00,0.0534
1131.00,0.0536
1130.00,0.0538
1129.00,0.0541
1128.00,0.0545
1127.00,0.0548
1126.00,0.0551
1125.00,0.0554
1124.00,0.0557
1123.00,0.0560
1122.00,0.0563
1121.00,0.0566
1120.00,0.0569
1119.00,0.0572
1118.00,0.0576
1117.00,0.0580
1116.00,0.0584
1115.00,0.0588
1114.00,0.0592
1113.00,0.0596
1112.00,0.0599
1111.00,0.0603
1110.00,0.0607
1109.00,0.0611
1108.00,0.0615
1107.00,0.0619
1106.00,0.0623
1105.00,0.0626
1104.00,0.0629
1103.00,0.0633
1102.00,0.0637
1101.00,0.0640
1100.00,0.0643
1099.00,0.0647
1098.00,0.0651
1097.00,0.0655
1096.00,0.0660
1095.00,0.0666
1094.00,0.0673
1093.00,0.0680
1092.00,0.0688
1091.00,0.0696
1090.00,0.0704
1089.00,0.0712
1088.00,0.0721
1087.00,0.0729
1086.00,0.0737
1085.00,0.0744
1084.00,0.0750
1083.00,0.0755
1082.00,0.0759
1081.00,0.0762
1080.00,0.0763
1079.00,0.0762
1078.00,0.0760
1077.00,0.0758
1076.00,0.0754
1075.00,0.0750
1074.00,0.0746
1073.00,0.0742
1072.00,0.0738
1071.00,0.0735
1070.00,0.0733
1069.00,0.0732
1068.00,0.0731
1067.00,0.0731
1066.00,0.0731
1065.00,0.0731
1064.00,0.0733
1063.00,0.0735
1062.00,0.0737
1061.00,0.0741
1060.00,0.0744
1059.00,0.0749
1058.00,0.0753
1057.00,0.0757
1056.00,0.0760
1055.00,0.0764
1054.00,0.0766
1053.00,0.0769
1052.00,0.0771
1051.00,0.0773
1050.00,0.0774
1049.00,0.0774
1048.00,0.0773
1047.00,0.0772
1046.00,0.0770
1045.00,0.0768
1044.00,0.0767
1043.00,0.0765
1042.00,0.0762
1041.00,0.0760
1040.00,0.0759
1039.00,0.0757
1038.00,0.0756
1037.00,0.0755
1036.00,0.0754
1035.00,0.0754
1034.00,0.0754
1033.00,0.0755
1032.00,0.0756
1031.00,0.0757
1030.00,0.0757
1029.00,0.0758
1028.00,0.0757
1027.00,0.0757
1026.00,0.0755
1025.00,0.0753
1024.00,0.0749
1023.00,0.0745
1022.00,0.0741
1021.00,0.0735
1020.00,0.0729
1019.00,0.0723
1018.00,0.0716
1017.00,0.0709
1016.00,0.0702
1015.00,0.0695
1014.00,0.0687
1013.00,0.0679
1012.00,0.0672
1011.00,0.0664
1010.00,0.0656
1009.00,0.0649
1008.00,0.0641
1007.00,0.0635
1006.00,0.0628
1005.00,0.0622
1004.00,0.0616
1003.00,0.0611
1002.00,0.0605
1001.00,0.0599
1000.00,0.0593
999.00,0.0587
998.00,0.0581
997.00,0.0575
996.00,0.0569
995.00,0.0562
994.00,0.0554
993.00,0.0546
992.00,0.0538
991.00,0.0530
990.00,0.0522
989.00,0.0515
988.00,0.0507
987.00,0.0500
986.00,0.0493
985.00,0.0486
984.00,0.0481
983.00,0.0477
982.00,0.0474
981.00,0.0471
980.00,0.0469
979.00,0.0468
978.00,0.0468
977.00,0.0468
976.00,0.0468
975.00,0.0470
974.00,0.0472
973.00,0.0474
972.00,0.0476
971.00,0.0478
970.00,0.0480
969.00,0.0482
968.00,0.0483
967.00,0.0484
966.00,0.0484
965.00,0.0484
964.00,0.0483
963.00,0.0481
962.00,0.0479
961.00,0.0476
960.00,0.0473
959.00,0.0470
958.00,0.0466
957.00,0.0462
956.00,0.0459
955.00,0.0455
954.00,0.0451
953.00,0.0448
952.00,0.0445
951.00,0.0442
950.00,0.0439
949.00,0.0437
948.00,0.0435
947.00,0.0435
946.00,0.0435
945.00,0.0435
944.00,0.0436
943.00,0.0437
942.00,0.0438
941.00,0.0440
940.00,0.0442
939.00,0.0445
938.00,0.0447
937.00,0.0449
936.00,0.0451
935.00,0.0452
934.00,0.0453
933.00,0.0453
932.00,0.0453
931.00,0.0453
930.00,0.0452
929.00,0.0451
928.00,0.0450
927.00,0.0449
926.00,0.0448
925.00,0.0447
924.00,0.0445
923.00,0.0443
922.00,0.0441
921.00,0.0439
920.00,0.0437
919.00,0.0435
918.00,0.0433
917.00,0.0431
916.00,0.0428
915.00,0.0426
914.00,0.0423
913.00,0.0421
912.00,0.0419
911.00,0.0416
910.00,0.0414
909.00,0.0412
908.00,0.0410
907.00,0.0409
906.00,0.0407
905.00,0.0407
904.00,0.0407
903.00,0.0407
902.00,0.0408
901.00,0.0408
900.00,0.0409
899.00,0.0409
898.00,0.0410
897.00,0.0411
896.00,0.0412
895.00,0.0413
894.00,0.0414
893.00,0.0415
892.00,0.0415
891.00,0.0415
890.00,0.0415
889.00,0.0415
888.00,0.0414
887.00,0.0414
886.00,0.0414
885.00,0.0415
884.00,0.0415
883.00,0.0414
882.00,0.0414
881.00,0.0413
880.00,0.0412
879.00,0.0411
878.00,0.0411
877.00,0.0411
876.00,0.0411
875.00,0.0411
874.00,0.0410
873.00,0.0410
872.00,0.0410
871.00,0.0410
870.00,0.0411
869.00,0.0413
868.00,0.0414
867.00,0.0416
866.00,0.0417
865.00,0.0419
864.00,0.0421
863.00,0.0423
862.00,0.0425
861.00,0.0427
860.00,0.0429
859.00,0.0431
858.00,0.0433
857.00,0.0435
856.00,0.0437
855.00,0.0439
854.00,0.0441
853.00,0.0443
852.00,0.0445
851.00,0.0447
850.00,0.0448
849.00,0.0449
848.00,0.0450
847.00,0.0451
846.00,0.0452
845.00,0.0453
844.00,0.0454
843.00,0.0457
842.00,0.0460
841.00,0.0462
840.00,0.0465
839.00,0.0468
838.00,0.0471
837.00,0.0473
836.00,0.0476
835.00,0.0480
834.00,0.0483
833.00,0.0486
832.00,0.0488
831.00,0.0490
830.00,0.0492
829.00,0.0493
828.00,0.0495
827.00,0.0496
826.00,0.0497
825.00,0.0498
824.00,0.0499
823.00,0.0500
822.00,0.0501
821.00,0.0503
820.00,0.0504
819.00,0.0505
818.00,0.0506
817.00,0.0508
816.00,0.0510
815.00,0.0512
814.00,0.0514
813.00,0.0515
812.00,0.0517
811.00,0.0520
810.00,0.0522
809.00,0.0525
808.00,0.0528
807.00,0.0531
806.00,0.0534
805.00,0.0536
804.00,0.0539
803.00,0.0542
802.00,0.0545
801.00,0.0549
800.00,0.0553
799.00,0.0557
798.00,0.0561
797.00,0.0565
796.00,0.0569
795.00,0.0573
794.00,0.0577
793.00,0.0581
792.00,0.0586
791.00,0.0591
790.00,0.0596
789.00,0.0601
788.00,0.0607
787.00,0.0612
786.00,0.0618
785.00,0.0623
784.00,0.0629
783.00,0.0635
782.00,0.0640
781.00,0.0644
780.00,0.0646
779.00,0.0647
778.00,0.0647
777.00,0.0646
776.00,0.0645
775.00,0.0644
774.00,0.0643
773.00,0.0643
772.00,0.0644
771.00,0.0645
770.00,0.0647
769.00,0.0650
768.00,0.0653
767.00,0.0656
766.00,0.0658
765.00,0.0661
764.00,0.0663
763.00,0.0666
762.00,0.0668
761.00,0.0671
760.00,0.0673
759.00,0.0675
758.00,0.0677
757.00,0.0680
756.00,0.0683
755.00,0.0686
754.00,0.0690
753.00,0.0693
752.00,0.0697
751.00,0.0700
750.00,0.0704
749.00,0.0708
748.00,0.0712
747.00,0.0716
746.00,0.0719
745.00,0.0722
744.00,0.0726
743.00,0.0728
742.00,0.0730
741.00,0.0732
740.00,0.0734
739.00,0.0736
738.00,0.0738
737.00,0.0740
736.00,0.0742
735.00,0.0745
734.00,0.0748
733.00,0.0751
732.00,0.0754
731.00,0.0758
730.00,0.0763
729.00,0.0768
728.00,0.0772
727.00,0.0777
726.00,0.0782
725.00,0.0787
724.00,0.0793
723.00,0.0799
722.00,0.0804
721.00,0.0809
720.00,0.0814
719.00,0.0820
718.00,0.0826
717.00,0.0832
716.00,0.0838
715.00,0.0844
714.00,0.0849
713.00,0.0855
712.00,0.0861
711.00,0.0867
710.00,0.0873
709.00,0.0880
708.00,0.0887
707.00,0.0895
706.00,0.0902
705.00,0.0910
704.00,0.0918
703.00,0.0926
702.00,0.0933
701.00,0.0939
700.00,0.0944
699.00,0.0948
698.00,0.0950
697.00,0.0952
696.00,0.0953
695.00,0.0954
694.00,0.0955
693.00,0.0956
692.00,0.0956
691.00,0.0957
690.00,0.0958
689.00,0.0959
688.00,0.0962
687.00,0.0964
686.00,0.0967
685.00,0.0970
684.00,0.0973
683.00,0.0976
682.00,0.0980
681.00,0.0983
680.00,0.0986
679.00,0.0990
678.00,0.0993
677.00,0.0996
676.00,0.1000
675.00,0.1003
674.00,0.1006
673.00,0.1009
672.00,0.1011
671.00,0.1013
670.00,0.1016
669.00,0.1023
668.00,0.1036
667.00,0.1047
666.00,0.1050
665.00,0.1049
664.00,0.1050
663.00,0.1052
662.00,0.1055
661.00,0.1059
660.00,0.1062
659.00,0.1064
658.00,0.1067
657.00,0.1069
656.00,0.1072
655.00,0.1075
654.00,0.1078
653.00,0.1080
652.00,0.1083
651.00,0.1085
650.00,0.1088
649.00,0.1089
648.00,0.1091
647.00,0.1093
646.00,0.1096
645.00,0.1098
644.00,0.1101
643.00,0.1103
642.00,0.1105
641.00,0.1108
640.00,0.1111
639.00,0.1113
638.00,0.1114
637.00,0.1116
636.00,0.1119
635.00,0.1122
634.00,0.1125
633.00,0.1128
632.00,0.1131
631.00,0.1134
630.00,0.1137
629.00,0.1141
628.00,0.1145
627.00,0.1149
626.00,0.1153
625.00,0.1157
624.00,0.1162
623.00,0.1168
622.00,0.1172
621.00,0.1175
620.00,0.1179
619.00,0.1183
618.00,0.1186
617.00,0.1189
616.00,0.1192
615.00,0.1195
614.00,0.1197
613.00,0.1200
612.00,0.1205
611.00,0.1210
610.00,0.1214
609.00,0.1217
608.00,0.1220
607.00,0.1224
606.00,0.1228
605.00,0.1232
604.00,0.1236
603.00,0.1240
602.00,0.1244
601.00,0.1248
600.00,0.1253
599.00,0.1258
598.00,0.1261
597.00,0.1264
596.00,0.1269
595.00,0.1274
594.00,0.1280
593.00,0.1285
592.00,0.1290
591.00,0.1295
590.00,0.1299
589.00,0.1304
588.00,0.1308
587.00,0.1312
586.00,0.1315
585.00,0.1319
584.00,0.1324
583.00,0.1329
582.00,0.1333
581.00,0.1336
580.00,0.1339
579.00,0.1342
578.00,0.1345
577.00,0.1346
576.00,0.1347
575.00,0.1347
574.00,0.1348
573.00,0.1349
572.00,0.1352
571.00,0.1353
570.00,0.1353
569.00,0.1353
568.00,0.1355
567.00,0.1358
566.00,0.1359
565.00,0.1357
564.00,0.1356
563.00,0.1357
562.00,0.1358
561.00,0.1361
560.00,0.1364
559.00,0.1366
558.00,0.1367
557.00,0.1369
556.00,0.1372
555.00,0.1376
554.00,0.1377
553.00,0.1379
552.00,0.1383
551.00,0.1387
550.00,0.1392
549.00,0.1396
548.00,0.1400
547.00,0.1404
546.00,0.1407
545.00,0.1412
544.00,0.1417
543.00,0.1420
542.00,0.1422
541.00,0.1424
540.00,0.1430
539.00,0.1436
538.00,0.1441
537.00,0.1445
536.00,0.1448
535.00,0.1451
534.00,0.1454
533.00,0.1459
532.00,0.1466
531.00,0.1471
530.00,0.1474
529.00,0.1477
528.00,0.1482
527.00,0.1488
526.00,0.1492
525.00,0.1494
524.00,0.1494
523.00,0.1494
522.00,0.1494
521.00,0.1495
520.00,0.1495
519.00,0.1493
518.00,0.1491
517.00,0.1489
516.00,0.1491
515.00,0.1492
514.00,0.1491
513.00,0.1489
512.00,0.1488
511.00,0.1487
510.00,0.1486
509.00,0.1484
508.00,0.1483
507.00,0.1483
506.00,0.1483
505.00,0.1484
504.00,0.1483
503.00,0.1480
502.00,0.1475
501.00,0.1472
500.00,0.1472
499.00,0.1474
498.00,0.1474
497.00,0.1472
496.00,0.1471
495.00,0.1470
494.00,0.1470
493.00,0.1470
492.00,0.1471
491.00,0.1470
490.00,0.1468
489.00,0.1466
488.00,0.1466
487.00,0.1466
486.00,0.1464
485.00,0.1463
484.00,0.1463
483.00,0.1464
482.00,0.1462
481.00,0.1460
480.00,0.1458
479.00,0.1457
478.00,0.1455
477.00,0.1453
476.00,0.1453
475.00,0.1453
474.00,0.1451
473.00,0.1450
472.00,0.1451
471.00,0.1450
470.00,0.1448
469.00,0.1447
468.00,0.1449
467.00,0.1453
466.00,0.1455
465.00,0.1456
464.00,0.1456
463.00,0.1455
462.00,0.1450
461.00,0.1445
460.00,0.1443
459.00,0.1441
458.00,0.1438
457.00,0.1435
456.00,0.1435
455.00,0.1437
454.00,0.1437
453.00,0.1436
452.00,0.1436
451.00,0.1435
450.00,0.1434
449.00,0.1436
448.00,0.1440
447.00,0.1441
446.00,0.1435
445.00,0.1428
444.00,0.1425
443.00,0.1425
442.00,0.1424
441.00,0.1422
440.00,0.1420
439.00,0.1418
438.00,0.1417
437.00,0.1417
436.00,0.1419
435.00,0.1420
434.00,0.1421
433.00,0.1424
432.00,0.1428
431.00,0.1429
430.00,0.1425
429.00,0.1421
428.00,0.1423
427.00,0.1428
426.00,0.1431
425.00,0.1430
424.00,0.1428
423.00,0.1425
422.00,0.1424
421.00,0.1429
420.00,0.1438
419.00,0.1442
418.00,0.1433
417.00,0.1423
416.00,0.1422
415.00,0.1424
414.00,0.1424
413.00,0.1422
412.00,0.1421
411.00,0.1419
410.00,0.1413
409.00,0.1407
408.00,0.1406
407.00,0.1404
406.00,0.1398
405.00,0.1391
404.00,0.1387
403.00,0.1380
402.00,0.1368
401.00,0.1359
400.00,0.1365
