Created as New Dataset,Sample 088 By YargerLab Date Thursday, August 14 2025
cm-1,A
4000.00,0.0030
3999.00,0.0030
3998.00,0.0030
3997.00,0.0030
3996.00,0.0030
3995.00,0.0030
3994.00,0.0030
3993.00,0.0031
3992.00,0.0031
3991.00,0.0031
3990.00,0.0031
3989.00,0.0031
3988.00,0.0031
3987.00,0.0031
3986.00,0.0031
3985.00,0.0031
3984.00,0.0031
3983.00,0.0031
3982.00,0.0031
3981.00,0.0031
3980.00,0.0030
3979.00,0.0030
3978.00,0.0030
3977.00,0.0030
3976.00,0.0030
3975.00,0.0030
3974.00,0.0031
3973.00,0.0031
3972.00,0.0031
3971.00,0.0031
3970.00,0.0031
3969.00,0.0031
3968.00,0.0030
3967.00,0.0030
3966.00,0.0031
3965.00,0.0031
3964.00,0.0031
3963.00,0.0031
3962.00,0.0031
3961.00,0.0031
3960.00,0.0031
3959.00,0.0031
3958.00,0.0031
3957.00,0.0030
3956.00,0.0030
3955.00,0.0030
3954.00,0.0030
3953.00,0.0031
3952.00,0.0031
3951.00,0.0031
3950.00,0.0031
3949.00,0.0031
3948.00,0.0031
3947.00,0.0031
3946.00,0.0031
3945.00,0.0030
3944.00,0.0030
3943.00,0.0030
3942.00,0.0030
3941.00,0.0030
3940.00,0.0030
3939.00,0.0030
3938.00,0.0030
3937.00,0.0030
3936.00,0.0030
3935.00,0.0031
3934.00,0.0031
3933.00,0.0031
3932.00,0.0031
3931.00,0.0031
3930.00,0.0031
3929.00,0.0031
3928.00,0.0031
3927.00,0.0031
3926.00,0.0031
3925.00,0.0031
3924.00,0.0031
3923.00,0.0031
3922.00,0.0031
3921.00,0.0031
3920.00,0.0031
3919.00,0.0031
3918.00,0.0031
3917.00,0.0031
3916.00,0.0031
3915.00,0.0031
3914.00,0.0031
3913.00,0.0031
3912.00,0.0031
3911.00,0.0030
3910.00,0.0030
3909.00,0.0031
3908.00,0.0031
3907.00,0.0032
3906.00,0.0032
3905.00,0.0033
3904.00,0.0033
3903.00,0.0033
3902.00,0.0033
3901.00,0.0033
3900.00,0.0033
3899.00,0.0032
3898.00,0.0032
3897.00,0.0032
3896.00,0.0032
3895.00,0.0032
3894.00,0.0032
3893.00,0.0032
3892.00,0.0032
3891.00,0.0031
3890.00,0.0031
3889.00,0.0032
3888.00,0.0032
3887.00,0.0032
3886.00,0.0031
3885.00,0.0031
3884.00,0.0031
3883.00,0.0031
3882.00,0.0032
3881.00,0.0031
3880.00,0.0031
3879.00,0.0031
3878.00,0.0031
3877.00,0.0031
3876.00,0.0031
3875.00,0.0032
3874.00,0.0032
3873.00,0.0032
3872.00,0.0033
3871.00,0.0032
3870.00,0.0032
3869.00,0.0032
3868.00,0.0032
3867.00,0.0032
3866.00,0.0032
3865.00,0.0032
3864.00,0.0031
3863.00,0.0031
3862.00,0.0031
3861.00,0.0031
3860.00,0.0031
3859.00,0.0031
3858.00,0.0031
3857.00,0.0032
3856.00,0.0033
3855.00,0.0034
3854.00,0.0034
3853.00,0.0033
3852.00,0.0033
3851.00,0.0033
3850.00,0.0033
3849.00,0.0032
3848.00,0.0031
3847.00,0.0031
3846.00,0.0031
3845.00,0.0031
3844.00,0.0031
3843.00,0.0032
3842.00,0.0032
3841.00,0.0032
3840.00,0.0033
3839.00,0.0033
3838.00,0.0034
3837.00,0.0034
3836.00,0.0033
3835.00,0.0033
3834.00,0.0033
3833.00,0.0032
3832.00,0.0032
3831.00,0.0032
3830.00,0.0032
3829.00,0.0032
3828.00,0.0032
3827.00,0.0031
3826.00,0.0031
3825.00,0.0031
3824.00,0.0032
3823.00,0.0033
3822.00,0.0033
3821.00,0.0032
3820.00,0.0033
3819.00,0.0033
3818.00,0.0033
3817.00,0.0033
3816.00,0.0032
3815.00,0.0032
3814.00,0.0032
3813.00,0.0032
3812.00,0.0032
3811.00,0.0031
3810.00,0.0031
3809.00,0.0032
3808.00,0.0032
3807.00,0.0032
3806.00,0.0032
3805.00,0.0032
3804.00,0.0032
3803.00,0.0032
3802.00,0.0032
3801.00,0.0032
3800.00,0.0032
3799.00,0.0032
3798.00,0.0032
3797.00,0.0032
3796.00,0.0031
3795.00,0.0031
3794.00,0.0031
3793.00,0.0031
3792.00,0.0031
3791.00,0.0031
3790.00,0.0031
3789.00,0.0031
3788.00,0.0031
3787.00,0.0031
3786.00,0.0031
3785.00,0.0031
3784.00,0.0031
3783.00,0.0031
3782.00,0.0031
3781.00,0.0031
3780.00,0.0031
3779.00,0.0031
3778.00,0.0031
3777.00,0.0031
3776.00,0.0031
3775.00,0.0031
3774.00,0.0031
3773.00,0.0031
3772.00,0.0031
3771.00,0.0032
3770.00,0.0032
3769.00,0.0032
3768.00,0.0032
3767.00,0.0032
3766.00,0.0032
3765.00,0.0032
3764.00,0.0032
3763.00,0.0032
3762.00,0.0032
3761.00,0.0032
3760.00,0.0032
3759.00,0.0032
3758.00,0.0032
3757.00,0.0032
3756.00,0.0033
3755.00,0.0033
3754.00,0.0034
3753.00,0.0035
3752.00,0.0035
3751.00,0.0035
3750.00,0.0035
3749.00,0.0035
3748.00,0.0035
3747.00,0.0035
3746.00,0.0035
3745.00,0.0035
3744.00,0.0034
3743.00,0.0034
3742.00,0.0034
3741.00,0.0034
3740.00,0.0033
3739.00,0.0033
3738.00,0.0033
3737.00,0.0033
3736.00,0.0033
3735.00,0.0033
3734.00,0.0033
3733.00,0.0033
3732.00,0.0033
3731.00,0.0033
3730.00,0.0032
3729.00,0.0032
3728.00,0.0031
3727.00,0.0031
3726.00,0.0031
3725.00,0.0031
3724.00,0.0031
3723.00,0.0031
3722.00,0.0030
3721.00,0.0030
3720.00,0.0030
3719.00,0.0030
3718.00,0.0030
3717.00,0.0030
3716.00,0.0031
3715.00,0.0031
3714.00,0.0032
3713.00,0.0032
3712.00,0.0032
3711.00,0.0033
3710.00,0.0032
3709.00,0.0032
3708.00,0.0032
3707.00,0.0032
3706.00,0.0031
3705.00,0.0031
3704.00,0.0031
3703.00,0.0030
3702.00,0.0030
3701.00,0.0030
3700.00,0.0030
3699.00,0.0031
3698.00,0.0031
3697.00,0.0031
3696.00,0.0031
3695.00,0.0031
3694.00,0.0032
3693.00,0.0032
3692.00,0.0033
3691.00,0.0033
3690.00,0.0033
3689.00,0.0033
3688.00,0.0033
3687.00,0.0033
3686.00,0.0033
3685.00,0.0033
3684.00,0.0033
3683.00,0.0033
3682.00,0.0033
3681.00,0.0034
3680.00,0.0034
3679.00,0.0035
3678.00,0.0036
3677.00,0.0037
3676.00,0.0037
3675.00,0.0037
3674.00,0.0038
3673.00,0.0038
3672.00,0.0038
3671.00,0.0038
3670.00,0.0038
3669.00,0.0038
3668.00,0.0037
3667.00,0.0037
3666.00,0.0037
3665.00,0.0037
3664.00,0.0037
3663.00,0.0037
3662.00,0.0038
3661.00,0.0038
3660.00,0.0039
3659.00,0.0039
3658.00,0.0040
3657.00,0.0040
3656.00,0.0040
3655.00,0.0041
3654.00,0.0041
3653.00,0.0042
3652.00,0.0043
3651.00,0.0043
3650.00,0.0044
3649.00,0.0045
3648.00,0.0045
3647.00,0.0046
3646.00,0.0046
3645.00,0.0046
3644.00,0.0046
3643.00,0.0046
3642.00,0.0045
3641.00,0.0046
3640.00,0.0046
3639.00,0.0046
3638.00,0.0046
3637.00,0.0047
3636.00,0.0047
3635.00,0.0048
3634.00,0.0049
3633.00,0.0050
3632.00,0.0051
3631.00,0.0052
3630.00,0.0053
3629.00,0.0053
3628.00,0.0054
3627.00,0.0054
3626.00,0.0055
3625.00,0.0055
3624.00,0.0055
3623.00,0.0056
3622.00,0.0057
3621.00,0.0058
3620.00,0.0059
3619.00,0.0060
3618.00,0.0061
3617.00,0.0062
3616.00,0.0063
3615.00,0.0063
3614.00,0.0063
3613.00,0.0064
3612.00,0.0065
3611.00,0.0066
3610.00,0.0066
3609.00,0.0067
3608.00,0.0067
3607.00,0.0068
3606.00,0.0068
3605.00,0.0069
3604.00,0.0069
3603.00,0.0070
3602.00,0.0070
3601.00,0.0071
3600.00,0.0072
3599.00,0.0073
3598.00,0.0074
3597.00,0.0075
3596.00,0.0076
3595.00,0.0077
3594.00,0.0078
3593.00,0.0079
3592.00,0.0080
3591.00,0.0081
3590.00,0.0083
3589.00,0.0084
3588.00,0.0085
3587.00,0.0085
3586.00,0.0086
3585.00,0.0087
3584.00,0.0088
3583.00,0.0089
3582.00,0.0090
3581.00,0.0091
3580.00,0.0092
3579.00,0.0093
3578.00,0.0094
3577.00,0.0095
3576.00,0.0097
3575.00,0.0098
3574.00,0.0099
3573.00,0.0101
3572.00,0.0102
3571.00,0.0103
3570.00,0.0105
3569.00,0.0107
3568.00,0.0108
3567.00,0.0109
3566.00,0.0110
3565.00,0.0111
3564.00,0.0112
3563.00,0.0114
3562.00,0.0115
3561.00,0.0116
3560.00,0.0118
3559.00,0.0119
3558.00,0.0121
3557.00,0.0122
3556.00,0.0123
3555.00,0.0124
3554.00,0.0125
3553.00,0.0126
3552.00,0.0127
3551.00,0.0129
3550.00,0.0130
3549.00,0.0132
3548.00,0.0134
3547.00,0.0135
3546.00,0.0136
3545.00,0.0137
3544.00,0.0138
3543.00,0.0139
3542.00,0.0140
3541.00,0.0142
3540.00,0.0143
3539.00,0.0144
3538.00,0.0145
3537.00,0.0146
3536.00,0.0147
3535.00,0.0149
3534.00,0.0150
3533.00,0.0151
3532.00,0.0153
3531.00,0.0154
3530.00,0.0155
3529.00,0.0156
3528.00,0.0157
3527.00,0.0158
3526.00,0.0159
3525.00,0.0160
3524.00,0.0161
3523.00,0.0162
3522.00,0.0163
3521.00,0.0164
3520.00,0.0165
3519.00,0.0166
3518.00,0.0167
3517.00,0.0168
3516.00,0.0169
3515.00,0.0170
3514.00,0.0171
3513.00,0.0173
3512.00,0.0174
3511.00,0.0175
3510.00,0.0176
3509.00,0.0177
3508.00,0.0178
3507.00,0.0179
3506.00,0.0181
3505.00,0.0182
3504.00,0.0183
3503.00,0.0184
3502.00,0.0184
3501.00,0.0185
3500.00,0.0186
3499.00,0.0188
3498.00,0.0189
3497.00,0.0190
3496.00,0.0191
3495.00,0.0193
3494.00,0.0194
3493.00,0.0195
3492.00,0.0196
3491.00,0.0197
3490.00,0.0198
3489.00,0.0200
3488.00,0.0201
3487.00,0.0202
3486.00,0.0204
3485.00,0.0206
3484.00,0.0207
3483.00,0.0209
3482.00,0.0211
3481.00,0.0213
3480.00,0.0215
3479.00,0.0217
3478.00,0.0219
3477.00,0.0221
3476.00,0.0224
3475.00,0.0227
3474.00,0.0229
3473.00,0.0232
3472.00,0.0235
3471.00,0.0239
3470.00,0.0242
3469.00,0.0246
3468.00,0.0250
3467.00,0.0253
3466.00,0.0256
3465.00,0.0259
3464.00,0.0262
3463.00,0.0266
3462.00,0.0269
3461.00,0.0271
3460.00,0.0274
3459.00,0.0276
3458.00,0.0277
3457.00,0.0278
3456.00,0.0278
3455.00,0.0278
3454.00,0.0278
3453.00,0.0277
3452.00,0.0276
3451.00,0.0274
3450.00,0.0273
3449.00,0.0271
3448.00,0.0269
3447.00,0.0268
3446.00,0.0266
3445.00,0.0264
3444.00,0.0263
3443.00,0.0262
3442.00,0.0261
3441.00,0.0260
3440.00,0.0260
3439.00,0.0259
3438.00,0.0259
3437.00,0.0259
3436.00,0.0260
3435.00,0.0260
3434.00,0.0260
3433.00,0.0260
3432.00,0.0261
3431.00,0.0261
3430.00,0.0262
3429.00,0.0262
3428.00,0.0263
3427.00,0.0263
3426.00,0.0263
3425.00,0.0264
3424.00,0.0264
3423.00,0.0264
3422.00,0.0264
3421.00,0.0263
3420.00,0.0263
3419.00,0.0262
3418.00,0.0262
3417.00,0.0261
3416.00,0.0260
3415.00,0.0259
3414.00,0.0258
3413.00,0.0257
3412.00,0.0256
3411.00,0.0255
3410.00,0.0254
3409.00,0.0253
3408.00,0.0252
3407.00,0.0251
3406.00,0.0250
3405.00,0.0249
3404.00,0.0248
3403.00,0.0247
3402.00,0.0247
3401.00,0.0246
3400.00,0.0245
3399.00,0.0244
3398.00,0.0243
3397.00,0.0242
3396.00,0.0242
3395.00,0.0241
3394.00,0.0241
3393.00,0.0240
3392.00,0.0240
3391.00,0.0239
3390.00,0.0239
3389.00,0.0239
3388.00,0.0238
3387.00,0.0238
3386.00,0.0237
3385.00,0.0237
3384.00,0.0236
3383.00,0.0235
3382.00,0.0235
3381.00,0.0235
3380.00,0.0234
3379.00,0.0234
3378.00,0.0234
3377.00,0.0233
3376.00,0.0233
3375.00,0.0233
3374.00,0.0232
3373.00,0.0232
3372.00,0.0232
3371.00,0.0232
3370.00,0.0231
3369.00,0.0231
3368.00,0.0230
3367.00,0.0230
3366.00,0.0230
3365.00,0.0229
3364.00,0.0229
3363.00,0.0228
3362.00,0.0228
3361.00,0.0228
3360.00,0.0227
3359.00,0.0227
3358.00,0.0227
3357.00,0.0227
3356.00,0.0226
3355.00,0.0226
3354.00,0.0226
3353.00,0.0226
3352.00,0.0225
3351.00,0.0225
3350.00,0.0225
3349.00,0.0225
3348.00,0.0225
3347.00,0.0225
3346.00,0.0225
3345.00,0.0224
3344.00,0.0224
3343.00,0.0224
3342.00,0.0224
3341.00,0.0223
3340.00,0.0223
3339.00,0.0223
3338.00,0.0223
3337.00,0.0223
3336.00,0.0223
3335.00,0.0223
3334.00,0.0223
3333.00,0.0224
3332.00,0.0224
3331.00,0.0224
3330.00,0.0224
3329.00,0.0225
3328.00,0.0224
3327.00,0.0224
3326.00,0.0224
3325.00,0.0225
3324.00,0.0225
3323.00,0.0226
3322.00,0.0226
3321.00,0.0227
3320.00,0.0228
3319.00,0.0228
3318.00,0.0229
3317.00,0.0230
3316.00,0.0230
3315.00,0.0231
3314.00,0.0231
3313.00,0.0231
3312.00,0.0231
3311.00,0.0231
3310.00,0.0231
3309.00,0.0232
3308.00,0.0232
3307.00,0.0233
3306.00,0.0233
3305.00,0.0235
3304.00,0.0236
3303.00,0.0237
3302.00,0.0239
3301.00,0.0240
3300.00,0.0241
3299.00,0.0241
3298.00,0.0242
3297.00,0.0243
3296.00,0.0243
3295.00,0.0245
3294.00,0.0246
3293.00,0.0247
3292.00,0.0248
3291.00,0.0249
3290.00,0.0251
3289.00,0.0253
3288.00,0.0254
3287.00,0.0256
3286.00,0.0257
3285.00,0.0258
3284.00,0.0259
3283.00,0.0260
3282.00,0.0261
3281.00,0.0262
3280.00,0.0263
3279.00,0.0264
3278.00,0.0265
3277.00,0.0266
3276.00,0.0267
3275.00,0.0267
3274.00,0.0268
3273.00,0.0268
3272.00,0.0268
3271.00,0.0269
3270.00,0.0270
3269.00,0.0271
3268.00,0.0272
3267.00,0.0273
3266.00,0.0273
3265.00,0.0273
3264.00,0.0273
3263.00,0.0273
3262.00,0.0273
3261.00,0.0273
3260.00,0.0272
3259.00,0.0272
3258.00,0.0271
3257.00,0.0271
3256.00,0.0270
3255.00,0.0269
3254.00,0.0268
3253.00,0.0267
3252.00,0.0266
3251.00,0.0265
3250.00,0.0264
3249.00,0.0263
3248.00,0.0261
3247.00,0.0260
3246.00,0.0258
3245.00,0.0257
3244.00,0.0256
3243.00,0.0254
3242.00,0.0252
3241.00,0.0251
3240.00,0.0249
3239.00,0.0247
3238.00,0.0245
3237.00,0.0243
3236.00,0.0241
3235.00,0.0239
3234.00,0.0237
3233.00,0.0236
3232.00,0.0234
3231.00,0.0232
3230.00,0.0231
3229.00,0.0229
3228.00,0.0228
3227.00,0.0226
3226.00,0.0224
3225.00,0.0223
3224.00,0.0221
3223.00,0.0220
3222.00,0.0218
3221.00,0.0217
3220.00,0.0216
3219.00,0.0215
3218.00,0.0214
3217.00,0.0212
3216.00,0.0211
3215.00,0.0210
3214.00,0.0209
3213.00,0.0208
3212.00,0.0207
3211.00,0.0206
3210.00,0.0205
3209.00,0.0204
3208.00,0.0203
3207.00,0.0202
3206.00,0.0201
3205.00,0.0200
3204.00,0.0198
3203.00,0.0197
3202.00,0.0196
3201.00,0.0195
3200.00,0.0195
3199.00,0.0194
3198.00,0.0193
3197.00,0.0192
3196.00,0.0191
3195.00,0.0190
3194.00,0.0189
3193.00,0.0188
3192.00,0.0187
3191.00,0.0187
3190.00,0.0186
3189.00,0.0185
3188.00,0.0185
3187.00,0.0184
3186.00,0.0183
3185.00,0.0182
3184.00,0.0181
3183.00,0.0180
3182.00,0.0180
3181.00,0.0179
3180.00,0.0178
3179.00,0.0177
3178.00,0.0177
3177.00,0.0176
3176.00,0.0175
3175.00,0.0174
3174.00,0.0173
3173.00,0.0173
3172.00,0.0172
3171.00,0.0171
3170.00,0.0170
3169.00,0.0169
3168.00,0.0169
3167.00,0.0168
3166.00,0.0167
3165.00,0.0166
3164.00,0.0165
3163.00,0.0163
3162.00,0.0162
3161.00,0.0161
3160.00,0.0160
3159.00,0.0159
3158.00,0.0158
3157.00,0.0157
3156.00,0.0156
3155.00,0.0155
3154.00,0.0154
3153.00,0.0153
3152.00,0.0152
3151.00,0.0151
3150.00,0.0151
3149.00,0.0150
3148.00,0.0150
3147.00,0.0149
3146.00,0.0148
3145.00,0.0147
3144.00,0.0146
3143.00,0.0146
3142.00,0.0145
3141.00,0.0144
3140.00,0.0143
3139.00,0.0142
3138.00,0.0142
3137.00,0.0141
3136.00,0.0141
3135.00,0.0140
3134.00,0.0139
3133.00,0.0139
3132.00,0.0138
3131.00,0.0137
3130.00,0.0136
3129.00,0.0135
3128.00,0.0134
3127.00,0.0133
3126.00,0.0132
3125.00,0.0131
3124.00,0.0130
3123.00,0.0130
3122.00,0.0129
3121.00,0.0128
3120.00,0.0127
3119.00,0.0127
3118.00,0.0126
3117.00,0.0125
3116.00,0.0125
3115.00,0.0124
3114.00,0.0123
3113.00,0.0123
3112.00,0.0122
3111.00,0.0121
3110.00,0.0121
3109.00,0.0120
3108.00,0.0119
3107.00,0.0119
3106.00,0.0118
3105.00,0.0118
3104.00,0.0117
3103.00,0.0117
3102.00,0.0116
3101.00,0.0116
3100.00,0.0115
3099.00,0.0115
3098.00,0.0114
3097.00,0.0113
3096.00,0.0113
3095.00,0.0112
3094.00,0.0111
3093.00,0.0111
3092.00,0.0110
3091.00,0.0110
3090.00,0.0109
3089.00,0.0109
3088.00,0.0108
3087.00,0.0107
3086.00,0.0107
3085.00,0.0106
3084.00,0.0106
3083.00,0.0105
3082.00,0.0105
3081.00,0.0105
3080.00,0.0105
3079.00,0.0104
3078.00,0.0104
3077.00,0.0104
3076.00,0.0104
3075.00,0.0104
3074.00,0.0103
3073.00,0.0103
3072.00,0.0102
3071.00,0.0101
3070.00,0.0101
3069.00,0.0100
3068.00,0.0100
3067.00,0.0099
3066.00,0.0099
3065.00,0.0098
3064.00,0.0098
3063.00,0.0098
3062.00,0.0098
3061.00,0.0098
3060.00,0.0098
3059.00,0.0098
3058.00,0.0098
3057.00,0.0098
3056.00,0.0098
3055.00,0.0098
3054.00,0.0098
3053.00,0.0098
3052.00,0.0098
3051.00,0.0098
3050.00,0.0098
3049.00,0.0097
3048.00,0.0097
3047.00,0.0097
3046.00,0.0096
3045.00,0.0096
3044.00,0.0096
3043.00,0.0096
3042.00,0.0097
3041.00,0.0097
3040.00,0.0097
3039.00,0.0098
3038.00,0.0098
3037.00,0.0099
3036.00,0.0099
3035.00,0.0099
3034.00,0.0100
3033.00,0.0100
3032.00,0.0100
3031.00,0.0100
3030.00,0.0100
3029.00,0.0100
3028.00,0.0100
3027.00,0.0100
3026.00,0.0100
3025.00,0.0100
3024.00,0.0100
3023.00,0.0100
3022.00,0.0100
3021.00,0.0100
3020.00,0.0100
3019.00,0.0100
3018.00,0.0100
3017.00,0.0100
3016.00,0.0100
3015.00,0.0101
3014.00,0.0102
3013.00,0.0104
3012.00,0.0105
3011.00,0.0107
3010.00,0.0109
3009.00,0.0110
3008.00,0.0112
3007.00,0.0114
3006.00,0.0116
3005.00,0.0118
3004.00,0.0121
3003.00,0.0123
3002.00,0.0126
3001.00,0.0128
3000.00,0.0131
2999.00,0.0134
2998.00,0.0136
2997.00,0.0139
2996.00,0.0142
2995.00,0.0145
2994.00,0.0148
2993.00,0.0151
2992.00,0.0155
2991.00,0.0159
2990.00,0.0163
2989.00,0.0168
2988.00,0.0172
2987.00,0.0177
2986.00,0.0181
2985.00,0.0185
2984.00,0.0189
2983.00,0.0192
2982.00,0.0194
2981.00,0.0196
2980.00,0.0197
2979.00,0.0198
2978.00,0.0200
2977.00,0.0201
2976.00,0.0202
2975.00,0.0205
2974.00,0.0208
2973.00,0.0214
2972.00,0.0223
2971.00,0.0235
2970.00,0.0251
2969.00,0.0271
2968.00,0.0294
2967.00,0.0317
2966.00,0.0338
2965.00,0.0354
2964.00,0.0363
2963.00,0.0364
2962.00,0.0359
2961.00,0.0350
2960.00,0.0341
2959.00,0.0332
2958.00,0.0326
2957.00,0.0323
2956.00,0.0324
2955.00,0.0328
2954.00,0.0333
2953.00,0.0338
2952.00,0.0340
2951.00,0.0338
2950.00,0.0331
2949.00,0.0322
2948.00,0.0312
2947.00,0.0304
2946.00,0.0298
2945.00,0.0296
2944.00,0.0297
2943.00,0.0302
2942.00,0.0310
2941.00,0.0321
2940.00,0.0334
2939.00,0.0349
2938.00,0.0365
2937.00,0.0379
2936.00,0.0390
2935.00,0.0398
2934.00,0.0404
2933.00,0.0408
2932.00,0.0412
2931.00,0.0418
2930.00,0.0427
2929.00,0.0439
2928.00,0.0455
2927.00,0.0473
2926.00,0.0491
2925.00,0.0507
2924.00,0.0517
2923.00,0.0519
2922.00,0.0514
2921.00,0.0504
2920.00,0.0493
2919.00,0.0481
2918.00,0.0469
2917.00,0.0459
2916.00,0.0450
2915.00,0.0443
2914.00,0.0436
2913.00,0.0431
2912.00,0.0425
2911.00,0.0419
2910.00,0.0412
2909.00,0.0403
2908.00,0.0394
2907.00,0.0384
2906.00,0.0374
2905.00,0.0364
2904.00,0.0353
2903.00,0.0344
2902.00,0.0334
2901.00,0.0326
2900.00,0.0319
2899.00,0.0313
2898.00,0.0307
2897.00,0.0303
2896.00,0.0299
2895.00,0.0296
2894.00,0.0293
2893.00,0.0290
2892.00,0.0286
2891.00,0.0282
2890.00,0.0278
2889.00,0.0274
2888.00,0.0270
2887.00,0.0267
2886.00,0.0264
2885.00,0.0262
2884.00,0.0259
2883.00,0.0258
2882.00,0.0257
2881.00,0.0256
2880.00,0.0256
2879.00,0.0256
2878.00,0.0257
2877.00,0.0258
2876.00,0.0260
2875.00,0.0264
2874.00,0.0268
2873.00,0.0273
2872.00,0.0277
2871.00,0.0280
2870.00,0.0280
2869.00,0.0279
2868.00,0.0276
2867.00,0.0274
2866.00,0.0274
2865.00,0.0276
2864.00,0.0281
2863.00,0.0289
2862.00,0.0301
2861.00,0.0315
2860.00,0.0330
2859.00,0.0344
2858.00,0.0354
2857.00,0.0360
2856.00,0.0360
2855.00,0.0356
2854.00,0.0349
2853.00,0.0340
2852.00,0.0331
2851.00,0.0321
2850.00,0.0312
2849.00,0.0302
2848.00,0.0293
2847.00,0.0282
2846.00,0.0270
2845.00,0.0257
2844.00,0.0242
2843.00,0.0228
2842.00,0.0215
2841.00,0.0202
2840.00,0.0192
2839.00,0.0182
2838.00,0.0174
2837.00,0.0167
2836.00,0.0161
2835.00,0.0155
2834.00,0.0150
2833.00,0.0146
2832.00,0.0142
2831.00,0.0139
2830.00,0.0135
2829.00,0.0132
2828.00,0.0129
2827.00,0.0126
2826.00,0.0123
2825.00,0.0120
2824.00,0.0118
2823.00,0.0115
2822.00,0.0113
2821.00,0.0110
2820.00,0.0108
2819.00,0.0106
2818.00,0.0104
2817.00,0.0102
2816.00,0.0101
2815.00,0.0099
2814.00,0.0098
2813.00,0.0097
2812.00,0.0096
2811.00,0.0095
2810.00,0.0094
2809.00,0.0093
2808.00,0.0092
2807.00,0.0091
2806.00,0.0090
2805.00,0.0090
2804.00,0.0089
2803.00,0.0088
2802.00,0.0087
2801.00,0.0086
2800.00,0.0086
2799.00,0.0085
2798.00,0.0084
2797.00,0.0084
2796.00,0.0083
2795.00,0.0083
2794.00,0.0082
2793.00,0.0081
2792.00,0.0081
2791.00,0.0080
2790.00,0.0080
2789.00,0.0080
2788.00,0.0079
2787.00,0.0079
2786.00,0.0078
2785.00,0.0078
2784.00,0.0078
2783.00,0.0077
2782.00,0.0077
2781.00,0.0077
2780.00,0.0076
2779.00,0.0076
2778.00,0.0076
2777.00,0.0075
2776.00,0.0075
2775.00,0.0075
2774.00,0.0074
2773.00,0.0074
2772.00,0.0074
2771.00,0.0073
2770.00,0.0073
2769.00,0.0073
2768.00,0.0073
2767.00,0.0073
2766.00,0.0073
2765.00,0.0073
2764.00,0.0072
2763.00,0.0072
2762.00,0.0072
2761.00,0.0072
2760.00,0.0072
2759.00,0.0072
2758.00,0.0073
2757.00,0.0073
2756.00,0.0073
2755.00,0.0073
2754.00,0.0073
2753.00,0.0073
2752.00,0.0073
2751.00,0.0073
2750.00,0.0073
2749.00,0.0073
2748.00,0.0073
2747.00,0.0073
2746.00,0.0074
2745.00,0.0074
2744.00,0.0074
2743.00,0.0074
2742.00,0.0074
2741.00,0.0074
2740.00,0.0074
2739.00,0.0074
2738.00,0.0074
2737.00,0.0075
2736.00,0.0075
2735.00,0.0076
2734.00,0.0077
2733.00,0.0078
2732.00,0.0079
2731.00,0.0079
2730.00,0.0079
2729.00,0.0078
2728.00,0.0078
2727.00,0.0077
2726.00,0.0077
2725.00,0.0076
2724.00,0.0076
2723.00,0.0076
2722.00,0.0075
2721.00,0.0075
2720.00,0.0074
2719.00,0.0074
2718.00,0.0073
2717.00,0.0072
2716.00,0.0072
2715.00,0.0071
2714.00,0.0071
2713.00,0.0070
2712.00,0.0070
2711.00,0.0070
2710.00,0.0070
2709.00,0.0069
2708.00,0.0069
2707.00,0.0069
2706.00,0.0068
2705.00,0.0068
2704.00,0.0068
2703.00,0.0068
2702.00,0.0068
2701.00,0.0068
2700.00,0.0068
2699.00,0.0068
2698.00,0.0068
2697.00,0.0068
2696.00,0.0068
2695.00,0.0068
2694.00,0.0068
2693.00,0.0067
2692.00,0.0067
2691.00,0.0067
2690.00,0.0068
2689.00,0.0068
2688.00,0.0068
2687.00,0.0068
2686.00,0.0068
2685.00,0.0068
2684.00,0.0068
2683.00,0.0067
2682.00,0.0067
2681.00,0.0067
2680.00,0.0067
2679.00,0.0067
2678.00,0.0067
2677.00,0.0067
2676.00,0.0066
2675.00,0.0066
2674.00,0.0066
2673.00,0.0066
2672.00,0.0066
2671.00,0.0066
2670.00,0.0066
2669.00,0.0065
2668.00,0.0065
2667.00,0.0065
2666.00,0.0066
2665.00,0.0066
2664.00,0.0066
2663.00,0.0066
2662.00,0.0067
2661.00,0.0067
2660.00,0.0067
2659.00,0.0067
2658.00,0.0067
2657.00,0.0068
2656.00,0.0067
2655.00,0.0067
2654.00,0.0067
2653.00,0.0067
2652.00,0.0067
2651.00,0.0067
2650.00,0.0066
2649.00,0.0066
2648.00,0.0066
2647.00,0.0066
2646.00,0.0066
2645.00,0.0066
2644.00,0.0066
2643.00,0.0066
2642.00,0.0066
2641.00,0.0065
2640.00,0.0065
2639.00,0.0065
2638.00,0.0065
2637.00,0.0065
2636.00,0.0065
2635.00,0.0065
2634.00,0.0064
2633.00,0.0064
2632.00,0.0064
2631.00,0.0064
2630.00,0.0064
2629.00,0.0064
2628.00,0.0064
2627.00,0.0063
2626.00,0.0063
2625.00,0.0063
2624.00,0.0063
2623.00,0.0062
2622.00,0.0062
2621.00,0.0062
2620.00,0.0062
2619.00,0.0062
2618.00,0.0062
2617.00,0.0061
2616.00,0.0061
2615.00,0.0061
2614.00,0.0061
2613.00,0.0061
2612.00,0.0061
2611.00,0.0061
2610.00,0.0060
2609.00,0.0060
2608.00,0.0060
2607.00,0.0060
2606.00,0.0059
2605.00,0.0059
2604.00,0.0059
2603.00,0.0059
2602.00,0.0059
2601.00,0.0059
2600.00,0.0058
2599.00,0.0058
2598.00,0.0058
2597.00,0.0058
2596.00,0.0058
2595.00,0.0058
2594.00,0.0058
2593.00,0.0058
2592.00,0.0058
2591.00,0.0058
2590.00,0.0058
2589.00,0.0057
2588.00,0.0057
2587.00,0.0057
2586.00,0.0057
2585.00,0.0057
2584.00,0.0057
2583.00,0.0057
2582.00,0.0057
2581.00,0.0057
2580.00,0.0057
2579.00,0.0057
2578.00,0.0057
2577.00,0.0057
2576.00,0.0057
2575.00,0.0057
2574.00,0.0056
2573.00,0.0056
2572.00,0.0057
2571.00,0.0057
2570.00,0.0057
2569.00,0.0056
2568.00,0.0057
2567.00,0.0057
2566.00,0.0057
2565.00,0.0057
2564.00,0.0057
2563.00,0.0056
2562.00,0.0056
2561.00,0.0055
2560.00,0.0055
2559.00,0.0055
2558.00,0.0055
2557.00,0.0055
2556.00,0.0054
2555.00,0.0054
2554.00,0.0054
2553.00,0.0054
2552.00,0.0054
2551.00,0.0054
2550.00,0.0054
2549.00,0.0054
2548.00,0.0054
2547.00,0.0053
2546.00,0.0053
2545.00,0.0053
2544.00,0.0053
2543.00,0.0053
2542.00,0.0053
2541.00,0.0052
2540.00,0.0052
2539.00,0.0052
2538.00,0.0052
2537.00,0.0052
2536.00,0.0052
2535.00,0.0052
2534.00,0.0051
2533.00,0.0051
2532.00,0.0051
2531.00,0.0051
2530.00,0.0051
2529.00,0.0051
2528.00,0.0051
2527.00,0.0051
2526.00,0.0050
2525.00,0.0050
2524.00,0.0050
2523.00,0.0050
2522.00,0.0050
2521.00,0.0050
2520.00,0.0050
2519.00,0.0050
2518.00,0.0050
2517.00,0.0050
2516.00,0.0050
2515.00,0.0050
2514.00,0.0050
2513.00,0.0050
2512.00,0.0050
2511.00,0.0050
2510.00,0.0049
2509.00,0.0049
2508.00,0.0049
2507.00,0.0049
2506.00,0.0049
2505.00,0.0049
2504.00,0.0049
2503.00,0.0049
2502.00,0.0048
2501.00,0.0048
2500.00,0.0048
2499.00,0.0048
2498.00,0.0048
2497.00,0.0048
2496.00,0.0049
2495.00,0.0049
2494.00,0.0049
2493.00,0.0049
2492.00,0.0048
2491.00,0.0048
2490.00,0.0048
2489.00,0.0048
2488.00,0.0048
2487.00,0.0048
2486.00,0.0048
2485.00,0.0047
2484.00,0.0047
2483.00,0.0047
2482.00,0.0047
2481.00,0.0047
2480.00,0.0047
2479.00,0.0047
2478.00,0.0047
2477.00,0.0047
2476.00,0.0047
2475.00,0.0047
2474.00,0.0047
2473.00,0.0047
2472.00,0.0047
2471.00,0.0047
2470.00,0.0047
2469.00,0.0047
2468.00,0.0048
2467.00,0.0048
2466.00,0.0048
2465.00,0.0048
2464.00,0.0048
2463.00,0.0047
2462.00,0.0047
2461.00,0.0048
2460.00,0.0048
2459.00,0.0048
2458.00,0.0048
2457.00,0.0048
2456.00,0.0048
2455.00,0.0048
2454.00,0.0047
2453.00,0.0047
2452.00,0.0047
2451.00,0.0047
2450.00,0.0047
2449.00,0.0047
2448.00,0.0047
2447.00,0.0047
2446.00,0.0047
2445.00,0.0047
2444.00,0.0047
2443.00,0.0047
2442.00,0.0046
2441.00,0.0046
2440.00,0.0046
2439.00,0.0046
2438.00,0.0046
2437.00,0.0046
2436.00,0.0046
2435.00,0.0046
2434.00,0.0046
2433.00,0.0046
2432.00,0.0046
2431.00,0.0046
2430.00,0.0046
2429.00,0.0045
2428.00,0.0045
2427.00,0.0045
2426.00,0.0045
2425.00,0.0045
2424.00,0.0045
2423.00,0.0045
2422.00,0.0044
2421.00,0.0044
2420.00,0.0044
2419.00,0.0044
2418.00,0.0044
2417.00,0.0045
2416.00,0.0045
2415.00,0.0045
2414.00,0.0045
2413.00,0.0045
2412.00,0.0045
2411.00,0.0045
2410.00,0.0045
2409.00,0.0045
2408.00,0.0044
2407.00,0.0044
2406.00,0.0044
2405.00,0.0044
2404.00,0.0044
2403.00,0.0044
2402.00,0.0044
2401.00,0.0043
2400.00,0.0043
2399.00,0.0043
2398.00,0.0043
2397.00,0.0043
2396.00,0.0043
2395.00,0.0043
2394.00,0.0044
2393.00,0.0044
2392.00,0.0044
2391.00,0.0044
2390.00,0.0044
2389.00,0.0043
2388.00,0.0043
2387.00,0.0043
2386.00,0.0043
2385.00,0.0043
2384.00,0.0042
2383.00,0.0041
2382.00,0.0040
2381.00,0.0040
2380.00,0.0039
2379.00,0.0039
2378.00,0.0039
2377.00,0.0039
2376.00,0.0039
2375.00,0.0039
2374.00,0.0039
2373.00,0.0039
2372.00,0.0039
2371.00,0.0038
2370.00,0.0038
2369.00,0.0037
2368.00,0.0037
2367.00,0.0037
2366.00,0.0037
2365.00,0.0037
2364.00,0.0037
2363.00,0.0037
2362.00,0.0037
2361.00,0.0037
2360.00,0.0038
2359.00,0.0038
2358.00,0.0038
2357.00,0.0038
2356.00,0.0038
2355.00,0.0039
2354.00,0.0039
2353.00,0.0039
2352.00,0.0039
2351.00,0.0039
2350.00,0.0039
2349.00,0.0039
2348.00,0.0039
2347.00,0.0039
2346.00,0.0040
2345.00,0.0040
2344.00,0.0041
2343.00,0.0041
2342.00,0.0040
2341.00,0.0040
2340.00,0.0041
2339.00,0.0041
2338.00,0.0042
2337.00,0.0043
2336.00,0.0043
2335.00,0.0043
2334.00,0.0043
2333.00,0.0043
2332.00,0.0042
2331.00,0.0043
2330.00,0.0044
2329.00,0.0046
2328.00,0.0049
2327.00,0.0052
2326.00,0.0055
2325.00,0.0056
2324.00,0.0055
2323.00,0.0053
2322.00,0.0052
2321.00,0.0050
2320.00,0.0050
2319.00,0.0049
2318.00,0.0049
2317.00,0.0048
2316.00,0.0048
2315.00,0.0048
2314.00,0.0047
2313.00,0.0047
2312.00,0.0046
2311.00,0.0046
2310.00,0.0045
2309.00,0.0044
2308.00,0.0044
2307.00,0.0044
2306.00,0.0045
2305.00,0.0045
2304.00,0.0045
2303.00,0.0046
2302.00,0.0047
2301.00,0.0047
2300.00,0.0048
2299.00,0.0048
2298.00,0.0048
2297.00,0.0048
2296.00,0.0049
2295.00,0.0049
2294.00,0.0050
2293.00,0.0051
2292.00,0.0051
2291.00,0.0052
2290.00,0.0053
2289.00,0.0053
2288.00,0.0054
2287.00,0.0054
2286.00,0.0054
2285.00,0.0054
2284.00,0.0053
2283.00,0.0053
2282.00,0.0052
2281.00,0.0052
2280.00,0.0051
2279.00,0.0050
2278.00,0.0050
2277.00,0.0049
2276.00,0.0049
2275.00,0.0050
2274.00,0.0050
2273.00,0.0050
2272.00,0.0050
2271.00,0.0050
2270.00,0.0050
2269.00,0.0049
2268.00,0.0049
2267.00,0.0048
2266.00,0.0047
2265.00,0.0046
2264.00,0.0046
2263.00,0.0046
2262.00,0.0046
2261.00,0.0046
2260.00,0.0047
2259.00,0.0047
2258.00,0.0046
2257.00,0.0045
2256.00,0.0044
2255.00,0.0043
2254.00,0.0044
2253.00,0.0044
2252.00,0.0045
2251.00,0.0046
2250.00,0.0046
2249.00,0.0047
2248.00,0.0048
2247.00,0.0048
2246.00,0.0048
2245.00,0.0048
2244.00,0.0048
2243.00,0.0047
2242.00,0.0047
2241.00,0.0047
2240.00,0.0047
2239.00,0.0047
2238.00,0.0046
2237.00,0.0046
2236.00,0.0046
2235.00,0.0047
2234.00,0.0047
2233.00,0.0047
2232.00,0.0047
2231.00,0.0047
2230.00,0.0047
2229.00,0.0047
2228.00,0.0047
2227.00,0.0048
2226.00,0.0048
2225.00,0.0048
2224.00,0.0048
2223.00,0.0048
2222.00,0.0048
2221.00,0.0047
2220.00,0.0047
2219.00,0.0048
2218.00,0.0048
2217.00,0.0049
2216.00,0.0049
2215.00,0.0050
2214.00,0.0049
2213.00,0.0048
2212.00,0.0047
2211.00,0.0046
2210.00,0.0045
2209.00,0.0045
2208.00,0.0045
2207.00,0.0046
2206.00,0.0048
2205.00,0.0049
2204.00,0.0049
2203.00,0.0050
2202.00,0.0050
2201.00,0.0050
2200.00,0.0051
2199.00,0.0051
2198.00,0.0050
2197.00,0.0049
2196.00,0.0049
2195.00,0.0050
2194.00,0.0050
2193.00,0.0050
2192.00,0.0050
2191.00,0.0051
2190.00,0.0051
2189.00,0.0052
2188.00,0.0052
2187.00,0.0052
2186.00,0.0051
2185.00,0.0048
2184.00,0.0046
2183.00,0.0045
2182.00,0.0044
2181.00,0.0045
2180.00,0.0046
2179.00,0.0047
2178.00,0.0046
2177.00,0.0044
2176.00,0.0043
2175.00,0.0043
2174.00,0.0046
2173.00,0.0049
2172.00,0.0053
2171.00,0.0056
2170.00,0.0058
2169.00,0.0059
2168.00,0.0060
2167.00,0.0060
2166.00,0.0061
2165.00,0.0062
2164.00,0.0064
2163.00,0.0064
2162.00,0.0059
2161.00,0.0048
2160.00,0.0035
2159.00,0.0024
2158.00,0.0018
2157.00,0.0017
2156.00,0.0020
2155.00,0.0023
2154.00,0.0026
2153.00,0.0029
2152.00,0.0032
2151.00,0.0034
2150.00,0.0034
2149.00,0.0034
2148.00,0.0033
2147.00,0.0032
2146.00,0.0031
2145.00,0.0030
2144.00,0.0030
2143.00,0.0031
2142.00,0.0033
2141.00,0.0034
2140.00,0.0035
2139.00,0.0034
2138.00,0.0033
2137.00,0.0031
2136.00,0.0030
2135.00,0.0029
2134.00,0.0029
2133.00,0.0030
2132.00,0.0032
2131.00,0.0033
2130.00,0.0034
2129.00,0.0035
2128.00,0.0036
2127.00,0.0037
2126.00,0.0038
2125.00,0.0038
2124.00,0.0039
2123.00,0.0041
2122.00,0.0042
2121.00,0.0042
2120.00,0.0043
2119.00,0.0043
2118.00,0.0044
2117.00,0.0045
2116.00,0.0047
2115.00,0.0049
2114.00,0.0050
2113.00,0.0049
2112.00,0.0049
2111.00,0.0048
2110.00,0.0047
2109.00,0.0047
2108.00,0.0047
2107.00,0.0047
2106.00,0.0046
2105.00,0.0046
2104.00,0.0045
2103.00,0.0045
2102.00,0.0045
2101.00,0.0044
2100.00,0.0044
2099.00,0.0043
2098.00,0.0042
2097.00,0.0041
2096.00,0.0040
2095.00,0.0040
2094.00,0.0040
2093.00,0.0041
2092.00,0.0042
2091.00,0.0043
2090.00,0.0043
2089.00,0.0044
2088.00,0.0044
2087.00,0.0045
2086.00,0.0045
2085.00,0.0045
2084.00,0.0045
2083.00,0.0046
2082.00,0.0046
2081.00,0.0046
2080.00,0.0047
2079.00,0.0047
2078.00,0.0046
2077.00,0.0046
2076.00,0.0045
2075.00,0.0045
2074.00,0.0045
2073.00,0.0044
2072.00,0.0044
2071.00,0.0044
2070.00,0.0044
2069.00,0.0044
2068.00,0.0044
2067.00,0.0045
2066.00,0.0046
2065.00,0.0046
2064.00,0.0045
2063.00,0.0045
2062.00,0.0044
2061.00,0.0044
2060.00,0.0044
2059.00,0.0044
2058.00,0.0044
2057.00,0.0044
2056.00,0.0044
2055.00,0.0044
2054.00,0.0046
2053.00,0.0050
2052.00,0.0053
2051.00,0.0053
2050.00,0.0051
2049.00,0.0047
2048.00,0.0044
2047.00,0.0042
2046.00,0.0041
2045.00,0.0040
2044.00,0.0040
2043.00,0.0041
2042.00,0.0042
2041.00,0.0043
2040.00,0.0044
2039.00,0.0045
2038.00,0.0044
2037.00,0.0042
2036.00,0.0040
2035.00,0.0038
2034.00,0.0036
2033.00,0.0035
2032.00,0.0035
2031.00,0.0036
2030.00,0.0036
2029.00,0.0035
2028.00,0.0034
2027.00,0.0033
2026.00,0.0032
2025.00,0.0031
2024.00,0.0032
2023.00,0.0034
2022.00,0.0034
2021.00,0.0034
2020.00,0.0034
2019.00,0.0033
2018.00,0.0033
2017.00,0.0034
2016.00,0.0034
2015.00,0.0034
2014.00,0.0034
2013.00,0.0035
2012.00,0.0037
2011.00,0.0039
2010.00,0.0038
2009.00,0.0036
2008.00,0.0032
2007.00,0.0029
2006.00,0.0027
2005.00,0.0026
2004.00,0.0028
2003.00,0.0029
2002.00,0.0030
2001.00,0.0031
2000.00,0.0033
1999.00,0.0035
1998.00,0.0036
1997.00,0.0037
1996.00,0.0038
1995.00,0.0038
1994.00,0.0038
1993.00,0.0038
1992.00,0.0040
1991.00,0.0041
1990.00,0.0041
1989.00,0.0041
1988.00,0.0042
1987.00,0.0042
1986.00,0.0043
1985.00,0.0044
1984.00,0.0046
1983.00,0.0048
1982.00,0.0050
1981.00,0.0051
1980.00,0.0050
1979.00,0.0046
1978.00,0.0040
1977.00,0.0034
1976.00,0.0031
1975.00,0.0029
1974.00,0.0028
1973.00,0.0028
1972.00,0.0029
1971.00,0.0030
1970.00,0.0031
1969.00,0.0032
1968.00,0.0033
1967.00,0.0033
1966.00,0.0033
1965.00,0.0032
1964.00,0.0031
1963.00,0.0031
1962.00,0.0030
1961.00,0.0028
1960.00,0.0027
1959.00,0.0026
1958.00,0.0026
1957.00,0.0028
1956.00,0.0031
1955.00,0.0033
1954.00,0.0034
1953.00,0.0034
1952.00,0.0035
1951.00,0.0036
1950.00,0.0036
1949.00,0.0036
1948.00,0.0036
1947.00,0.0035
1946.00,0.0034
1945.00,0.0034
1944.00,0.0035
1943.00,0.0036
1942.00,0.0036
1941.00,0.0036
1940.00,0.0037
1939.00,0.0037
1938.00,0.0036
1937.00,0.0035
1936.00,0.0035
1935.00,0.0035
1934.00,0.0035
1933.00,0.0034
1932.00,0.0035
1931.00,0.0035
1930.00,0.0035
1929.00,0.0035
1928.00,0.0036
1927.00,0.0036
1926.00,0.0036
1925.00,0.0037
1924.00,0.0037
1923.00,0.0038
1922.00,0.0039
1921.00,0.0040
1920.00,0.0041
1919.00,0.0041
1918.00,0.0041
1917.00,0.0040
1916.00,0.0040
1915.00,0.0040
1914.00,0.0039
1913.00,0.0039
1912.00,0.0039
1911.00,0.0040
1910.00,0.0040
1909.00,0.0040
1908.00,0.0040
1907.00,0.0040
1906.00,0.0040
1905.00,0.0040
1904.00,0.0041
1903.00,0.0041
1902.00,0.0041
1901.00,0.0041
1900.00,0.0041
1899.00,0.0041
1898.00,0.0040
1897.00,0.0041
1896.00,0.0041
1895.00,0.0042
1894.00,0.0042
1893.00,0.0041
1892.00,0.0041
1891.00,0.0041
1890.00,0.0041
1889.00,0.0041
1888.00,0.0042
1887.00,0.0042
1886.00,0.0042
1885.00,0.0041
1884.00,0.0041
1883.00,0.0041
1882.00,0.0040
1881.00,0.0040
1880.00,0.0041
1879.00,0.0041
1878.00,0.0041
1877.00,0.0041
1876.00,0.0041
1875.00,0.0041
1874.00,0.0041
1873.00,0.0041
1872.00,0.0042
1871.00,0.0043
1870.00,0.0044
1869.00,0.0044
1868.00,0.0044
1867.00,0.0044
1866.00,0.0043
1865.00,0.0043
1864.00,0.0043
1863.00,0.0043
1862.00,0.0043
1861.00,0.0043
1860.00,0.0043
1859.00,0.0043
1858.00,0.0043
1857.00,0.0042
1856.00,0.0043
1855.00,0.0043
1854.00,0.0043
1853.00,0.0043
1852.00,0.0043
1851.00,0.0044
1850.00,0.0044
1849.00,0.0044
1848.00,0.0045
1847.00,0.0046
1846.00,0.0047
1845.00,0.0047
1844.00,0.0048
1843.00,0.0048
1842.00,0.0047
1841.00,0.0047
1840.00,0.0047
1839.00,0.0046
1838.00,0.0045
1837.00,0.0045
1836.00,0.0045
1835.00,0.0045
1834.00,0.0045
1833.00,0.0045
1832.00,0.0046
1831.00,0.0047
1830.00,0.0047
1829.00,0.0047
1828.00,0.0048
1827.00,0.0048
1826.00,0.0049
1825.00,0.0049
1824.00,0.0049
1823.00,0.0049
1822.00,0.0048
1821.00,0.0047
1820.00,0.0046
1819.00,0.0045
1818.00,0.0044
1817.00,0.0044
1816.00,0.0045
1815.00,0.0046
1814.00,0.0047
1813.00,0.0047
1812.00,0.0047
1811.00,0.0048
1810.00,0.0048
1809.00,0.0048
1808.00,0.0048
1807.00,0.0048
1806.00,0.0048
1805.00,0.0048
1804.00,0.0049
1803.00,0.0050
1802.00,0.0051
1801.00,0.0051
1800.00,0.0052
1799.00,0.0052
1798.00,0.0051
1797.00,0.0051
1796.00,0.0051
1795.00,0.0052
1794.00,0.0052
1793.00,0.0053
1792.00,0.0054
1791.00,0.0055
1790.00,0.0055
1789.00,0.0054
1788.00,0.0054
1787.00,0.0053
1786.00,0.0054
1785.00,0.0054
1784.00,0.0055
1783.00,0.0055
1782.00,0.0055
1781.00,0.0055
1780.00,0.0055
1779.00,0.0055
1778.00,0.0055
1777.00,0.0056
1776.00,0.0056
1775.00,0.0057
1774.00,0.0058
1773.00,0.0059
1772.00,0.0059
1771.00,0.0060
1770.00,0.0061
1769.00,0.0062
1768.00,0.0063
1767.00,0.0063
1766.00,0.0062
1765.00,0.0061
1764.00,0.0061
1763.00,0.0061
1762.00,0.0062
1761.00,0.0063
1760.00,0.0064
1759.00,0.0064
1758.00,0.0065
1757.00,0.0065
1756.00,0.0066
1755.00,0.0066
1754.00,0.0066
1753.00,0.0067
1752.00,0.0069
1751.00,0.0071
1750.00,0.0072
1749.00,0.0073
1748.00,0.0073
1747.00,0.0073
1746.00,0.0073
1745.00,0.0073
1744.00,0.0074
1743.00,0.0076
1742.00,0.0077
1741.00,0.0078
1740.00,0.0079
1739.00,0.0079
1738.00,0.0080
1737.00,0.0081
1736.00,0.0083
1735.00,0.0086
1734.00,0.0087
1733.00,0.0088
1732.00,0.0089
1731.00,0.0089
1730.00,0.0088
1729.00,0.0087
1728.00,0.0088
1727.00,0.0088
1726.00,0.0089
1725.00,0.0090
1724.00,0.0092
1723.00,0.0094
1722.00,0.0096
1721.00,0.0098
1720.00,0.0102
1719.00,0.0106
1718.00,0.0110
1717.00,0.0113
1716.00,0.0117
1715.00,0.0120
1714.00,0.0121
1713.00,0.0122
1712.00,0.0123
1711.00,0.0126
1710.00,0.0129
1709.00,0.0132
1708.00,0.0137
1707.00,0.0143
1706.00,0.0149
1705.00,0.0155
1704.00,0.0163
1703.00,0.0171
1702.00,0.0179
1701.00,0.0190
1700.00,0.0203
1699.00,0.0215
1698.00,0.0225
1697.00,0.0235
1696.00,0.0248
1695.00,0.0262
1694.00,0.0276
1693.00,0.0289
1692.00,0.0303
1691.00,0.0319
1690.00,0.0337
1689.00,0.0356
1688.00,0.0376
1687.00,0.0396
1686.00,0.0416
1685.00,0.0438
1684.00,0.0462
1683.00,0.0485
1682.00,0.0505
1681.00,0.0525
1680.00,0.0545
1679.00,0.0566
1678.00,0.0587
1677.00,0.0610
1676.00,0.0634
1675.00,0.0658
1674.00,0.0680
1673.00,0.0701
1672.00,0.0723
1671.00,0.0745
1670.00,0.0765
1669.00,0.0783
1668.00,0.0801
1667.00,0.0820
1666.00,0.0839
1665.00,0.0858
1664.00,0.0877
1663.00,0.0893
1662.00,0.0905
1661.00,0.0917
1660.00,0.0932
1659.00,0.0947
1658.00,0.0961
1657.00,0.0977
1656.00,0.0996
1655.00,0.1016
1654.00,0.1020
1653.00,0.1003
1652.00,0.0989
1651.00,0.0994
1650.00,0.1006
1649.00,0.1017
1648.00,0.1020
1647.00,0.1011
1646.00,0.0996
1645.00,0.0986
1644.00,0.0986
1643.00,0.0988
1642.00,0.0990
1641.00,0.0992
1640.00,0.0997
1639.00,0.1004
1638.00,0.1012
1637.00,0.1015
1636.00,0.1004
1635.00,0.0984
1634.00,0.0965
1633.00,0.0950
1632.00,0.0936
1631.00,0.0920
1630.00,0.0899
1629.00,0.0873
1628.00,0.0845
1627.00,0.0819
1626.00,0.0796
1625.00,0.0774
1624.00,0.0747
1623.00,0.0716
1622.00,0.0685
1621.00,0.0660
1620.00,0.0639
1619.00,0.0619
1618.00,0.0594
1617.00,0.0562
1616.00,0.0530
1615.00,0.0506
1614.00,0.0488
1613.00,0.0473
1612.00,0.0458
1611.00,0.0443
1610.00,0.0427
1609.00,0.0412
1608.00,0.0398
1607.00,0.0385
1606.00,0.0374
1605.00,0.0365
1604.00,0.0357
1603.00,0.0350
1602.00,0.0345
1601.00,0.0342
1600.00,0.0339
1599.00,0.0338
1598.00,0.0337
1597.00,0.0337
1596.00,0.0339
1595.00,0.0341
1594.00,0.0346
1593.00,0.0352
1592.00,0.0362
1591.00,0.0374
1590.00,0.0391
1589.00,0.0412
1588.00,0.0437
1587.00,0.0463
1586.00,0.0487
1585.00,0.0503
1584.00,0.0508
1583.00,0.0499
1582.00,0.0477
1581.00,0.0448
1580.00,0.0417
1579.00,0.0389
1578.00,0.0363
1577.00,0.0335
1576.00,0.0307
1575.00,0.0284
1574.00,0.0268
1573.00,0.0256
1572.00,0.0246
1571.00,0.0235
1570.00,0.0223
1569.00,0.0213
1568.00,0.0204
1567.00,0.0197
1566.00,0.0190
1565.00,0.0184
1564.00,0.0178
1563.00,0.0174
1562.00,0.0172
1561.00,0.0172
1560.00,0.0172
1559.00,0.0167
1558.00,0.0163
1557.00,0.0161
1556.00,0.0158
1555.00,0.0155
1554.00,0.0151
1553.00,0.0148
1552.00,0.0146
1551.00,0.0144
1550.00,0.0143
1549.00,0.0142
1548.00,0.0141
1547.00,0.0140
1546.00,0.0141
1545.00,0.0142
1544.00,0.0144
1543.00,0.0145
1542.00,0.0147
1541.00,0.0149
1540.00,0.0149
1539.00,0.0150
1538.00,0.0151
1537.00,0.0152
1536.00,0.0153
1535.00,0.0155
1534.00,0.0158
1533.00,0.0164
1532.00,0.0169
1531.00,0.0175
1530.00,0.0182
1529.00,0.0192
1528.00,0.0205
1527.00,0.0221
1526.00,0.0238
1525.00,0.0255
1524.00,0.0267
1523.00,0.0274
1522.00,0.0276
1521.00,0.0272
1520.00,0.0268
1519.00,0.0264
1518.00,0.0261
1517.00,0.0261
1516.00,0.0261
1515.00,0.0261
1514.00,0.0260
1513.00,0.0256
1512.00,0.0249
1511.00,0.0243
1510.00,0.0237
1509.00,0.0235
1508.00,0.0234
1507.00,0.0233
1506.00,0.0233
1505.00,0.0235
1504.00,0.0237
1503.00,0.0240
1502.00,0.0245
1501.00,0.0252
1500.00,0.0262
1499.00,0.0273
1498.00,0.0283
1497.00,0.0292
1496.00,0.0298
1495.00,0.0300
1494.00,0.0299
1493.00,0.0297
1492.00,0.0292
1491.00,0.0283
1490.00,0.0271
1489.00,0.0257
1488.00,0.0244
1487.00,0.0230
1486.00,0.0218
1485.00,0.0207
1484.00,0.0199
1483.00,0.0192
1482.00,0.0186
1481.00,0.0183
1480.00,0.0183
1479.00,0.0184
1478.00,0.0187
1477.00,0.0194
1476.00,0.0202
1475.00,0.0213
1474.00,0.0227
1473.00,0.0249
1472.00,0.0279
1471.00,0.0314
1470.00,0.0354
1469.00,0.0399
1468.00,0.0446
1467.00,0.0487
1466.00,0.0518
1465.00,0.0538
1464.00,0.0551
1463.00,0.0563
1462.00,0.0575
1461.00,0.0588
1460.00,0.0601
1459.00,0.0613
1458.00,0.0620
1457.00,0.0624
1456.00,0.0624
1455.00,0.0625
1454.00,0.0629
1453.00,0.0638
1452.00,0.0653
1451.00,0.0675
1450.00,0.0705
1449.00,0.0744
1448.00,0.0791
1447.00,0.0836
1446.00,0.0874
1445.00,0.0903
1444.00,0.0923
1443.00,0.0933
1442.00,0.0937
1441.00,0.0936
1440.00,0.0932
1439.00,0.0925
1438.00,0.0914
1437.00,0.0897
1436.00,0.0874
1435.00,0.0852
1434.00,0.0834
1433.00,0.0819
1432.00,0.0805
1431.00,0.0791
1430.00,0.0782
1429.00,0.0776
1428.00,0.0775
1427.00,0.0776
1426.00,0.0779
1425.00,0.0781
1424.00,0.0779
1423.00,0.0774
1422.00,0.0766
1421.00,0.0754
1420.00,0.0729
1419.00,0.0690
1418.00,0.0646
1417.00,0.0605
1416.00,0.0567
1415.00,0.0530
1414.00,0.0496
1413.00,0.0464
1412.00,0.0436
1411.00,0.0412
1410.00,0.0393
1409.00,0.0378
1408.00,0.0366
1407.00,0.0357
1406.00,0.0350
1405.00,0.0345
1404.00,0.0340
1403.00,0.0335
1402.00,0.0331
1401.00,0.0326
1400.00,0.0321
1399.00,0.0316
1398.00,0.0311
1397.00,0.0307
1396.00,0.0304
1395.00,0.0302
1394.00,0.0302
1393.00,0.0304
1392.00,0.0306
1391.00,0.0307
1390.00,0.0310
1389.00,0.0312
1388.00,0.0313
1387.00,0.0314
1386.00,0.0316
1385.00,0.0319
1384.00,0.0323
1383.00,0.0328
1382.00,0.0334
1381.00,0.0340
1380.00,0.0344
1379.00,0.0350
1378.00,0.0358
1377.00,0.0368
1376.00,0.0377
1375.00,0.0383
1374.00,0.0384
1373.00,0.0378
1372.00,0.0369
1371.00,0.0360
1370.00,0.0353
1369.00,0.0348
1368.00,0.0344
1367.00,0.0340
1366.00,0.0333
1365.00,0.0325
1364.00,0.0315
1363.00,0.0305
1362.00,0.0296
1361.00,0.0287
1360.00,0.0279
1359.00,0.0272
1358.00,0.0267
1357.00,0.0263
1356.00,0.0263
1355.00,0.0265
1354.00,0.0270
1353.00,0.0278
1352.00,0.0288
1351.00,0.0300
1350.00,0.0314
1349.00,0.0331
1348.00,0.0354
1347.00,0.0384
1346.00,0.0418
1345.00,0.0448
1344.00,0.0467
1343.00,0.0470
1342.00,0.0459
1341.00,0.0439
1340.00,0.0418
1339.00,0.0404
1338.00,0.0399
1337.00,0.0401
1336.00,0.0406
1335.00,0.0408
1334.00,0.0403
1333.00,0.0392
1332.00,0.0378
1331.00,0.0367
1330.00,0.0360
1329.00,0.0358
1328.00,0.0360
1327.00,0.0367
1326.00,0.0377
1325.00,0.0392
1324.00,0.0412
1323.00,0.0435
1322.00,0.0460
1321.00,0.0485
1320.00,0.0506
1319.00,0.0521
1318.00,0.0529
1317.00,0.0531
1316.00,0.0529
1315.00,0.0526
1314.00,0.0525
1313.00,0.0526
1312.00,0.0528
1311.00,0.0528
1310.00,0.0522
1309.00,0.0509
1308.00,0.0490
1307.00,0.0468
1306.00,0.0450
1305.00,0.0437
1304.00,0.0431
1303.00,0.0430
1302.00,0.0436
1301.00,0.0447
1300.00,0.0464
1299.00,0.0485
1298.00,0.0512
1297.00,0.0543
1296.00,0.0577
1295.00,0.0615
1294.00,0.0652
1293.00,0.0688
1292.00,0.0721
1291.00,0.0750
1290.00,0.0775
1289.00,0.0794
1288.00,0.0808
1287.00,0.0818
1286.00,0.0823
1285.00,0.0821
1284.00,0.0813
1283.00,0.0801
1282.00,0.0787
1281.00,0.0773
1280.00,0.0762
1279.00,0.0755
1278.00,0.0754
1277.00,0.0756
1276.00,0.0762
1275.00,0.0770
1274.00,0.0779
1273.00,0.0786
1272.00,0.0789
1271.00,0.0787
1270.00,0.0778
1269.00,0.0763
1268.00,0.0747
1267.00,0.0731
1266.00,0.0719
1265.00,0.0710
1264.00,0.0705
1263.00,0.0701
1262.00,0.0698
1261.00,0.0692
1260.00,0.0682
1259.00,0.0667
1258.00,0.0647
1257.00,0.0622
1256.00,0.0595
1255.00,0.0566
1254.00,0.0539
1253.00,0.0515
1252.00,0.0493
1251.00,0.0474
1250.00,0.0457
1249.00,0.0443
1248.00,0.0430
1247.00,0.0420
1246.00,0.0412
1245.00,0.0405
1244.00,0.0400
1243.00,0.0395
1242.00,0.0391
1241.00,0.0388
1240.00,0.0386
1239.00,0.0385
1238.00,0.0386
1237.00,0.0388
1236.00,0.0391
1235.00,0.0395
1234.00,0.0400
1233.00,0.0405
1232.00,0.0410
1231.00,0.0416
1230.00,0.0422
1229.00,0.0429
1228.00,0.0435
1227.00,0.0440
1226.00,0.0443
1225.00,0.0443
1224.00,0.0443
1223.00,0.0444
1222.00,0.0449
1221.00,0.0459
1220.00,0.0470
1219.00,0.0481
1218.00,0.0486
1217.00,0.0482
1216.00,0.0471
1215.00,0.0454
1214.00,0.0436
1213.00,0.0420
1212.00,0.0406
1211.00,0.0395
1210.00,0.0388
1209.00,0.0383
1208.00,0.0380
1207.00,0.0381
1206.00,0.0384
1205.00,0.0390
1204.00,0.0400
1203.00,0.0414
1202.00,0.0430
1201.00,0.0447
1200.00,0.0464
1199.00,0.0476
1198.00,0.0482
1197.00,0.0478
1196.00,0.0465
1195.00,0.0445
1194.00,0.0420
1193.00,0.0395
1192.00,0.0372
1191.00,0.0352
1190.00,0.0337
1189.00,0.0326
1188.00,0.0321
1187.00,0.0321
1186.00,0.0325
1185.00,0.0330
1184.00,0.0334
1183.00,0.0334
1182.00,0.0331
1181.00,0.0327
1180.00,0.0324
1179.00,0.0324
1178.00,0.0329
1177.00,0.0337
1176.00,0.0349
1175.00,0.0363
1174.00,0.0380
1173.00,0.0396
1172.00,0.0409
1171.00,0.0417
1170.00,0.0422
1169.00,0.0423
1168.00,0.0422
1167.00,0.0423
1166.00,0.0425
1165.00,0.0427
1164.00,0.0429
1163.00,0.0433
1162.00,0.0441
1161.00,0.0456
1160.00,0.0478
1159.00,0.0508
1158.00,0.0546
1157.00,0.0583
1156.00,0.0613
1155.00,0.0629
1154.00,0.0630
1153.00,0.0619
1152.00,0.0606
1151.00,0.0601
1150.00,0.0610
1149.00,0.0633
1148.00,0.0662
1147.00,0.0689
1146.00,0.0705
1145.00,0.0705
1144.00,0.0688
1143.00,0.0656
1142.00,0.0617
1141.00,0.0578
1140.00,0.0546
1139.00,0.0526
1138.00,0.0515
1137.00,0.0509
1136.00,0.0499
1135.00,0.0483
1134.00,0.0463
1133.00,0.0442
1132.00,0.0422
1131.00,0.0405
1130.00,0.0392
1129.00,0.0380
1128.00,0.0368
1127.00,0.0355
1126.00,0.0343
1125.00,0.0331
1124.00,0.0319
1123.00,0.0308
1122.00,0.0298
1121.00,0.0291
1120.00,0.0285
1119.00,0.0282
1118.00,0.0281
1117.00,0.0283
1116.00,0.0286
1115.00,0.0292
1114.00,0.0301
1113.00,0.0311
1112.00,0.0320
1111.00,0.0327
1110.00,0.0329
1109.00,0.0328
1108.00,0.0322
1107.00,0.0314
1106.00,0.0307
1105.00,0.0301
1104.00,0.0295
1103.00,0.0291
1102.00,0.0291
1101.00,0.0295
1100.00,0.0303
1099.00,0.0316
1098.00,0.0329
1097.00,0.0337
1096.00,0.0335
1095.00,0.0324
1094.00,0.0309
1093.00,0.0294
1092.00,0.0280
1091.00,0.0271
1090.00,0.0265
1089.00,0.0261
1088.00,0.0261
1087.00,0.0262
1086.00,0.0266
1085.00,0.0274
1084.00,0.0284
1083.00,0.0298
1082.00,0.0316
1081.00,0.0334
1080.00,0.0349
1079.00,0.0358
1078.00,0.0359
1077.00,0.0352
1076.00,0.0340
1075.00,0.0326
1074.00,0.0314
1073.00,0.0303
1072.00,0.0294
1071.00,0.0286
1070.00,0.0281
1069.00,0.0276
1068.00,0.0274
1067.00,0.0273
1066.00,0.0274
1065.00,0.0278
1064.00,0.0283
1063.00,0.0289
1062.00,0.0297
1061.00,0.0303
1060.00,0.0308
1059.00,0.0311
1058.00,0.0315
1057.00,0.0320
1056.00,0.0325
1055.00,0.0333
1054.00,0.0344
1053.00,0.0359
1052.00,0.0378
1051.00,0.0405
1050.00,0.0441
1049.00,0.0487
1048.00,0.0542
1047.00,0.0598
1046.00,0.0647
1045.00,0.0679
1044.00,0.0686
1043.00,0.0672
1042.00,0.0643
1041.00,0.0608
1040.00,0.0573
1039.00,0.0542
1038.00,0.0517
1037.00,0.0496
1036.00,0.0477
1035.00,0.0460
1034.00,0.0445
1033.00,0.0431
1032.00,0.0418
1031.00,0.0407
1030.00,0.0398
1029.00,0.0390
1028.00,0.0382
1027.00,0.0376
1026.00,0.0372
1025.00,0.0370
1024.00,0.0369
1023.00,0.0372
1022.00,0.0379
1021.00,0.0391
1020.00,0.0408
1019.00,0.0431
1018.00,0.0462
1017.00,0.0499
1016.00,0.0539
1015.00,0.0576
1014.00,0.0601
1013.00,0.0607
1012.00,0.0592
1011.00,0.0559
1010.00,0.0517
1009.00,0.0474
1008.00,0.0435
1007.00,0.0405
1006.00,0.0384
1005.00,0.0372
1004.00,0.0369
1003.00,0.0373
1002.00,0.0381
1001.00,0.0385
1000.00,0.0381
999.00,0.0369
998.00,0.0353
997.00,0.0335
996.00,0.0319
995.00,0.0305
994.00,0.0294
993.00,0.0287
992.00,0.0281
991.00,0.0278
990.00,0.0277
989.00,0.0277
988.00,0.0279
987.00,0.0281
986.00,0.0286
985.00,0.0291
984.00,0.0296
983.00,0.0300
982.00,0.0304
981.00,0.0306
980.00,0.0304
979.00,0.0300
978.00,0.0293
977.00,0.0285
976.00,0.0277
975.00,0.0270
974.00,0.0266
973.00,0.0265
972.00,0.0266
971.00,0.0271
970.00,0.0278
969.00,0.0285
968.00,0.0287
967.00,0.0283
966.00,0.0273
965.00,0.0258
964.00,0.0241
963.00,0.0225
962.00,0.0211
961.00,0.0199
960.00,0.0187
959.00,0.0176
958.00,0.0165
957.00,0.0156
956.00,0.0147
955.00,0.0139
954.00,0.0134
953.00,0.0130
952.00,0.0128
951.00,0.0128
950.00,0.0131
949.00,0.0134
948.00,0.0137
947.00,0.0141
946.00,0.0146
945.00,0.0150
944.00,0.0154
943.00,0.0158
942.00,0.0162
941.00,0.0166
940.00,0.0170
939.00,0.0175
938.00,0.0180
937.00,0.0186
936.00,0.0191
935.00,0.0194
934.00,0.0197
933.00,0.0197
932.00,0.0195
931.00,0.0193
930.00,0.0191
929.00,0.0191
928.00,0.0191
927.00,0.0193
926.00,0.0197
925.00,0.0203
924.00,0.0211
923.00,0.0224
922.00,0.0242
921.00,0.0264
920.00,0.0286
919.00,0.0302
918.00,0.0307
917.00,0.0300
916.00,0.0284
915.00,0.0267
914.00,0.0252
913.00,0.0243
912.00,0.0239
911.00,0.0238
910.00,0.0241
909.00,0.0243
908.00,0.0244
907.00,0.0247
906.00,0.0252
905.00,0.0261
904.00,0.0273
903.00,0.0284
902.00,0.0291
901.00,0.0291
900.00,0.0282
899.00,0.0269
898.00,0.0257
897.00,0.0246
896.00,0.0237
895.00,0.0229
894.00,0.0224
893.00,0.0219
892.00,0.0214
891.00,0.0210
890.00,0.0207
889.00,0.0205
888.00,0.0203
887.00,0.0202
886.00,0.0202
885.00,0.0204
884.00,0.0207
883.00,0.0211
882.00,0.0215
881.00,0.0218
880.00,0.0218
879.00,0.0217
878.00,0.0215
877.00,0.0213
876.00,0.0211
875.00,0.0210
874.00,0.0211
873.00,0.0212
872.00,0.0213
871.00,0.0215
870.00,0.0218
869.00,0.0222
868.00,0.0227
867.00,0.0233
866.00,0.0244
865.00,0.0261
864.00,0.0288
863.00,0.0332
862.00,0.0391
861.00,0.0452
860.00,0.0493
859.00,0.0499
858.00,0.0473
857.00,0.0430
856.00,0.0390
855.00,0.0365
854.00,0.0355
853.00,0.0359
852.00,0.0370
851.00,0.0383
850.00,0.0394
849.00,0.0399
848.00,0.0400
847.00,0.0399
846.00,0.0400
845.00,0.0406
844.00,0.0416
843.00,0.0435
842.00,0.0463
841.00,0.0496
840.00,0.0529
839.00,0.0553
838.00,0.0561
837.00,0.0552
836.00,0.0528
835.00,0.0497
834.00,0.0464
833.00,0.0433
832.00,0.0405
831.00,0.0382
830.00,0.0364
829.00,0.0350
828.00,0.0338
827.00,0.0328
826.00,0.0320
825.00,0.0313
824.00,0.0307
823.00,0.0301
822.00,0.0297
821.00,0.0292
820.00,0.0288
819.00,0.0284
818.00,0.0282
817.00,0.0282
816.00,0.0282
815.00,0.0284
814.00,0.0287
813.00,0.0290
812.00,0.0290
811.00,0.0290
810.00,0.0289
809.00,0.0286
808.00,0.0282
807.00,0.0281
806.00,0.0282
805.00,0.0287
804.00,0.0294
803.00,0.0303
802.00,0.0315
801.00,0.0323
800.00,0.0326
799.00,0.0323
798.00,0.0318
797.00,0.0312
796.00,0.0307
795.00,0.0304
794.00,0.0303
793.00,0.0302
792.00,0.0300
791.00,0.0298
790.00,0.0298
789.00,0.0299
788.00,0.0301
787.00,0.0303
786.00,0.0308
785.00,0.0313
784.00,0.0320
783.00,0.0327
782.00,0.0335
781.00,0.0341
780.00,0.0343
779.00,0.0343
778.00,0.0341
777.00,0.0338
776.00,0.0335
775.00,0.0334
774.00,0.0334
773.00,0.0336
772.00,0.0338
771.00,0.0342
770.00,0.0349
769.00,0.0356
768.00,0.0362
767.00,0.0365
766.00,0.0366
765.00,0.0364
764.00,0.0361
763.00,0.0358
762.00,0.0358
761.00,0.0360
760.00,0.0362
759.00,0.0364
758.00,0.0368
757.00,0.0373
756.00,0.0377
755.00,0.0382
754.00,0.0388
753.00,0.0395
752.00,0.0401
751.00,0.0408
750.00,0.0417
749.00,0.0426
748.00,0.0434
747.00,0.0441
746.00,0.0447
745.00,0.0451
744.00,0.0454
743.00,0.0457
742.00,0.0461
741.00,0.0465
740.00,0.0471
739.00,0.0478
738.00,0.0486
737.00,0.0496
736.00,0.0505
735.00,0.0517
734.00,0.0533
733.00,0.0552
732.00,0.0569
731.00,0.0578
730.00,0.0575
729.00,0.0562
728.00,0.0545
727.00,0.0531
726.00,0.0519
725.00,0.0504
724.00,0.0485
723.00,0.0465
722.00,0.0447
721.00,0.0431
720.00,0.0419
719.00,0.0412
718.00,0.0408
717.00,0.0407
716.00,0.0405
715.00,0.0404
714.00,0.0404
713.00,0.0403
712.00,0.0402
711.00,0.0401
710.00,0.0403
709.00,0.0404
708.00,0.0405
707.00,0.0406
706.00,0.0407
705.00,0.0408
704.00,0.0408
703.00,0.0408
702.00,0.0410
701.00,0.0412
700.00,0.0414
699.00,0.0417
698.00,0.0422
697.00,0.0425
696.00,0.0427
695.00,0.0429
694.00,0.0432
693.00,0.0436
692.00,0.0439
691.00,0.0443
690.00,0.0447
689.00,0.0451
688.00,0.0454
687.00,0.0456
686.00,0.0460
685.00,0.0463
684.00,0.0465
683.00,0.0469
682.00,0.0473
681.00,0.0478
680.00,0.0482
679.00,0.0486
678.00,0.0490
677.00,0.0493
676.00,0.0497
675.00,0.0501
674.00,0.0506
673.00,0.0512
672.00,0.0516
671.00,0.0521
670.00,0.0528
669.00,0.0535
668.00,0.0540
667.00,0.0545
666.00,0.0550
665.00,0.0553
664.00,0.0557
663.00,0.0563
662.00,0.0572
661.00,0.0585
660.00,0.0603
659.00,0.0629
658.00,0.0661
657.00,0.0693
656.00,0.0716
655.00,0.0726
654.00,0.0726
653.00,0.0721
652.00,0.0716
651.00,0.0714
650.00,0.0715
649.00,0.0716
648.00,0.0716
647.00,0.0716
646.00,0.0718
645.00,0.0718
644.00,0.0717
643.00,0.0717
642.00,0.0717
641.00,0.0716
640.00,0.0713
639.00,0.0709
638.00,0.0706
637.00,0.0704
636.00,0.0701
635.00,0.0699
634.00,0.0697
633.00,0.0696
632.00,0.0694
631.00,0.0692
630.00,0.0691
629.00,0.0691
628.00,0.0689
627.00,0.0688
626.00,0.0688
625.00,0.0688
624.00,0.0688
623.00,0.0687
622.00,0.0686
621.00,0.0684
620.00,0.0680
619.00,0.0678
618.00,0.0676
617.00,0.0673
616.00,0.0668
615.00,0.0663
614.00,0.0660
613.00,0.0658
612.00,0.0656
611.00,0.0656
610.00,0.0659
609.00,0.0663
608.00,0.0666
607.00,0.0671
606.00,0.0677
605.00,0.0682
604.00,0.0686
603.00,0.0691
602.00,0.0699
601.00,0.0707
600.00,0.0716
599.00,0.0725
598.00,0.0737
597.00,0.0753
596.00,0.0769
595.00,0.0783
594.00,0.0795
593.00,0.0802
592.00,0.0805
591.00,0.0806
590.00,0.0806
589.00,0.0804
588.00,0.0799
587.00,0.0793
586.00,0.0788
585.00,0.0786
584.00,0.0785
583.00,0.0788
582.00,0.0795
581.00,0.0805
580.00,0.0818
579.00,0.0834
578.00,0.0853
577.00,0.0868
576.00,0.0877
575.00,0.0880
574.00,0.0882
573.00,0.0883
572.00,0.0880
571.00,0.0877
570.00,0.0874
569.00,0.0869
568.00,0.0862
567.00,0.0853
566.00,0.0845
565.00,0.0837
564.00,0.0828
563.00,0.0820
562.00,0.0815
561.00,0.0810
560.00,0.0803
559.00,0.0794
558.00,0.0786
557.00,0.0777
556.00,0.0769
555.00,0.0762
554.00,0.0757
553.00,0.0753
552.00,0.0746
551.00,0.0740
550.00,0.0737
549.00,0.0734
548.00,0.0730
547.00,0.0729
546.00,0.0730
545.00,0.0730
544.00,0.0729
543.00,0.0730
542.00,0.0737
541.00,0.0749
540.00,0.0762
539.00,0.0779
538.00,0.0801
537.00,0.0822
536.00,0.0836
535.00,0.0842
534.00,0.0843
533.00,0.0838
532.00,0.0828
531.00,0.0816
530.00,0.0804
529.00,0.0793
528.00,0.0781
527.00,0.0773
526.00,0.0769
525.00,0.0768
524.00,0.0764
523.00,0.0759
522.00,0.0755
521.00,0.0749
520.00,0.0742
519.00,0.0736
518.00,0.0733
517.00,0.0730
516.00,0.0723
515.00,0.0717
514.00,0.0714
513.00,0.0712
512.00,0.0707
511.00,0.0702
510.00,0.0699
509.00,0.0697
508.00,0.0694
507.00,0.0695
506.00,0.0698
505.00,0.0699
504.00,0.0697
503.00,0.0695
502.00,0.0698
501.00,0.0698
500.00,0.0693
499.00,0.0689
498.00,0.0690
497.00,0.0692
496.00,0.0692
495.00,0.0693
494.00,0.0698
493.00,0.0706
492.00,0.0712
491.00,0.0718
490.00,0.0727
489.00,0.0736
488.00,0.0739
487.00,0.0741
486.00,0.0742
485.00,0.0740
484.00,0.0732
483.00,0.0725
482.00,0.0722
481.00,0.0721
480.00,0.0719
479.00,0.0719
478.00,0.0722
477.00,0.0721
476.00,0.0715
475.00,0.0713
474.00,0.0717
473.00,0.0719
472.00,0.0713
471.00,0.0707
470.00,0.0708
469.00,0.0713
468.00,0.0712
467.00,0.0710
466.00,0.0710
465.00,0.0709
464.00,0.0704
463.00,0.0701
462.00,0.0704
461.00,0.0709
460.00,0.0709
459.00,0.0708
458.00,0.0715
457.00,0.0724
456.00,0.0730
455.00,0.0735
454.00,0.0742
453.00,0.0746
452.00,0.0745
451.00,0.0743
450.00,0.0745
449.00,0.0742
448.00,0.0731
447.00,0.0720
446.00,0.0715
445.00,0.0710
444.00,0.0702
443.00,0.0700
442.00,0.0712
441.00,0.0729
440.00,0.0743
439.00,0.0754
438.00,0.0767
437.00,0.0774
436.00,0.0771
435.00,0.0768
434.00,0.0771
433.00,0.0772
432.00,0.0760
431.00,0.0745
430.00,0.0737
429.00,0.0733
428.00,0.0728
427.00,0.0727
426.00,0.0731
425.00,0.0734
424.00,0.0728
423.00,0.0724
422.00,0.0725
421.00,0.0718
420.00,0.0692
419.00,0.0670
418.00,0.0672
417.00,0.0676
416.00,0.0665
415.00,0.0655
414.00,0.0662
413.00,0.0676
412.00,0.0681
411.00,0.0683
410.00,0.0691
409.00,0.0693
408.00,0.0677
407.00,0.0656
406.00,0.0646
405.00,0.0640
404.00,0.0628
403.00,0.0623
402.00,0.0640
401.00,0.0666
400.00,0.0690
