Created as New Dataset,Sample 689 By YargerLab Date Friday, June 13 2025
cm-1,A
4000.00,0.0152
3999.00,0.0152
3998.00,0.0152
3997.00,0.0152
3996.00,0.0151
3995.00,0.0151
3994.00,0.0151
3993.00,0.0151
3992.00,0.0151
3991.00,0.0151
3990.00,0.0151
3989.00,0.0151
3988.00,0.0151
3987.00,0.0151
3986.00,0.0152
3985.00,0.0152
3984.00,0.0152
3983.00,0.0152
3982.00,0.0151
3981.00,0.0151
3980.00,0.0151
3979.00,0.0151
3978.00,0.0151
3977.00,0.0151
3976.00,0.0151
3975.00,0.0151
3974.00,0.0151
3973.00,0.0151
3972.00,0.0151
3971.00,0.0151
3970.00,0.0152
3969.00,0.0152
3968.00,0.0152
3967.00,0.0152
3966.00,0.0152
3965.00,0.0152
3964.00,0.0151
3963.00,0.0151
3962.00,0.0151
3961.00,0.0151
3960.00,0.0151
3959.00,0.0151
3958.00,0.0151
3957.00,0.0151
3956.00,0.0151
3955.00,0.0151
3954.00,0.0151
3953.00,0.0151
3952.00,0.0151
3951.00,0.0152
3950.00,0.0152
3949.00,0.0152
3948.00,0.0151
3947.00,0.0151
3946.00,0.0151
3945.00,0.0151
3944.00,0.0150
3943.00,0.0150
3942.00,0.0150
3941.00,0.0150
3940.00,0.0150
3939.00,0.0150
3938.00,0.0150
3937.00,0.0150
3936.00,0.0150
3935.00,0.0150
3934.00,0.0150
3933.00,0.0150
3932.00,0.0150
3931.00,0.0150
3930.00,0.0150
3929.00,0.0150
3928.00,0.0150
3927.00,0.0150
3926.00,0.0150
3925.00,0.0150
3924.00,0.0150
3923.00,0.0151
3922.00,0.0151
3921.00,0.0151
3920.00,0.0151
3919.00,0.0151
3918.00,0.0150
3917.00,0.0150
3916.00,0.0149
3915.00,0.0149
3914.00,0.0149
3913.00,0.0148
3912.00,0.0148
3911.00,0.0148
3910.00,0.0149
3909.00,0.0150
3908.00,0.0150
3907.00,0.0151
3906.00,0.0151
3905.00,0.0151
3904.00,0.0151
3903.00,0.0151
3902.00,0.0151
3901.00,0.0151
3900.00,0.0150
3899.00,0.0149
3898.00,0.0149
3897.00,0.0149
3896.00,0.0149
3895.00,0.0150
3894.00,0.0150
3893.00,0.0149
3892.00,0.0149
3891.00,0.0149
3890.00,0.0149
3889.00,0.0150
3888.00,0.0150
3887.00,0.0149
3886.00,0.0149
3885.00,0.0150
3884.00,0.0150
3883.00,0.0150
3882.00,0.0149
3881.00,0.0148
3880.00,0.0148
3879.00,0.0148
3878.00,0.0149
3877.00,0.0149
3876.00,0.0148
3875.00,0.0148
3874.00,0.0149
3873.00,0.0150
3872.00,0.0150
3871.00,0.0150
3870.00,0.0149
3869.00,0.0149
3868.00,0.0149
3867.00,0.0149
3866.00,0.0149
3865.00,0.0148
3864.00,0.0148
3863.00,0.0148
3862.00,0.0148
3861.00,0.0148
3860.00,0.0148
3859.00,0.0148
3858.00,0.0149
3857.00,0.0150
3856.00,0.0151
3855.00,0.0151
3854.00,0.0150
3853.00,0.0150
3852.00,0.0151
3851.00,0.0150
3850.00,0.0149
3849.00,0.0147
3848.00,0.0146
3847.00,0.0146
3846.00,0.0146
3845.00,0.0146
3844.00,0.0147
3843.00,0.0148
3842.00,0.0149
3841.00,0.0149
3840.00,0.0149
3839.00,0.0149
3838.00,0.0149
3837.00,0.0148
3836.00,0.0148
3835.00,0.0148
3834.00,0.0147
3833.00,0.0146
3832.00,0.0146
3831.00,0.0145
3830.00,0.0146
3829.00,0.0146
3828.00,0.0145
3827.00,0.0145
3826.00,0.0146
3825.00,0.0147
3824.00,0.0147
3823.00,0.0147
3822.00,0.0147
3821.00,0.0147
3820.00,0.0148
3819.00,0.0149
3818.00,0.0148
3817.00,0.0146
3816.00,0.0144
3815.00,0.0144
3814.00,0.0144
3813.00,0.0144
3812.00,0.0143
3811.00,0.0143
3810.00,0.0144
3809.00,0.0144
3808.00,0.0144
3807.00,0.0144
3806.00,0.0145
3805.00,0.0146
3804.00,0.0146
3803.00,0.0145
3802.00,0.0144
3801.00,0.0144
3800.00,0.0145
3799.00,0.0145
3798.00,0.0144
3797.00,0.0143
3796.00,0.0143
3795.00,0.0142
3794.00,0.0142
3793.00,0.0142
3792.00,0.0141
3791.00,0.0141
3790.00,0.0141
3789.00,0.0141
3788.00,0.0142
3787.00,0.0141
3786.00,0.0141
3785.00,0.0141
3784.00,0.0141
3783.00,0.0141
3782.00,0.0142
3781.00,0.0141
3780.00,0.0141
3779.00,0.0141
3778.00,0.0141
3777.00,0.0141
3776.00,0.0141
3775.00,0.0141
3774.00,0.0141
3773.00,0.0141
3772.00,0.0141
3771.00,0.0142
3770.00,0.0142
3769.00,0.0142
3768.00,0.0143
3767.00,0.0142
3766.00,0.0141
3765.00,0.0141
3764.00,0.0141
3763.00,0.0141
3762.00,0.0141
3761.00,0.0141
3760.00,0.0141
3759.00,0.0141
3758.00,0.0142
3757.00,0.0142
3756.00,0.0143
3755.00,0.0143
3754.00,0.0144
3753.00,0.0145
3752.00,0.0145
3751.00,0.0145
3750.00,0.0145
3749.00,0.0145
3748.00,0.0146
3747.00,0.0146
3746.00,0.0144
3745.00,0.0142
3744.00,0.0142
3743.00,0.0142
3742.00,0.0143
3741.00,0.0142
3740.00,0.0141
3739.00,0.0141
3738.00,0.0141
3737.00,0.0141
3736.00,0.0141
3735.00,0.0141
3734.00,0.0141
3733.00,0.0140
3732.00,0.0139
3731.00,0.0138
3730.00,0.0138
3729.00,0.0138
3728.00,0.0137
3727.00,0.0137
3726.00,0.0137
3725.00,0.0137
3724.00,0.0137
3723.00,0.0137
3722.00,0.0136
3721.00,0.0136
3720.00,0.0136
3719.00,0.0136
3718.00,0.0135
3717.00,0.0136
3716.00,0.0136
3715.00,0.0136
3714.00,0.0137
3713.00,0.0136
3712.00,0.0136
3711.00,0.0136
3710.00,0.0136
3709.00,0.0136
3708.00,0.0135
3707.00,0.0135
3706.00,0.0134
3705.00,0.0134
3704.00,0.0134
3703.00,0.0133
3702.00,0.0133
3701.00,0.0133
3700.00,0.0133
3699.00,0.0133
3698.00,0.0133
3697.00,0.0132
3696.00,0.0132
3695.00,0.0133
3694.00,0.0133
3693.00,0.0134
3692.00,0.0134
3691.00,0.0134
3690.00,0.0134
3689.00,0.0134
3688.00,0.0133
3687.00,0.0133
3686.00,0.0132
3685.00,0.0131
3684.00,0.0130
3683.00,0.0130
3682.00,0.0130
3681.00,0.0130
3680.00,0.0131
3679.00,0.0132
3678.00,0.0132
3677.00,0.0132
3676.00,0.0131
3675.00,0.0131
3674.00,0.0132
3673.00,0.0132
3672.00,0.0131
3671.00,0.0129
3670.00,0.0128
3669.00,0.0128
3668.00,0.0128
3667.00,0.0127
3666.00,0.0126
3665.00,0.0125
3664.00,0.0125
3663.00,0.0124
3662.00,0.0124
3661.00,0.0125
3660.00,0.0125
3659.00,0.0125
3658.00,0.0125
3657.00,0.0125
3656.00,0.0126
3655.00,0.0126
3654.00,0.0128
3653.00,0.0128
3652.00,0.0129
3651.00,0.0129
3650.00,0.0129
3649.00,0.0128
3648.00,0.0128
3647.00,0.0127
3646.00,0.0126
3645.00,0.0125
3644.00,0.0125
3643.00,0.0124
3642.00,0.0124
3641.00,0.0124
3640.00,0.0124
3639.00,0.0124
3638.00,0.0124
3637.00,0.0124
3636.00,0.0124
3635.00,0.0125
3634.00,0.0126
3633.00,0.0127
3632.00,0.0128
3631.00,0.0128
3630.00,0.0128
3629.00,0.0127
3628.00,0.0127
3627.00,0.0127
3626.00,0.0127
3625.00,0.0126
3624.00,0.0126
3623.00,0.0126
3622.00,0.0127
3621.00,0.0127
3620.00,0.0127
3619.00,0.0127
3618.00,0.0127
3617.00,0.0127
3616.00,0.0127
3615.00,0.0127
3614.00,0.0127
3613.00,0.0127
3612.00,0.0127
3611.00,0.0127
3610.00,0.0126
3609.00,0.0126
3608.00,0.0125
3607.00,0.0125
3606.00,0.0125
3605.00,0.0125
3604.00,0.0124
3603.00,0.0124
3602.00,0.0124
3601.00,0.0124
3600.00,0.0124
3599.00,0.0124
3598.00,0.0124
3597.00,0.0124
3596.00,0.0124
3595.00,0.0124
3594.00,0.0124
3593.00,0.0124
3592.00,0.0124
3591.00,0.0125
3590.00,0.0125
3589.00,0.0125
3588.00,0.0124
3587.00,0.0124
3586.00,0.0124
3585.00,0.0123
3584.00,0.0123
3583.00,0.0122
3582.00,0.0122
3581.00,0.0122
3580.00,0.0122
3579.00,0.0121
3578.00,0.0121
3577.00,0.0121
3576.00,0.0121
3575.00,0.0121
3574.00,0.0121
3573.00,0.0121
3572.00,0.0121
3571.00,0.0122
3570.00,0.0122
3569.00,0.0122
3568.00,0.0122
3567.00,0.0122
3566.00,0.0122
3565.00,0.0122
3564.00,0.0121
3563.00,0.0121
3562.00,0.0121
3561.00,0.0121
3560.00,0.0121
3559.00,0.0121
3558.00,0.0121
3557.00,0.0121
3556.00,0.0121
3555.00,0.0120
3554.00,0.0120
3553.00,0.0120
3552.00,0.0120
3551.00,0.0120
3550.00,0.0120
3549.00,0.0121
3548.00,0.0121
3547.00,0.0121
3546.00,0.0121
3545.00,0.0120
3544.00,0.0120
3543.00,0.0119
3542.00,0.0119
3541.00,0.0119
3540.00,0.0119
3539.00,0.0119
3538.00,0.0119
3537.00,0.0119
3536.00,0.0119
3535.00,0.0119
3534.00,0.0119
3533.00,0.0119
3532.00,0.0118
3531.00,0.0118
3530.00,0.0118
3529.00,0.0119
3528.00,0.0119
3527.00,0.0119
3526.00,0.0119
3525.00,0.0118
3524.00,0.0118
3523.00,0.0118
3522.00,0.0118
3521.00,0.0118
3520.00,0.0118
3519.00,0.0118
3518.00,0.0118
3517.00,0.0118
3516.00,0.0118
3515.00,0.0118
3514.00,0.0117
3513.00,0.0117
3512.00,0.0118
3511.00,0.0118
3510.00,0.0118
3509.00,0.0118
3508.00,0.0117
3507.00,0.0117
3506.00,0.0117
3505.00,0.0118
3504.00,0.0118
3503.00,0.0118
3502.00,0.0118
3501.00,0.0118
3500.00,0.0117
3499.00,0.0117
3498.00,0.0117
3497.00,0.0117
3496.00,0.0117
3495.00,0.0116
3494.00,0.0116
3493.00,0.0116
3492.00,0.0116
3491.00,0.0116
3490.00,0.0116
3489.00,0.0116
3488.00,0.0116
3487.00,0.0116
3486.00,0.0116
3485.00,0.0116
3484.00,0.0116
3483.00,0.0116
3482.00,0.0116
3481.00,0.0116
3480.00,0.0116
3479.00,0.0116
3478.00,0.0116
3477.00,0.0116
3476.00,0.0116
3475.00,0.0115
3474.00,0.0115
3473.00,0.0115
3472.00,0.0115
3471.00,0.0115
3470.00,0.0114
3469.00,0.0114
3468.00,0.0114
3467.00,0.0114
3466.00,0.0114
3465.00,0.0114
3464.00,0.0114
3463.00,0.0114
3462.00,0.0114
3461.00,0.0114
3460.00,0.0114
3459.00,0.0114
3458.00,0.0114
3457.00,0.0114
3456.00,0.0114
3455.00,0.0114
3454.00,0.0114
3453.00,0.0114
3452.00,0.0114
3451.00,0.0114
3450.00,0.0114
3449.00,0.0114
3448.00,0.0114
3447.00,0.0114
3446.00,0.0114
3445.00,0.0114
3444.00,0.0114
3443.00,0.0114
3442.00,0.0114
3441.00,0.0114
3440.00,0.0114
3439.00,0.0114
3438.00,0.0113
3437.00,0.0113
3436.00,0.0113
3435.00,0.0113
3434.00,0.0113
3433.00,0.0113
3432.00,0.0114
3431.00,0.0114
3430.00,0.0114
3429.00,0.0114
3428.00,0.0114
3427.00,0.0114
3426.00,0.0115
3425.00,0.0115
3424.00,0.0115
3423.00,0.0115
3422.00,0.0115
3421.00,0.0115
3420.00,0.0114
3419.00,0.0114
3418.00,0.0114
3417.00,0.0114
3416.00,0.0114
3415.00,0.0114
3414.00,0.0114
3413.00,0.0115
3412.00,0.0115
3411.00,0.0115
3410.00,0.0115
3409.00,0.0115
3408.00,0.0116
3407.00,0.0116
3406.00,0.0116
3405.00,0.0116
3404.00,0.0116
3403.00,0.0116
3402.00,0.0115
3401.00,0.0115
3400.00,0.0115
3399.00,0.0116
3398.00,0.0117
3397.00,0.0118
3396.00,0.0118
3395.00,0.0118
3394.00,0.0118
3393.00,0.0117
3392.00,0.0117
3391.00,0.0117
3390.00,0.0118
3389.00,0.0119
3388.00,0.0119
3387.00,0.0120
3386.00,0.0120
3385.00,0.0120
3384.00,0.0120
3383.00,0.0121
3382.00,0.0121
3381.00,0.0121
3380.00,0.0121
3379.00,0.0121
3378.00,0.0121
3377.00,0.0121
3376.00,0.0121
3375.00,0.0121
3374.00,0.0121
3373.00,0.0121
3372.00,0.0120
3371.00,0.0119
3370.00,0.0119
3369.00,0.0119
3368.00,0.0120
3367.00,0.0120
3366.00,0.0121
3365.00,0.0122
3364.00,0.0123
3363.00,0.0123
3362.00,0.0124
3361.00,0.0124
3360.00,0.0124
3359.00,0.0125
3358.00,0.0126
3357.00,0.0126
3356.00,0.0127
3355.00,0.0127
3354.00,0.0127
3353.00,0.0127
3352.00,0.0126
3351.00,0.0126
3350.00,0.0127
3349.00,0.0127
3348.00,0.0128
3347.00,0.0129
3346.00,0.0130
3345.00,0.0130
3344.00,0.0131
3343.00,0.0131
3342.00,0.0131
3341.00,0.0132
3340.00,0.0132
3339.00,0.0132
3338.00,0.0133
3337.00,0.0134
3336.00,0.0135
3335.00,0.0135
3334.00,0.0136
3333.00,0.0136
3332.00,0.0136
3331.00,0.0136
3330.00,0.0136
3329.00,0.0136
3328.00,0.0136
3327.00,0.0136
3326.00,0.0136
3325.00,0.0136
3324.00,0.0136
3323.00,0.0137
3322.00,0.0137
3321.00,0.0138
3320.00,0.0138
3319.00,0.0139
3318.00,0.0139
3317.00,0.0140
3316.00,0.0140
3315.00,0.0141
3314.00,0.0142
3313.00,0.0142
3312.00,0.0143
3311.00,0.0143
3310.00,0.0143
3309.00,0.0143
3308.00,0.0143
3307.00,0.0144
3306.00,0.0144
3305.00,0.0145
3304.00,0.0146
3303.00,0.0147
3302.00,0.0148
3301.00,0.0149
3300.00,0.0150
3299.00,0.0150
3298.00,0.0151
3297.00,0.0151
3296.00,0.0152
3295.00,0.0153
3294.00,0.0153
3293.00,0.0154
3292.00,0.0155
3291.00,0.0157
3290.00,0.0158
3289.00,0.0159
3288.00,0.0160
3287.00,0.0161
3286.00,0.0161
3285.00,0.0162
3284.00,0.0163
3283.00,0.0164
3282.00,0.0165
3281.00,0.0166
3280.00,0.0167
3279.00,0.0168
3278.00,0.0169
3277.00,0.0170
3276.00,0.0170
3275.00,0.0171
3274.00,0.0172
3273.00,0.0172
3272.00,0.0172
3271.00,0.0173
3270.00,0.0174
3269.00,0.0175
3268.00,0.0177
3267.00,0.0178
3266.00,0.0179
3265.00,0.0181
3264.00,0.0181
3263.00,0.0182
3262.00,0.0183
3261.00,0.0183
3260.00,0.0184
3259.00,0.0184
3258.00,0.0185
3257.00,0.0185
3256.00,0.0186
3255.00,0.0187
3254.00,0.0188
3253.00,0.0189
3252.00,0.0190
3251.00,0.0190
3250.00,0.0191
3249.00,0.0191
3248.00,0.0191
3247.00,0.0192
3246.00,0.0193
3245.00,0.0194
3244.00,0.0196
3243.00,0.0197
3242.00,0.0198
3241.00,0.0199
3240.00,0.0200
3239.00,0.0201
3238.00,0.0201
3237.00,0.0201
3236.00,0.0202
3235.00,0.0202
3234.00,0.0203
3233.00,0.0204
3232.00,0.0205
3231.00,0.0207
3230.00,0.0208
3229.00,0.0209
3228.00,0.0211
3227.00,0.0212
3226.00,0.0213
3225.00,0.0214
3224.00,0.0215
3223.00,0.0215
3222.00,0.0216
3221.00,0.0218
3220.00,0.0219
3219.00,0.0220
3218.00,0.0221
3217.00,0.0222
3216.00,0.0223
3215.00,0.0224
3214.00,0.0226
3213.00,0.0228
3212.00,0.0229
3211.00,0.0230
3210.00,0.0231
3209.00,0.0232
3208.00,0.0233
3207.00,0.0234
3206.00,0.0235
3205.00,0.0236
3204.00,0.0237
3203.00,0.0238
3202.00,0.0239
3201.00,0.0240
3200.00,0.0241
3199.00,0.0242
3198.00,0.0242
3197.00,0.0243
3196.00,0.0244
3195.00,0.0245
3194.00,0.0246
3193.00,0.0247
3192.00,0.0248
3191.00,0.0249
3190.00,0.0250
3189.00,0.0251
3188.00,0.0252
3187.00,0.0253
3186.00,0.0254
3185.00,0.0255
3184.00,0.0256
3183.00,0.0257
3182.00,0.0258
3181.00,0.0258
3180.00,0.0259
3179.00,0.0260
3178.00,0.0261
3177.00,0.0262
3176.00,0.0263
3175.00,0.0265
3174.00,0.0265
3173.00,0.0266
3172.00,0.0267
3171.00,0.0268
3170.00,0.0269
3169.00,0.0270
3168.00,0.0272
3167.00,0.0272
3166.00,0.0273
3165.00,0.0274
3164.00,0.0275
3163.00,0.0276
3162.00,0.0277
3161.00,0.0278
3160.00,0.0280
3159.00,0.0281
3158.00,0.0282
3157.00,0.0283
3156.00,0.0284
3155.00,0.0285
3154.00,0.0286
3153.00,0.0287
3152.00,0.0289
3151.00,0.0290
3150.00,0.0292
3149.00,0.0294
3148.00,0.0295
3147.00,0.0296
3146.00,0.0298
3145.00,0.0299
3144.00,0.0300
3143.00,0.0302
3142.00,0.0303
3141.00,0.0304
3140.00,0.0306
3139.00,0.0307
3138.00,0.0308
3137.00,0.0310
3136.00,0.0312
3135.00,0.0313
3134.00,0.0314
3133.00,0.0316
3132.00,0.0317
3131.00,0.0319
3130.00,0.0320
3129.00,0.0322
3128.00,0.0324
3127.00,0.0325
3126.00,0.0327
3125.00,0.0328
3124.00,0.0329
3123.00,0.0331
3122.00,0.0332
3121.00,0.0333
3120.00,0.0335
3119.00,0.0337
3118.00,0.0338
3117.00,0.0340
3116.00,0.0342
3115.00,0.0344
3114.00,0.0346
3113.00,0.0348
3112.00,0.0349
3111.00,0.0351
3110.00,0.0353
3109.00,0.0355
3108.00,0.0357
3107.00,0.0359
3106.00,0.0361
3105.00,0.0363
3104.00,0.0365
3103.00,0.0368
3102.00,0.0369
3101.00,0.0371
3100.00,0.0373
3099.00,0.0375
3098.00,0.0377
3097.00,0.0380
3096.00,0.0382
3095.00,0.0384
3094.00,0.0386
3093.00,0.0388
3092.00,0.0391
3091.00,0.0393
3090.00,0.0395
3089.00,0.0397
3088.00,0.0399
3087.00,0.0402
3086.00,0.0404
3085.00,0.0406
3084.00,0.0409
3083.00,0.0412
3082.00,0.0414
3081.00,0.0417
3080.00,0.0419
3079.00,0.0422
3078.00,0.0425
3077.00,0.0427
3076.00,0.0430
3075.00,0.0433
3074.00,0.0435
3073.00,0.0438
3072.00,0.0440
3071.00,0.0442
3070.00,0.0444
3069.00,0.0446
3068.00,0.0448
3067.00,0.0450
3066.00,0.0452
3065.00,0.0453
3064.00,0.0455
3063.00,0.0457
3062.00,0.0458
3061.00,0.0460
3060.00,0.0462
3059.00,0.0463
3058.00,0.0465
3057.00,0.0466
3056.00,0.0468
3055.00,0.0470
3054.00,0.0471
3053.00,0.0473
3052.00,0.0474
3051.00,0.0475
3050.00,0.0477
3049.00,0.0478
3048.00,0.0479
3047.00,0.0479
3046.00,0.0480
3045.00,0.0481
3044.00,0.0481
3043.00,0.0481
3042.00,0.0481
3041.00,0.0482
3040.00,0.0482
3039.00,0.0483
3038.00,0.0484
3037.00,0.0486
3036.00,0.0489
3035.00,0.0492
3034.00,0.0497
3033.00,0.0503
3032.00,0.0511
3031.00,0.0521
3030.00,0.0532
3029.00,0.0544
3028.00,0.0556
3027.00,0.0567
3026.00,0.0575
3025.00,0.0581
3024.00,0.0584
3023.00,0.0586
3022.00,0.0587
3021.00,0.0587
3020.00,0.0587
3019.00,0.0586
3018.00,0.0582
3017.00,0.0577
3016.00,0.0570
3015.00,0.0562
3014.00,0.0555
3013.00,0.0549
3012.00,0.0544
3011.00,0.0540
3010.00,0.0537
3009.00,0.0535
3008.00,0.0534
3007.00,0.0533
3006.00,0.0532
3005.00,0.0532
3004.00,0.0531
3003.00,0.0531
3002.00,0.0531
3001.00,0.0531
3000.00,0.0531
2999.00,0.0532
2998.00,0.0532
2997.00,0.0533
2996.00,0.0534
2995.00,0.0534
2994.00,0.0535
2993.00,0.0535
2992.00,0.0536
2991.00,0.0536
2990.00,0.0537
2989.00,0.0538
2988.00,0.0539
2987.00,0.0540
2986.00,0.0540
2985.00,0.0539
2984.00,0.0538
2983.00,0.0537
2982.00,0.0538
2981.00,0.0540
2980.00,0.0545
2979.00,0.0552
2978.00,0.0559
2977.00,0.0567
2976.00,0.0576
2975.00,0.0584
2974.00,0.0592
2973.00,0.0600
2972.00,0.0607
2971.00,0.0614
2970.00,0.0618
2969.00,0.0621
2968.00,0.0621
2967.00,0.0619
2966.00,0.0615
2965.00,0.0611
2964.00,0.0608
2963.00,0.0605
2962.00,0.0602
2961.00,0.0601
2960.00,0.0600
2959.00,0.0600
2958.00,0.0601
2957.00,0.0603
2956.00,0.0605
2955.00,0.0606
2954.00,0.0607
2953.00,0.0606
2952.00,0.0604
2951.00,0.0601
2950.00,0.0597
2949.00,0.0592
2948.00,0.0587
2947.00,0.0582
2946.00,0.0578
2945.00,0.0575
2944.00,0.0572
2943.00,0.0570
2942.00,0.0568
2941.00,0.0566
2940.00,0.0565
2939.00,0.0564
2938.00,0.0564
2937.00,0.0564
2936.00,0.0564
2935.00,0.0565
2934.00,0.0565
2933.00,0.0566
2932.00,0.0567
2931.00,0.0568
2930.00,0.0570
2929.00,0.0572
2928.00,0.0574
2927.00,0.0576
2926.00,0.0580
2925.00,0.0583
2924.00,0.0587
2923.00,0.0591
2922.00,0.0594
2921.00,0.0595
2920.00,0.0596
2919.00,0.0596
2918.00,0.0595
2917.00,0.0594
2916.00,0.0593
2915.00,0.0592
2914.00,0.0591
2913.00,0.0590
2912.00,0.0590
2911.00,0.0591
2910.00,0.0592
2909.00,0.0593
2908.00,0.0595
2907.00,0.0596
2906.00,0.0598
2905.00,0.0600
2904.00,0.0601
2903.00,0.0602
2902.00,0.0604
2901.00,0.0605
2900.00,0.0607
2899.00,0.0608
2898.00,0.0609
2897.00,0.0610
2896.00,0.0610
2895.00,0.0611
2894.00,0.0611
2893.00,0.0611
2892.00,0.0610
2891.00,0.0610
2890.00,0.0610
2889.00,0.0609
2888.00,0.0609
2887.00,0.0608
2886.00,0.0608
2885.00,0.0608
2884.00,0.0608
2883.00,0.0608
2882.00,0.0609
2881.00,0.0609
2880.00,0.0610
2879.00,0.0610
2878.00,0.0610
2877.00,0.0610
2876.00,0.0609
2875.00,0.0609
2874.00,0.0608
2873.00,0.0606
2872.00,0.0605
2871.00,0.0603
2870.00,0.0602
2869.00,0.0600
2868.00,0.0599
2867.00,0.0597
2866.00,0.0596
2865.00,0.0594
2864.00,0.0593
2863.00,0.0592
2862.00,0.0591
2861.00,0.0590
2860.00,0.0590
2859.00,0.0590
2858.00,0.0591
2857.00,0.0591
2856.00,0.0593
2855.00,0.0594
2854.00,0.0596
2853.00,0.0598
2852.00,0.0600
2851.00,0.0603
2850.00,0.0605
2849.00,0.0608
2848.00,0.0612
2847.00,0.0615
2846.00,0.0619
2845.00,0.0623
2844.00,0.0627
2843.00,0.0631
2842.00,0.0635
2841.00,0.0639
2840.00,0.0642
2839.00,0.0646
2838.00,0.0649
2837.00,0.0652
2836.00,0.0654
2835.00,0.0657
2834.00,0.0659
2833.00,0.0661
2832.00,0.0662
2831.00,0.0664
2830.00,0.0665
2829.00,0.0665
2828.00,0.0666
2827.00,0.0666
2826.00,0.0667
2825.00,0.0667
2824.00,0.0667
2823.00,0.0667
2822.00,0.0666
2821.00,0.0666
2820.00,0.0665
2819.00,0.0665
2818.00,0.0664
2817.00,0.0663
2816.00,0.0662
2815.00,0.0660
2814.00,0.0659
2813.00,0.0657
2812.00,0.0655
2811.00,0.0654
2810.00,0.0652
2809.00,0.0650
2808.00,0.0648
2807.00,0.0646
2806.00,0.0644
2805.00,0.0641
2804.00,0.0639
2803.00,0.0637
2802.00,0.0635
2801.00,0.0633
2800.00,0.0631
2799.00,0.0628
2798.00,0.0626
2797.00,0.0623
2796.00,0.0620
2795.00,0.0617
2794.00,0.0615
2793.00,0.0612
2792.00,0.0609
2791.00,0.0606
2790.00,0.0603
2789.00,0.0600
2788.00,0.0597
2787.00,0.0594
2786.00,0.0591
2785.00,0.0588
2784.00,0.0585
2783.00,0.0582
2782.00,0.0580
2781.00,0.0578
2780.00,0.0576
2779.00,0.0574
2778.00,0.0573
2777.00,0.0572
2776.00,0.0572
2775.00,0.0572
2774.00,0.0572
2773.00,0.0572
2772.00,0.0572
2771.00,0.0573
2770.00,0.0574
2769.00,0.0575
2768.00,0.0576
2767.00,0.0577
2766.00,0.0579
2765.00,0.0580
2764.00,0.0580
2763.00,0.0581
2762.00,0.0581
2761.00,0.0582
2760.00,0.0582
2759.00,0.0583
2758.00,0.0583
2757.00,0.0583
2756.00,0.0583
2755.00,0.0582
2754.00,0.0582
2753.00,0.0581
2752.00,0.0580
2751.00,0.0579
2750.00,0.0579
2749.00,0.0578
2748.00,0.0577
2747.00,0.0577
2746.00,0.0577
2745.00,0.0577
2744.00,0.0578
2743.00,0.0579
2742.00,0.0581
2741.00,0.0582
2740.00,0.0585
2739.00,0.0587
2738.00,0.0589
2737.00,0.0592
2736.00,0.0594
2735.00,0.0595
2734.00,0.0597
2733.00,0.0598
2732.00,0.0598
2731.00,0.0598
2730.00,0.0597
2729.00,0.0596
2728.00,0.0595
2727.00,0.0593
2726.00,0.0591
2725.00,0.0589
2724.00,0.0587
2723.00,0.0584
2722.00,0.0582
2721.00,0.0580
2720.00,0.0578
2719.00,0.0576
2718.00,0.0574
2717.00,0.0573
2716.00,0.0572
2715.00,0.0571
2714.00,0.0571
2713.00,0.0570
2712.00,0.0571
2711.00,0.0571
2710.00,0.0572
2709.00,0.0574
2708.00,0.0575
2707.00,0.0577
2706.00,0.0579
2705.00,0.0582
2704.00,0.0584
2703.00,0.0586
2702.00,0.0588
2701.00,0.0590
2700.00,0.0592
2699.00,0.0594
2698.00,0.0597
2697.00,0.0599
2696.00,0.0600
2695.00,0.0602
2694.00,0.0604
2693.00,0.0606
2692.00,0.0607
2691.00,0.0608
2690.00,0.0610
2689.00,0.0610
2688.00,0.0611
2687.00,0.0611
2686.00,0.0611
2685.00,0.0611
2684.00,0.0610
2683.00,0.0610
2682.00,0.0609
2681.00,0.0609
2680.00,0.0608
2679.00,0.0608
2678.00,0.0608
2677.00,0.0608
2676.00,0.0608
2675.00,0.0609
2674.00,0.0609
2673.00,0.0610
2672.00,0.0611
2671.00,0.0613
2670.00,0.0614
2669.00,0.0615
2668.00,0.0617
2667.00,0.0619
2666.00,0.0621
2665.00,0.0623
2664.00,0.0625
2663.00,0.0627
2662.00,0.0628
2661.00,0.0629
2660.00,0.0631
2659.00,0.0633
2658.00,0.0634
2657.00,0.0636
2656.00,0.0638
2655.00,0.0641
2654.00,0.0644
2653.00,0.0647
2652.00,0.0650
2651.00,0.0653
2650.00,0.0657
2649.00,0.0659
2648.00,0.0662
2647.00,0.0664
2646.00,0.0665
2645.00,0.0666
2644.00,0.0666
2643.00,0.0666
2642.00,0.0666
2641.00,0.0666
2640.00,0.0665
2639.00,0.0664
2638.00,0.0662
2637.00,0.0661
2636.00,0.0659
2635.00,0.0657
2634.00,0.0655
2633.00,0.0654
2632.00,0.0652
2631.00,0.0650
2630.00,0.0648
2629.00,0.0647
2628.00,0.0646
2627.00,0.0646
2626.00,0.0646
2625.00,0.0646
2624.00,0.0647
2623.00,0.0649
2622.00,0.0650
2621.00,0.0651
2620.00,0.0651
2619.00,0.0651
2618.00,0.0651
2617.00,0.0651
2616.00,0.0651
2615.00,0.0650
2614.00,0.0650
2613.00,0.0650
2612.00,0.0650
2611.00,0.0650
2610.00,0.0650
2609.00,0.0649
2608.00,0.0648
2607.00,0.0648
2606.00,0.0647
2605.00,0.0646
2604.00,0.0644
2603.00,0.0643
2602.00,0.0642
2601.00,0.0640
2600.00,0.0639
2599.00,0.0638
2598.00,0.0637
2597.00,0.0635
2596.00,0.0634
2595.00,0.0633
2594.00,0.0633
2593.00,0.0633
2592.00,0.0634
2591.00,0.0634
2590.00,0.0635
2589.00,0.0637
2588.00,0.0639
2587.00,0.0642
2586.00,0.0646
2585.00,0.0650
2584.00,0.0654
2583.00,0.0660
2582.00,0.0665
2581.00,0.0670
2580.00,0.0674
2579.00,0.0678
2578.00,0.0680
2577.00,0.0682
2576.00,0.0683
2575.00,0.0683
2574.00,0.0683
2573.00,0.0683
2572.00,0.0682
2571.00,0.0682
2570.00,0.0682
2569.00,0.0681
2568.00,0.0681
2567.00,0.0681
2566.00,0.0682
2565.00,0.0682
2564.00,0.0683
2563.00,0.0683
2562.00,0.0684
2561.00,0.0684
2560.00,0.0685
2559.00,0.0685
2558.00,0.0686
2557.00,0.0686
2556.00,0.0686
2555.00,0.0687
2554.00,0.0687
2553.00,0.0687
2552.00,0.0687
2551.00,0.0687
2550.00,0.0686
2549.00,0.0685
2548.00,0.0684
2547.00,0.0683
2546.00,0.0681
2545.00,0.0679
2544.00,0.0677
2543.00,0.0674
2542.00,0.0672
2541.00,0.0670
2540.00,0.0667
2539.00,0.0665
2538.00,0.0663
2537.00,0.0661
2536.00,0.0660
2535.00,0.0658
2534.00,0.0657
2533.00,0.0656
2532.00,0.0655
2531.00,0.0654
2530.00,0.0654
2529.00,0.0654
2528.00,0.0655
2527.00,0.0656
2526.00,0.0657
2525.00,0.0658
2524.00,0.0659
2523.00,0.0661
2522.00,0.0663
2521.00,0.0665
2520.00,0.0667
2519.00,0.0669
2518.00,0.0669
2517.00,0.0670
2516.00,0.0669
2515.00,0.0668
2514.00,0.0666
2513.00,0.0664
2512.00,0.0662
2511.00,0.0659
2510.00,0.0656
2509.00,0.0653
2508.00,0.0650
2507.00,0.0648
2506.00,0.0646
2505.00,0.0643
2504.00,0.0641
2503.00,0.0639
2502.00,0.0637
2501.00,0.0636
2500.00,0.0634
2499.00,0.0633
2498.00,0.0632
2497.00,0.0631
2496.00,0.0630
2495.00,0.0629
2494.00,0.0627
2493.00,0.0626
2492.00,0.0625
2491.00,0.0623
2490.00,0.0622
2489.00,0.0621
2488.00,0.0620
2487.00,0.0619
2486.00,0.0619
2485.00,0.0618
2484.00,0.0618
2483.00,0.0618
2482.00,0.0618
2481.00,0.0617
2480.00,0.0617
2479.00,0.0617
2478.00,0.0616
2477.00,0.0615
2476.00,0.0614
2475.00,0.0612
2474.00,0.0610
2473.00,0.0608
2472.00,0.0607
2471.00,0.0605
2470.00,0.0603
2469.00,0.0601
2468.00,0.0599
2467.00,0.0598
2466.00,0.0597
2465.00,0.0596
2464.00,0.0596
2463.00,0.0595
2462.00,0.0594
2461.00,0.0594
2460.00,0.0593
2459.00,0.0593
2458.00,0.0592
2457.00,0.0591
2456.00,0.0591
2455.00,0.0590
2454.00,0.0589
2453.00,0.0588
2452.00,0.0587
2451.00,0.0586
2450.00,0.0586
2449.00,0.0585
2448.00,0.0585
2447.00,0.0584
2446.00,0.0583
2445.00,0.0581
2444.00,0.0579
2443.00,0.0577
2442.00,0.0575
2441.00,0.0573
2440.00,0.0571
2439.00,0.0570
2438.00,0.0568
2437.00,0.0566
2436.00,0.0564
2435.00,0.0563
2434.00,0.0561
2433.00,0.0559
2432.00,0.0557
2431.00,0.0556
2430.00,0.0554
2429.00,0.0553
2428.00,0.0553
2427.00,0.0552
2426.00,0.0551
2425.00,0.0550
2424.00,0.0549
2423.00,0.0549
2422.00,0.0548
2421.00,0.0547
2420.00,0.0547
2419.00,0.0548
2418.00,0.0548
2417.00,0.0549
2416.00,0.0549
2415.00,0.0550
2414.00,0.0550
2413.00,0.0550
2412.00,0.0549
2411.00,0.0548
2410.00,0.0547
2409.00,0.0545
2408.00,0.0544
2407.00,0.0542
2406.00,0.0540
2405.00,0.0539
2404.00,0.0537
2403.00,0.0536
2402.00,0.0534
2401.00,0.0533
2400.00,0.0531
2399.00,0.0530
2398.00,0.0528
2397.00,0.0527
2396.00,0.0525
2395.00,0.0523
2394.00,0.0521
2393.00,0.0520
2392.00,0.0519
2391.00,0.0517
2390.00,0.0516
2389.00,0.0515
2388.00,0.0513
2387.00,0.0512
2386.00,0.0510
2385.00,0.0508
2384.00,0.0506
2383.00,0.0505
2382.00,0.0503
2381.00,0.0502
2380.00,0.0501
2379.00,0.0501
2378.00,0.0500
2377.00,0.0500
2376.00,0.0500
2375.00,0.0500
2374.00,0.0499
2373.00,0.0498
2372.00,0.0497
2371.00,0.0496
2370.00,0.0494
2369.00,0.0492
2368.00,0.0491
2367.00,0.0490
2366.00,0.0489
2365.00,0.0489
2364.00,0.0489
2363.00,0.0488
2362.00,0.0488
2361.00,0.0487
2360.00,0.0486
2359.00,0.0485
2358.00,0.0483
2357.00,0.0482
2356.00,0.0481
2355.00,0.0480
2354.00,0.0479
2353.00,0.0478
2352.00,0.0477
2351.00,0.0477
2350.00,0.0477
2349.00,0.0476
2348.00,0.0475
2347.00,0.0475
2346.00,0.0475
2345.00,0.0477
2344.00,0.0478
2343.00,0.0477
2342.00,0.0474
2341.00,0.0472
2340.00,0.0470
2339.00,0.0469
2338.00,0.0468
2337.00,0.0468
2336.00,0.0467
2335.00,0.0466
2334.00,0.0464
2333.00,0.0462
2332.00,0.0461
2331.00,0.0460
2330.00,0.0460
2329.00,0.0460
2328.00,0.0462
2327.00,0.0465
2326.00,0.0467
2325.00,0.0468
2324.00,0.0466
2323.00,0.0464
2322.00,0.0461
2321.00,0.0459
2320.00,0.0458
2319.00,0.0456
2318.00,0.0454
2317.00,0.0453
2316.00,0.0452
2315.00,0.0452
2314.00,0.0452
2313.00,0.0452
2312.00,0.0452
2311.00,0.0453
2310.00,0.0453
2309.00,0.0453
2308.00,0.0454
2307.00,0.0455
2306.00,0.0456
2305.00,0.0458
2304.00,0.0459
2303.00,0.0461
2302.00,0.0461
2301.00,0.0462
2300.00,0.0461
2299.00,0.0461
2298.00,0.0460
2297.00,0.0458
2296.00,0.0457
2295.00,0.0455
2294.00,0.0453
2293.00,0.0451
2292.00,0.0450
2291.00,0.0449
2290.00,0.0447
2289.00,0.0446
2288.00,0.0446
2287.00,0.0444
2286.00,0.0442
2285.00,0.0440
2284.00,0.0438
2283.00,0.0436
2282.00,0.0435
2281.00,0.0434
2280.00,0.0433
2279.00,0.0432
2278.00,0.0431
2277.00,0.0431
2276.00,0.0430
2275.00,0.0429
2274.00,0.0429
2273.00,0.0429
2272.00,0.0429
2271.00,0.0429
2270.00,0.0428
2269.00,0.0426
2268.00,0.0425
2267.00,0.0422
2266.00,0.0420
2265.00,0.0418
2264.00,0.0417
2263.00,0.0416
2262.00,0.0416
2261.00,0.0415
2260.00,0.0415
2259.00,0.0414
2258.00,0.0413
2257.00,0.0411
2256.00,0.0409
2255.00,0.0407
2254.00,0.0406
2253.00,0.0406
2252.00,0.0406
2251.00,0.0406
2250.00,0.0405
2249.00,0.0405
2248.00,0.0405
2247.00,0.0404
2246.00,0.0404
2245.00,0.0405
2244.00,0.0406
2243.00,0.0406
2242.00,0.0406
2241.00,0.0406
2240.00,0.0407
2239.00,0.0408
2238.00,0.0408
2237.00,0.0409
2236.00,0.0410
2235.00,0.0411
2234.00,0.0412
2233.00,0.0412
2232.00,0.0412
2231.00,0.0411
2230.00,0.0410
2229.00,0.0409
2228.00,0.0409
2227.00,0.0407
2226.00,0.0405
2225.00,0.0403
2224.00,0.0401
2223.00,0.0400
2222.00,0.0398
2221.00,0.0398
2220.00,0.0397
2219.00,0.0396
2218.00,0.0394
2217.00,0.0393
2216.00,0.0392
2215.00,0.0391
2214.00,0.0390
2213.00,0.0389
2212.00,0.0389
2211.00,0.0388
2210.00,0.0387
2209.00,0.0387
2208.00,0.0387
2207.00,0.0386
2206.00,0.0385
2205.00,0.0384
2204.00,0.0384
2203.00,0.0384
2202.00,0.0385
2201.00,0.0385
2200.00,0.0386
2199.00,0.0385
2198.00,0.0384
2197.00,0.0383
2196.00,0.0381
2195.00,0.0380
2194.00,0.0379
2193.00,0.0378
2192.00,0.0378
2191.00,0.0378
2190.00,0.0378
2189.00,0.0378
2188.00,0.0378
2187.00,0.0378
2186.00,0.0376
2185.00,0.0375
2184.00,0.0373
2183.00,0.0371
2182.00,0.0369
2181.00,0.0367
2180.00,0.0367
2179.00,0.0367
2178.00,0.0366
2177.00,0.0364
2176.00,0.0363
2175.00,0.0363
2174.00,0.0363
2173.00,0.0364
2172.00,0.0367
2171.00,0.0369
2170.00,0.0371
2169.00,0.0372
2168.00,0.0372
2167.00,0.0372
2166.00,0.0370
2165.00,0.0369
2164.00,0.0369
2163.00,0.0369
2162.00,0.0363
2161.00,0.0352
2160.00,0.0338
2159.00,0.0325
2158.00,0.0318
2157.00,0.0318
2156.00,0.0322
2155.00,0.0325
2154.00,0.0327
2153.00,0.0328
2152.00,0.0331
2151.00,0.0333
2150.00,0.0335
2149.00,0.0336
2148.00,0.0337
2147.00,0.0336
2146.00,0.0336
2145.00,0.0335
2144.00,0.0335
2143.00,0.0335
2142.00,0.0334
2141.00,0.0334
2140.00,0.0335
2139.00,0.0335
2138.00,0.0333
2137.00,0.0331
2136.00,0.0330
2135.00,0.0328
2134.00,0.0328
2133.00,0.0329
2132.00,0.0331
2131.00,0.0333
2130.00,0.0334
2129.00,0.0335
2128.00,0.0336
2127.00,0.0337
2126.00,0.0338
2125.00,0.0338
2124.00,0.0338
2123.00,0.0338
2122.00,0.0337
2121.00,0.0336
2120.00,0.0336
2119.00,0.0336
2118.00,0.0336
2117.00,0.0336
2116.00,0.0336
2115.00,0.0335
2114.00,0.0333
2113.00,0.0332
2112.00,0.0331
2111.00,0.0331
2110.00,0.0330
2109.00,0.0329
2108.00,0.0327
2107.00,0.0326
2106.00,0.0324
2105.00,0.0324
2104.00,0.0325
2103.00,0.0325
2102.00,0.0325
2101.00,0.0326
2100.00,0.0326
2099.00,0.0327
2098.00,0.0326
2097.00,0.0325
2096.00,0.0323
2095.00,0.0322
2094.00,0.0322
2093.00,0.0323
2092.00,0.0324
2091.00,0.0325
2090.00,0.0324
2089.00,0.0324
2088.00,0.0324
2087.00,0.0323
2086.00,0.0322
2085.00,0.0321
2084.00,0.0320
2083.00,0.0319
2082.00,0.0318
2081.00,0.0317
2080.00,0.0317
2079.00,0.0316
2078.00,0.0315
2077.00,0.0314
2076.00,0.0313
2075.00,0.0312
2074.00,0.0311
2073.00,0.0310
2072.00,0.0309
2071.00,0.0308
2070.00,0.0307
2069.00,0.0306
2068.00,0.0306
2067.00,0.0306
2066.00,0.0305
2065.00,0.0304
2064.00,0.0304
2063.00,0.0304
2062.00,0.0303
2061.00,0.0303
2060.00,0.0303
2059.00,0.0303
2058.00,0.0303
2057.00,0.0302
2056.00,0.0302
2055.00,0.0302
2054.00,0.0305
2053.00,0.0309
2052.00,0.0313
2051.00,0.0314
2050.00,0.0311
2049.00,0.0305
2048.00,0.0302
2047.00,0.0300
2046.00,0.0299
2045.00,0.0298
2044.00,0.0298
2043.00,0.0299
2042.00,0.0300
2041.00,0.0301
2040.00,0.0303
2039.00,0.0304
2038.00,0.0304
2037.00,0.0304
2036.00,0.0305
2035.00,0.0305
2034.00,0.0302
2033.00,0.0299
2032.00,0.0297
2031.00,0.0296
2030.00,0.0294
2029.00,0.0294
2028.00,0.0295
2027.00,0.0295
2026.00,0.0293
2025.00,0.0291
2024.00,0.0289
2023.00,0.0287
2022.00,0.0284
2021.00,0.0283
2020.00,0.0284
2019.00,0.0286
2018.00,0.0286
2017.00,0.0286
2016.00,0.0287
2015.00,0.0287
2014.00,0.0286
2013.00,0.0285
2012.00,0.0285
2011.00,0.0285
2010.00,0.0282
2009.00,0.0279
2008.00,0.0276
2007.00,0.0273
2006.00,0.0270
2005.00,0.0270
2004.00,0.0271
2003.00,0.0272
2002.00,0.0270
2001.00,0.0269
2000.00,0.0268
1999.00,0.0268
1998.00,0.0267
1997.00,0.0267
1996.00,0.0268
1995.00,0.0269
1994.00,0.0269
1993.00,0.0270
1992.00,0.0273
1991.00,0.0275
1990.00,0.0276
1989.00,0.0276
1988.00,0.0278
1987.00,0.0281
1986.00,0.0284
1985.00,0.0287
1984.00,0.0291
1983.00,0.0295
1982.00,0.0297
1981.00,0.0298
1980.00,0.0295
1979.00,0.0289
1978.00,0.0282
1977.00,0.0278
1976.00,0.0279
1975.00,0.0279
1974.00,0.0278
1973.00,0.0277
1972.00,0.0277
1971.00,0.0278
1970.00,0.0276
1969.00,0.0275
1968.00,0.0275
1967.00,0.0276
1966.00,0.0276
1965.00,0.0278
1964.00,0.0280
1963.00,0.0280
1962.00,0.0278
1961.00,0.0277
1960.00,0.0277
1959.00,0.0278
1958.00,0.0280
1957.00,0.0282
1956.00,0.0286
1955.00,0.0288
1954.00,0.0289
1953.00,0.0290
1952.00,0.0292
1951.00,0.0294
1950.00,0.0296
1949.00,0.0297
1948.00,0.0300
1947.00,0.0303
1946.00,0.0305
1945.00,0.0306
1944.00,0.0308
1943.00,0.0309
1942.00,0.0308
1941.00,0.0306
1940.00,0.0305
1939.00,0.0303
1938.00,0.0299
1937.00,0.0296
1936.00,0.0294
1935.00,0.0293
1934.00,0.0292
1933.00,0.0292
1932.00,0.0292
1931.00,0.0292
1930.00,0.0291
1929.00,0.0290
1928.00,0.0290
1927.00,0.0290
1926.00,0.0290
1925.00,0.0290
1924.00,0.0291
1923.00,0.0293
1922.00,0.0294
1921.00,0.0294
1920.00,0.0295
1919.00,0.0295
1918.00,0.0295
1917.00,0.0296
1916.00,0.0298
1915.00,0.0298
1914.00,0.0299
1913.00,0.0299
1912.00,0.0300
1911.00,0.0301
1910.00,0.0302
1909.00,0.0303
1908.00,0.0304
1907.00,0.0304
1906.00,0.0304
1905.00,0.0304
1904.00,0.0304
1903.00,0.0305
1902.00,0.0305
1901.00,0.0306
1900.00,0.0306
1899.00,0.0307
1898.00,0.0306
1897.00,0.0306
1896.00,0.0306
1895.00,0.0306
1894.00,0.0305
1893.00,0.0305
1892.00,0.0304
1891.00,0.0304
1890.00,0.0303
1889.00,0.0303
1888.00,0.0304
1887.00,0.0304
1886.00,0.0304
1885.00,0.0303
1884.00,0.0303
1883.00,0.0303
1882.00,0.0302
1881.00,0.0302
1880.00,0.0302
1879.00,0.0301
1878.00,0.0301
1877.00,0.0300
1876.00,0.0301
1875.00,0.0301
1874.00,0.0302
1873.00,0.0303
1872.00,0.0303
1871.00,0.0303
1870.00,0.0301
1869.00,0.0299
1868.00,0.0298
1867.00,0.0296
1866.00,0.0294
1865.00,0.0291
1864.00,0.0290
1863.00,0.0289
1862.00,0.0287
1861.00,0.0286
1860.00,0.0285
1859.00,0.0284
1858.00,0.0283
1857.00,0.0282
1856.00,0.0282
1855.00,0.0282
1854.00,0.0282
1853.00,0.0281
1852.00,0.0281
1851.00,0.0280
1850.00,0.0280
1849.00,0.0280
1848.00,0.0281
1847.00,0.0282
1846.00,0.0283
1845.00,0.0285
1844.00,0.0291
1843.00,0.0297
1842.00,0.0302
1841.00,0.0305
1840.00,0.0308
1839.00,0.0309
1838.00,0.0309
1837.00,0.0308
1836.00,0.0306
1835.00,0.0303
1834.00,0.0300
1833.00,0.0298
1832.00,0.0296
1831.00,0.0294
1830.00,0.0292
1829.00,0.0290
1828.00,0.0290
1827.00,0.0289
1826.00,0.0288
1825.00,0.0288
1824.00,0.0289
1823.00,0.0289
1822.00,0.0289
1821.00,0.0288
1820.00,0.0288
1819.00,0.0287
1818.00,0.0286
1817.00,0.0286
1816.00,0.0288
1815.00,0.0290
1814.00,0.0291
1813.00,0.0291
1812.00,0.0292
1811.00,0.0294
1810.00,0.0295
1809.00,0.0296
1808.00,0.0297
1807.00,0.0299
1806.00,0.0299
1805.00,0.0300
1804.00,0.0301
1803.00,0.0302
1802.00,0.0303
1801.00,0.0303
1800.00,0.0303
1799.00,0.0303
1798.00,0.0302
1797.00,0.0302
1796.00,0.0303
1795.00,0.0303
1794.00,0.0303
1793.00,0.0302
1792.00,0.0303
1791.00,0.0305
1790.00,0.0307
1789.00,0.0307
1788.00,0.0308
1787.00,0.0308
1786.00,0.0308
1785.00,0.0308
1784.00,0.0309
1783.00,0.0309
1782.00,0.0308
1781.00,0.0307
1780.00,0.0306
1779.00,0.0304
1778.00,0.0302
1777.00,0.0299
1776.00,0.0297
1775.00,0.0295
1774.00,0.0290
1773.00,0.0285
1772.00,0.0282
1771.00,0.0280
1770.00,0.0278
1769.00,0.0276
1768.00,0.0273
1767.00,0.0270
1766.00,0.0266
1765.00,0.0262
1764.00,0.0258
1763.00,0.0253
1762.00,0.0250
1761.00,0.0247
1760.00,0.0245
1759.00,0.0242
1758.00,0.0239
1757.00,0.0237
1756.00,0.0236
1755.00,0.0235
1754.00,0.0232
1753.00,0.0230
1752.00,0.0228
1751.00,0.0227
1750.00,0.0225
1749.00,0.0222
1748.00,0.0220
1747.00,0.0217
1746.00,0.0213
1745.00,0.0210
1744.00,0.0206
1743.00,0.0203
1742.00,0.0198
1741.00,0.0194
1740.00,0.0191
1739.00,0.0190
1738.00,0.0189
1737.00,0.0186
1736.00,0.0185
1735.00,0.0183
1734.00,0.0183
1733.00,0.0184
1732.00,0.0187
1731.00,0.0187
1730.00,0.0187
1729.00,0.0186
1728.00,0.0187
1727.00,0.0187
1726.00,0.0186
1725.00,0.0186
1724.00,0.0188
1723.00,0.0191
1722.00,0.0192
1721.00,0.0192
1720.00,0.0195
1719.00,0.0199
1718.00,0.0204
1717.00,0.0213
1716.00,0.0226
1715.00,0.0240
1714.00,0.0253
1713.00,0.0268
1712.00,0.0288
1711.00,0.0312
1710.00,0.0340
1709.00,0.0373
1708.00,0.0414
1707.00,0.0465
1706.00,0.0527
1705.00,0.0597
1704.00,0.0667
1703.00,0.0728
1702.00,0.0788
1701.00,0.0857
1700.00,0.0936
1699.00,0.1004
1698.00,0.1052
1697.00,0.1092
1696.00,0.1134
1695.00,0.1178
1694.00,0.1217
1693.00,0.1251
1692.00,0.1283
1691.00,0.1316
1690.00,0.1350
1689.00,0.1383
1688.00,0.1418
1687.00,0.1451
1686.00,0.1483
1685.00,0.1513
1684.00,0.1545
1683.00,0.1582
1682.00,0.1621
1681.00,0.1661
1680.00,0.1703
1679.00,0.1745
1678.00,0.1782
1677.00,0.1810
1676.00,0.1825
1675.00,0.1827
1674.00,0.1820
1673.00,0.1810
1672.00,0.1792
1671.00,0.1757
1670.00,0.1701
1669.00,0.1634
1668.00,0.1576
1667.00,0.1532
1666.00,0.1496
1665.00,0.1458
1664.00,0.1411
1663.00,0.1354
1662.00,0.1295
1661.00,0.1243
1660.00,0.1197
1659.00,0.1156
1658.00,0.1117
1657.00,0.1083
1656.00,0.1052
1655.00,0.1013
1654.00,0.0947
1653.00,0.0858
1652.00,0.0791
1651.00,0.0760
1650.00,0.0746
1649.00,0.0740
1648.00,0.0746
1647.00,0.0777
1646.00,0.0838
1645.00,0.0915
1644.00,0.0997
1643.00,0.1081
1642.00,0.1167
1641.00,0.1255
1640.00,0.1341
1639.00,0.1423
1638.00,0.1494
1637.00,0.1544
1636.00,0.1562
1635.00,0.1552
1634.00,0.1533
1633.00,0.1512
1632.00,0.1487
1631.00,0.1456
1630.00,0.1418
1629.00,0.1374
1628.00,0.1327
1627.00,0.1285
1626.00,0.1250
1625.00,0.1220
1624.00,0.1192
1623.00,0.1168
1622.00,0.1156
1621.00,0.1157
1620.00,0.1165
1619.00,0.1175
1618.00,0.1184
1617.00,0.1193
1616.00,0.1204
1615.00,0.1220
1614.00,0.1239
1613.00,0.1260
1612.00,0.1279
1611.00,0.1293
1610.00,0.1301
1609.00,0.1302
1608.00,0.1297
1607.00,0.1286
1606.00,0.1274
1605.00,0.1260
1604.00,0.1247
1603.00,0.1233
1602.00,0.1218
1601.00,0.1200
1600.00,0.1180
1599.00,0.1157
1598.00,0.1134
1597.00,0.1111
1596.00,0.1089
1595.00,0.1069
1594.00,0.1053
1593.00,0.1039
1592.00,0.1027
1591.00,0.1017
1590.00,0.1008
1589.00,0.0999
1588.00,0.0990
1587.00,0.0981
1586.00,0.0971
1585.00,0.0961
1584.00,0.0949
1583.00,0.0935
1582.00,0.0921
1581.00,0.0907
1580.00,0.0895
1579.00,0.0882
1578.00,0.0868
1577.00,0.0848
1576.00,0.0826
1575.00,0.0808
1574.00,0.0799
1573.00,0.0793
1572.00,0.0787
1571.00,0.0777
1570.00,0.0763
1569.00,0.0750
1568.00,0.0740
1567.00,0.0733
1566.00,0.0727
1565.00,0.0720
1564.00,0.0714
1563.00,0.0710
1562.00,0.0708
1561.00,0.0705
1560.00,0.0696
1559.00,0.0681
1558.00,0.0671
1557.00,0.0668
1556.00,0.0667
1555.00,0.0664
1554.00,0.0660
1553.00,0.0656
1552.00,0.0652
1551.00,0.0647
1550.00,0.0643
1549.00,0.0638
1548.00,0.0634
1547.00,0.0630
1546.00,0.0627
1545.00,0.0623
1544.00,0.0617
1543.00,0.0610
1542.00,0.0602
1541.00,0.0590
1540.00,0.0576
1539.00,0.0567
1538.00,0.0562
1537.00,0.0560
1536.00,0.0557
1535.00,0.0552
1534.00,0.0545
1533.00,0.0538
1532.00,0.0533
1531.00,0.0530
1530.00,0.0527
1529.00,0.0524
1528.00,0.0521
1527.00,0.0519
1526.00,0.0517
1525.00,0.0516
1524.00,0.0514
1523.00,0.0512
1522.00,0.0510
1521.00,0.0508
1520.00,0.0508
1519.00,0.0506
1518.00,0.0504
1517.00,0.0499
1516.00,0.0494
1515.00,0.0489
1514.00,0.0483
1513.00,0.0478
1512.00,0.0472
1511.00,0.0467
1510.00,0.0462
1509.00,0.0457
1508.00,0.0450
1507.00,0.0441
1506.00,0.0433
1505.00,0.0429
1504.00,0.0426
1503.00,0.0424
1502.00,0.0423
1501.00,0.0421
1500.00,0.0418
1499.00,0.0415
1498.00,0.0412
1497.00,0.0408
1496.00,0.0406
1495.00,0.0403
1494.00,0.0401
1493.00,0.0399
1492.00,0.0395
1491.00,0.0392
1490.00,0.0389
1489.00,0.0385
1488.00,0.0380
1487.00,0.0375
1486.00,0.0370
1485.00,0.0365
1484.00,0.0360
1483.00,0.0354
1482.00,0.0349
1481.00,0.0343
1480.00,0.0338
1479.00,0.0333
1478.00,0.0328
1477.00,0.0323
1476.00,0.0318
1475.00,0.0313
1474.00,0.0308
1473.00,0.0303
1472.00,0.0300
1471.00,0.0298
1470.00,0.0296
1469.00,0.0294
1468.00,0.0292
1467.00,0.0290
1466.00,0.0288
1465.00,0.0287
1464.00,0.0287
1463.00,0.0288
1462.00,0.0290
1461.00,0.0292
1460.00,0.0295
1459.00,0.0299
1458.00,0.0307
1457.00,0.0320
1456.00,0.0337
1455.00,0.0354
1454.00,0.0370
1453.00,0.0390
1452.00,0.0416
1451.00,0.0445
1450.00,0.0477
1449.00,0.0508
1448.00,0.0537
1447.00,0.0558
1446.00,0.0570
1445.00,0.0578
1444.00,0.0586
1443.00,0.0599
1442.00,0.0618
1441.00,0.0643
1440.00,0.0669
1439.00,0.0690
1438.00,0.0703
1437.00,0.0707
1436.00,0.0702
1435.00,0.0694
1434.00,0.0688
1433.00,0.0684
1432.00,0.0684
1431.00,0.0691
1430.00,0.0705
1429.00,0.0728
1428.00,0.0756
1427.00,0.0788
1426.00,0.0820
1425.00,0.0851
1424.00,0.0880
1423.00,0.0902
1422.00,0.0920
1421.00,0.0938
1420.00,0.0959
1419.00,0.0984
1418.00,0.1012
1417.00,0.1039
1416.00,0.1060
1415.00,0.1073
1414.00,0.1077
1413.00,0.1073
1412.00,0.1059
1411.00,0.1036
1410.00,0.1007
1409.00,0.0976
1408.00,0.0943
1407.00,0.0907
1406.00,0.0870
1405.00,0.0830
1404.00,0.0791
1403.00,0.0756
1402.00,0.0724
1401.00,0.0695
1400.00,0.0665
1399.00,0.0635
1398.00,0.0609
1397.00,0.0587
1396.00,0.0566
1395.00,0.0545
1394.00,0.0527
1393.00,0.0511
1392.00,0.0498
1391.00,0.0487
1390.00,0.0479
1389.00,0.0473
1388.00,0.0469
1387.00,0.0468
1386.00,0.0468
1385.00,0.0468
1384.00,0.0471
1383.00,0.0478
1382.00,0.0496
1381.00,0.0532
1380.00,0.0589
1379.00,0.0667
1378.00,0.0756
1377.00,0.0834
1376.00,0.0883
1375.00,0.0890
1374.00,0.0858
1373.00,0.0802
1372.00,0.0740
1371.00,0.0680
1370.00,0.0623
1369.00,0.0571
1368.00,0.0525
1367.00,0.0487
1366.00,0.0456
1365.00,0.0430
1364.00,0.0406
1363.00,0.0384
1362.00,0.0364
1361.00,0.0346
1360.00,0.0330
1359.00,0.0317
1358.00,0.0307
1357.00,0.0299
1356.00,0.0294
1355.00,0.0290
1354.00,0.0288
1353.00,0.0289
1352.00,0.0291
1351.00,0.0295
1350.00,0.0301
1349.00,0.0310
1348.00,0.0322
1347.00,0.0337
1346.00,0.0355
1345.00,0.0377
1344.00,0.0401
1343.00,0.0428
1342.00,0.0458
1341.00,0.0492
1340.00,0.0531
1339.00,0.0573
1338.00,0.0618
1337.00,0.0666
1336.00,0.0717
1335.00,0.0771
1334.00,0.0829
1333.00,0.0889
1332.00,0.0949
1331.00,0.1008
1330.00,0.1062
1329.00,0.1109
1328.00,0.1146
1327.00,0.1172
1326.00,0.1186
1325.00,0.1191
1324.00,0.1189
1323.00,0.1184
1322.00,0.1178
1321.00,0.1170
1320.00,0.1158
1319.00,0.1143
1318.00,0.1128
1317.00,0.1121
1316.00,0.1124
1315.00,0.1133
1314.00,0.1139
1313.00,0.1135
1312.00,0.1116
1311.00,0.1084
1310.00,0.1044
1309.00,0.1001
1308.00,0.0959
1307.00,0.0923
1306.00,0.0892
1305.00,0.0869
1304.00,0.0851
1303.00,0.0837
1302.00,0.0830
1301.00,0.0835
1300.00,0.0856
1299.00,0.0896
1298.00,0.0951
1297.00,0.1008
1296.00,0.1048
1295.00,0.1056
1294.00,0.1028
1293.00,0.0970
1292.00,0.0900
1291.00,0.0830
1290.00,0.0773
1289.00,0.0734
1288.00,0.0715
1287.00,0.0716
1286.00,0.0731
1285.00,0.0756
1284.00,0.0783
1283.00,0.0808
1282.00,0.0827
1281.00,0.0840
1280.00,0.0848
1279.00,0.0854
1278.00,0.0862
1277.00,0.0876
1276.00,0.0898
1275.00,0.0928
1274.00,0.0965
1273.00,0.1007
1272.00,0.1053
1271.00,0.1099
1270.00,0.1147
1269.00,0.1198
1268.00,0.1252
1267.00,0.1307
1266.00,0.1358
1265.00,0.1400
1264.00,0.1426
1263.00,0.1435
1262.00,0.1430
1261.00,0.1415
1260.00,0.1392
1259.00,0.1367
1258.00,0.1340
1257.00,0.1313
1256.00,0.1288
1255.00,0.1264
1254.00,0.1242
1253.00,0.1222
1252.00,0.1203
1251.00,0.1186
1250.00,0.1169
1249.00,0.1153
1248.00,0.1138
1247.00,0.1122
1246.00,0.1108
1245.00,0.1094
1244.00,0.1081
1243.00,0.1068
1242.00,0.1055
1241.00,0.1043
1240.00,0.1031
1239.00,0.1019
1238.00,0.1008
1237.00,0.0998
1236.00,0.0987
1235.00,0.0977
1234.00,0.0967
1233.00,0.0957
1232.00,0.0948
1231.00,0.0938
1230.00,0.0929
1229.00,0.0920
1228.00,0.0912
1227.00,0.0904
1226.00,0.0897
1225.00,0.0891
1224.00,0.0887
1223.00,0.0886
1222.00,0.0887
1221.00,0.0890
1220.00,0.0892
1219.00,0.0890
1218.00,0.0884
1217.00,0.0872
1216.00,0.0858
1215.00,0.0844
1214.00,0.0833
1213.00,0.0828
1212.00,0.0829
1211.00,0.0839
1210.00,0.0860
1209.00,0.0894
1208.00,0.0939
1207.00,0.0992
1206.00,0.1046
1205.00,0.1093
1204.00,0.1126
1203.00,0.1141
1202.00,0.1139
1201.00,0.1124
1200.00,0.1100
1199.00,0.1072
1198.00,0.1043
1197.00,0.1016
1196.00,0.0990
1195.00,0.0966
1194.00,0.0944
1193.00,0.0923
1192.00,0.0904
1191.00,0.0886
1190.00,0.0869
1189.00,0.0854
1188.00,0.0839
1187.00,0.0824
1186.00,0.0809
1185.00,0.0795
1184.00,0.0782
1183.00,0.0767
1182.00,0.0753
1181.00,0.0739
1180.00,0.0724
1179.00,0.0709
1178.00,0.0694
1177.00,0.0678
1176.00,0.0662
1175.00,0.0645
1174.00,0.0627
1173.00,0.0609
1172.00,0.0591
1171.00,0.0572
1170.00,0.0554
1169.00,0.0539
1168.00,0.0527
1167.00,0.0521
1166.00,0.0525
1165.00,0.0539
1164.00,0.0562
1163.00,0.0595
1162.00,0.0637
1161.00,0.0692
1160.00,0.0760
1159.00,0.0843
1158.00,0.0938
1157.00,0.1034
1156.00,0.1120
1155.00,0.1185
1154.00,0.1223
1153.00,0.1237
1152.00,0.1230
1151.00,0.1211
1150.00,0.1187
1149.00,0.1161
1148.00,0.1136
1147.00,0.1114
1146.00,0.1094
1145.00,0.1076
1144.00,0.1059
1143.00,0.1043
1142.00,0.1029
1141.00,0.1015
1140.00,0.1003
1139.00,0.0991
1138.00,0.0980
1137.00,0.0969
1136.00,0.0960
1135.00,0.0950
1134.00,0.0940
1133.00,0.0931
1132.00,0.0921
1131.00,0.0912
1130.00,0.0904
1129.00,0.0895
1128.00,0.0887
1127.00,0.0880
1126.00,0.0872
1125.00,0.0865
1124.00,0.0859
1123.00,0.0852
1122.00,0.0846
1121.00,0.0841
1120.00,0.0835
1119.00,0.0830
1118.00,0.0826
1117.00,0.0821
1116.00,0.0817
1115.00,0.0812
1114.00,0.0808
1113.00,0.0804
1112.00,0.0800
1111.00,0.0796
1110.00,0.0793
1109.00,0.0789
1108.00,0.0786
1107.00,0.0782
1106.00,0.0779
1105.00,0.0776
1104.00,0.0773
1103.00,0.0770
1102.00,0.0767
1101.00,0.0765
1100.00,0.0763
1099.00,0.0760
1098.00,0.0757
1097.00,0.0755
1096.00,0.0753
1095.00,0.0750
1094.00,0.0749
1093.00,0.0748
1092.00,0.0749
1091.00,0.0751
1090.00,0.0756
1089.00,0.0764
1088.00,0.0772
1087.00,0.0777
1086.00,0.0777
1085.00,0.0773
1084.00,0.0765
1083.00,0.0758
1082.00,0.0751
1081.00,0.0745
1080.00,0.0740
1079.00,0.0735
1078.00,0.0732
1077.00,0.0729
1076.00,0.0725
1075.00,0.0722
1074.00,0.0719
1073.00,0.0716
1072.00,0.0713
1071.00,0.0711
1070.00,0.0708
1069.00,0.0706
1068.00,0.0704
1067.00,0.0702
1066.00,0.0700
1065.00,0.0699
1064.00,0.0697
1063.00,0.0695
1062.00,0.0694
1061.00,0.0694
1060.00,0.0694
1059.00,0.0693
1058.00,0.0694
1057.00,0.0694
1056.00,0.0695
1055.00,0.0695
1054.00,0.0695
1053.00,0.0695
1052.00,0.0695
1051.00,0.0694
1050.00,0.0694
1049.00,0.0693
1048.00,0.0692
1047.00,0.0691
1046.00,0.0690
1045.00,0.0690
1044.00,0.0690
1043.00,0.0690
1042.00,0.0692
1041.00,0.0696
1040.00,0.0704
1039.00,0.0715
1038.00,0.0728
1037.00,0.0740
1036.00,0.0746
1035.00,0.0745
1034.00,0.0737
1033.00,0.0724
1032.00,0.0707
1031.00,0.0692
1030.00,0.0678
1029.00,0.0667
1028.00,0.0658
1027.00,0.0650
1026.00,0.0642
1025.00,0.0636
1024.00,0.0629
1023.00,0.0624
1022.00,0.0619
1021.00,0.0614
1020.00,0.0610
1019.00,0.0606
1018.00,0.0603
1017.00,0.0600
1016.00,0.0598
1015.00,0.0597
1014.00,0.0597
1013.00,0.0597
1012.00,0.0598
1011.00,0.0600
1010.00,0.0605
1009.00,0.0613
1008.00,0.0627
1007.00,0.0652
1006.00,0.0694
1005.00,0.0761
1004.00,0.0859
1003.00,0.0991
1002.00,0.1159
1001.00,0.1360
1000.00,0.1591
999.00,0.1843
998.00,0.2098
997.00,0.2327
996.00,0.2498
995.00,0.2592
994.00,0.2609
993.00,0.2561
992.00,0.2461
991.00,0.2322
990.00,0.2158
989.00,0.1984
988.00,0.1813
987.00,0.1657
986.00,0.1520
985.00,0.1404
984.00,0.1308
983.00,0.1228
982.00,0.1163
981.00,0.1111
980.00,0.1072
979.00,0.1046
978.00,0.1035
977.00,0.1042
976.00,0.1065
975.00,0.1100
974.00,0.1135
973.00,0.1157
972.00,0.1157
971.00,0.1135
970.00,0.1100
969.00,0.1062
968.00,0.1026
967.00,0.0995
966.00,0.0971
965.00,0.0952
964.00,0.0937
963.00,0.0926
962.00,0.0917
961.00,0.0912
960.00,0.0908
959.00,0.0908
958.00,0.0912
957.00,0.0921
956.00,0.0937
955.00,0.0961
954.00,0.0995
953.00,0.1041
952.00,0.1104
951.00,0.1189
950.00,0.1294
949.00,0.1405
948.00,0.1489
947.00,0.1517
946.00,0.1480
945.00,0.1403
944.00,0.1318
943.00,0.1249
942.00,0.1202
941.00,0.1176
940.00,0.1165
939.00,0.1165
938.00,0.1172
937.00,0.1186
936.00,0.1205
935.00,0.1229
934.00,0.1256
933.00,0.1285
932.00,0.1318
931.00,0.1353
930.00,0.1391
929.00,0.1432
928.00,0.1475
927.00,0.1521
926.00,0.1569
925.00,0.1621
924.00,0.1674
923.00,0.1729
922.00,0.1782
921.00,0.1831
920.00,0.1871
919.00,0.1901
918.00,0.1919
917.00,0.1927
916.00,0.1927
915.00,0.1920
914.00,0.1907
913.00,0.1888
912.00,0.1865
911.00,0.1837
910.00,0.1805
909.00,0.1770
908.00,0.1732
907.00,0.1692
906.00,0.1651
905.00,0.1609
904.00,0.1567
903.00,0.1525
902.00,0.1484
901.00,0.1444
900.00,0.1405
899.00,0.1367
898.00,0.1331
897.00,0.1297
896.00,0.1263
895.00,0.1232
894.00,0.1201
893.00,0.1173
892.00,0.1145
891.00,0.1119
890.00,0.1095
889.00,0.1071
888.00,0.1049
887.00,0.1028
886.00,0.1008
885.00,0.0989
884.00,0.0971
883.00,0.0955
882.00,0.0943
881.00,0.0938
880.00,0.0947
879.00,0.0977
878.00,0.1031
877.00,0.1118
876.00,0.1250
875.00,0.1436
874.00,0.1661
873.00,0.1869
872.00,0.1989
871.00,0.1980
870.00,0.1867
869.00,0.1710
868.00,0.1560
867.00,0.1437
866.00,0.1343
865.00,0.1271
864.00,0.1212
863.00,0.1163
862.00,0.1122
861.00,0.1089
860.00,0.1062
859.00,0.1038
858.00,0.1017
857.00,0.0999
856.00,0.0982
855.00,0.0967
854.00,0.0954
853.00,0.0943
852.00,0.0932
851.00,0.0923
850.00,0.0914
849.00,0.0906
848.00,0.0898
847.00,0.0892
846.00,0.0886
845.00,0.0881
844.00,0.0877
843.00,0.0873
842.00,0.0870
841.00,0.0867
840.00,0.0865
839.00,0.0863
838.00,0.0861
837.00,0.0859
836.00,0.0858
835.00,0.0857
834.00,0.0857
833.00,0.0856
832.00,0.0856
831.00,0.0856
830.00,0.0855
829.00,0.0855
828.00,0.0854
827.00,0.0852
826.00,0.0850
825.00,0.0849
824.00,0.0846
823.00,0.0844
822.00,0.0841
821.00,0.0839
820.00,0.0838
819.00,0.0836
818.00,0.0835
817.00,0.0834
816.00,0.0833
815.00,0.0833
814.00,0.0834
813.00,0.0837
812.00,0.0844
811.00,0.0855
810.00,0.0875
809.00,0.0905
808.00,0.0948
807.00,0.1001
806.00,0.1055
805.00,0.1097
804.00,0.1109
803.00,0.1086
802.00,0.1034
801.00,0.0969
800.00,0.0905
799.00,0.0851
798.00,0.0809
797.00,0.0777
796.00,0.0754
795.00,0.0736
794.00,0.0722
793.00,0.0711
792.00,0.0702
791.00,0.0694
790.00,0.0687
789.00,0.0680
788.00,0.0674
787.00,0.0669
786.00,0.0663
785.00,0.0658
784.00,0.0653
783.00,0.0648
782.00,0.0643
781.00,0.0638
780.00,0.0633
779.00,0.0628
778.00,0.0623
777.00,0.0619
776.00,0.0614
775.00,0.0610
774.00,0.0606
773.00,0.0601
772.00,0.0597
771.00,0.0593
770.00,0.0589
769.00,0.0585
768.00,0.0581
767.00,0.0578
766.00,0.0574
765.00,0.0571
764.00,0.0567
763.00,0.0563
762.00,0.0559
761.00,0.0555
760.00,0.0552
759.00,0.0549
758.00,0.0547
757.00,0.0545
756.00,0.0542
755.00,0.0539
754.00,0.0536
753.00,0.0533
752.00,0.0531
751.00,0.0528
750.00,0.0525
749.00,0.0523
748.00,0.0519
747.00,0.0516
746.00,0.0512
745.00,0.0508
744.00,0.0505
743.00,0.0502
742.00,0.0498
741.00,0.0494
740.00,0.0490
739.00,0.0486
738.00,0.0481
737.00,0.0477
736.00,0.0473
735.00,0.0468
734.00,0.0463
733.00,0.0457
732.00,0.0452
731.00,0.0446
730.00,0.0440
729.00,0.0434
728.00,0.0428
727.00,0.0421
726.00,0.0414
725.00,0.0407
724.00,0.0400
723.00,0.0392
722.00,0.0384
721.00,0.0376
720.00,0.0369
719.00,0.0365
718.00,0.0363
717.00,0.0366
716.00,0.0375
715.00,0.0388
714.00,0.0403
713.00,0.0414
712.00,0.0419
711.00,0.0415
710.00,0.0406
709.00,0.0397
708.00,0.0395
707.00,0.0408
706.00,0.0445
705.00,0.0519
704.00,0.0639
703.00,0.0805
702.00,0.0999
701.00,0.1190
700.00,0.1342
699.00,0.1434
698.00,0.1476
697.00,0.1492
696.00,0.1499
695.00,0.1499
694.00,0.1479
693.00,0.1429
692.00,0.1355
691.00,0.1268
690.00,0.1185
689.00,0.1113
688.00,0.1053
687.00,0.1005
686.00,0.0965
685.00,0.0933
684.00,0.0906
683.00,0.0883
682.00,0.0863
681.00,0.0846
680.00,0.0831
679.00,0.0818
678.00,0.0805
677.00,0.0793
676.00,0.0782
675.00,0.0772
674.00,0.0762
673.00,0.0753
672.00,0.0744
671.00,0.0738
670.00,0.0732
669.00,0.0726
668.00,0.0719
667.00,0.0711
666.00,0.0702
665.00,0.0696
664.00,0.0692
663.00,0.0687
662.00,0.0683
661.00,0.0678
660.00,0.0674
659.00,0.0670
658.00,0.0665
657.00,0.0661
656.00,0.0657
655.00,0.0653
654.00,0.0650
653.00,0.0646
652.00,0.0642
651.00,0.0637
650.00,0.0634
649.00,0.0631
648.00,0.0628
647.00,0.0624
646.00,0.0620
645.00,0.0616
644.00,0.0612
643.00,0.0608
642.00,0.0605
641.00,0.0602
640.00,0.0598
639.00,0.0594
638.00,0.0591
637.00,0.0587
636.00,0.0584
635.00,0.0580
634.00,0.0577
633.00,0.0574
632.00,0.0571
631.00,0.0568
630.00,0.0566
629.00,0.0563
628.00,0.0561
627.00,0.0558
626.00,0.0556
625.00,0.0554
624.00,0.0551
623.00,0.0548
622.00,0.0545
621.00,0.0543
620.00,0.0542
619.00,0.0541
618.00,0.0541
617.00,0.0541
616.00,0.0541
615.00,0.0541
614.00,0.0541
613.00,0.0543
612.00,0.0547
611.00,0.0553
610.00,0.0561
609.00,0.0570
608.00,0.0580
607.00,0.0593
606.00,0.0610
605.00,0.0629
604.00,0.0652
603.00,0.0677
602.00,0.0705
601.00,0.0737
600.00,0.0771
599.00,0.0807
598.00,0.0844
597.00,0.0879
596.00,0.0909
595.00,0.0931
594.00,0.0943
593.00,0.0946
592.00,0.0942
591.00,0.0936
590.00,0.0932
589.00,0.0938
588.00,0.0958
587.00,0.0992
586.00,0.1036
585.00,0.1081
584.00,0.1112
583.00,0.1120
582.00,0.1101
581.00,0.1062
580.00,0.1012
579.00,0.0961
578.00,0.0915
577.00,0.0875
576.00,0.0841
575.00,0.0812
574.00,0.0788
573.00,0.0767
572.00,0.0749
571.00,0.0734
570.00,0.0720
569.00,0.0708
568.00,0.0697
567.00,0.0686
566.00,0.0676
565.00,0.0667
564.00,0.0659
563.00,0.0651
562.00,0.0643
561.00,0.0637
560.00,0.0633
559.00,0.0629
558.00,0.0624
557.00,0.0619
556.00,0.0613
555.00,0.0607
554.00,0.0601
553.00,0.0598
552.00,0.0594
551.00,0.0591
550.00,0.0588
549.00,0.0584
548.00,0.0582
547.00,0.0579
546.00,0.0576
545.00,0.0573
544.00,0.0570
543.00,0.0566
542.00,0.0562
541.00,0.0559
540.00,0.0557
539.00,0.0555
538.00,0.0554
537.00,0.0552
536.00,0.0550
535.00,0.0548
534.00,0.0547
533.00,0.0547
532.00,0.0546
531.00,0.0545
530.00,0.0542
529.00,0.0538
528.00,0.0533
527.00,0.0529
526.00,0.0525
525.00,0.0521
524.00,0.0518
523.00,0.0516
522.00,0.0513
521.00,0.0510
520.00,0.0506
519.00,0.0501
518.00,0.0498
517.00,0.0496
516.00,0.0494
515.00,0.0492
514.00,0.0490
513.00,0.0489
512.00,0.0488
511.00,0.0488
510.00,0.0489
509.00,0.0489
508.00,0.0489
507.00,0.0488
506.00,0.0488
505.00,0.0489
504.00,0.0490
503.00,0.0492
502.00,0.0493
501.00,0.0494
500.00,0.0496
499.00,0.0498
498.00,0.0500
497.00,0.0504
496.00,0.0509
495.00,0.0514
494.00,0.0519
493.00,0.0525
492.00,0.0530
491.00,0.0533
490.00,0.0534
489.00,0.0535
488.00,0.0537
487.00,0.0542
486.00,0.0549
485.00,0.0559
484.00,0.0570
483.00,0.0585
482.00,0.0606
481.00,0.0636
480.00,0.0675
479.00,0.0727
478.00,0.0793
477.00,0.0875
476.00,0.0972
475.00,0.1079
474.00,0.1191
473.00,0.1296
472.00,0.1377
471.00,0.1422
470.00,0.1431
469.00,0.1414
468.00,0.1382
467.00,0.1339
466.00,0.1293
465.00,0.1247
464.00,0.1203
463.00,0.1161
462.00,0.1123
461.00,0.1089
460.00,0.1060
459.00,0.1033
458.00,0.1005
457.00,0.0979
456.00,0.0955
455.00,0.0934
454.00,0.0916
453.00,0.0896
452.00,0.0876
451.00,0.0857
450.00,0.0843
449.00,0.0832
448.00,0.0821
447.00,0.0809
446.00,0.0797
445.00,0.0786
444.00,0.0775
443.00,0.0762
442.00,0.0749
441.00,0.0737
440.00,0.0727
439.00,0.0719
438.00,0.0712
437.00,0.0704
436.00,0.0696
435.00,0.0689
434.00,0.0681
433.00,0.0673
432.00,0.0665
431.00,0.0658
430.00,0.0654
429.00,0.0653
428.00,0.0650
427.00,0.0646
426.00,0.0640
425.00,0.0636
424.00,0.0633
423.00,0.0631
422.00,0.0628
421.00,0.0625
420.00,0.0623
419.00,0.0619
418.00,0.0612
417.00,0.0605
416.00,0.0601
415.00,0.0600
414.00,0.0598
413.00,0.0591
412.00,0.0581
411.00,0.0574
410.00,0.0574
409.00,0.0579
408.00,0.0582
407.00,0.0584
406.00,0.0588
405.00,0.0594
404.00,0.0601
403.00,0.0603
402.00,0.0599
401.00,0.0585
400.00,0.0561
