Created as New Dataset,Sample 614 By YargerLab Date Friday, June 06 2025
cm-1,A
4000.00,0.0031
3999.00,0.0031
3998.00,0.0031
3997.00,0.0030
3996.00,0.0030
3995.00,0.0030
3994.00,0.0030
3993.00,0.0030
3992.00,0.0030
3991.00,0.0030
3990.00,0.0030
3989.00,0.0030
3988.00,0.0030
3987.00,0.0030
3986.00,0.0030
3985.00,0.0030
3984.00,0.0030
3983.00,0.0030
3982.00,0.0030
3981.00,0.0030
3980.00,0.0030
3979.00,0.0030
3978.00,0.0030
3977.00,0.0030
3976.00,0.0030
3975.00,0.0030
3974.00,0.0030
3973.00,0.0030
3972.00,0.0030
3971.00,0.0030
3970.00,0.0030
3969.00,0.0030
3968.00,0.0030
3967.00,0.0030
3966.00,0.0030
3965.00,0.0030
3964.00,0.0030
3963.00,0.0030
3962.00,0.0030
3961.00,0.0030
3960.00,0.0030
3959.00,0.0030
3958.00,0.0030
3957.00,0.0030
3956.00,0.0030
3955.00,0.0030
3954.00,0.0030
3953.00,0.0029
3952.00,0.0029
3951.00,0.0029
3950.00,0.0029
3949.00,0.0030
3948.00,0.0030
3947.00,0.0030
3946.00,0.0030
3945.00,0.0030
3944.00,0.0030
3943.00,0.0030
3942.00,0.0030
3941.00,0.0030
3940.00,0.0030
3939.00,0.0030
3938.00,0.0030
3937.00,0.0030
3936.00,0.0030
3935.00,0.0030
3934.00,0.0031
3933.00,0.0030
3932.00,0.0030
3931.00,0.0030
3930.00,0.0030
3929.00,0.0030
3928.00,0.0030
3927.00,0.0030
3926.00,0.0030
3925.00,0.0030
3924.00,0.0030
3923.00,0.0030
3922.00,0.0030
3921.00,0.0030
3920.00,0.0030
3919.00,0.0030
3918.00,0.0030
3917.00,0.0030
3916.00,0.0030
3915.00,0.0030
3914.00,0.0030
3913.00,0.0030
3912.00,0.0030
3911.00,0.0030
3910.00,0.0030
3909.00,0.0030
3908.00,0.0030
3907.00,0.0030
3906.00,0.0030
3905.00,0.0030
3904.00,0.0030
3903.00,0.0030
3902.00,0.0031
3901.00,0.0031
3900.00,0.0031
3899.00,0.0030
3898.00,0.0030
3897.00,0.0030
3896.00,0.0030
3895.00,0.0030
3894.00,0.0030
3893.00,0.0030
3892.00,0.0029
3891.00,0.0029
3890.00,0.0030
3889.00,0.0030
3888.00,0.0031
3887.00,0.0031
3886.00,0.0030
3885.00,0.0030
3884.00,0.0030
3883.00,0.0030
3882.00,0.0030
3881.00,0.0030
3880.00,0.0030
3879.00,0.0029
3878.00,0.0029
3877.00,0.0030
3876.00,0.0030
3875.00,0.0030
3874.00,0.0030
3873.00,0.0030
3872.00,0.0031
3871.00,0.0031
3870.00,0.0031
3869.00,0.0031
3868.00,0.0031
3867.00,0.0031
3866.00,0.0031
3865.00,0.0031
3864.00,0.0031
3863.00,0.0030
3862.00,0.0030
3861.00,0.0030
3860.00,0.0030
3859.00,0.0030
3858.00,0.0030
3857.00,0.0031
3856.00,0.0031
3855.00,0.0032
3854.00,0.0032
3853.00,0.0032
3852.00,0.0032
3851.00,0.0033
3850.00,0.0033
3849.00,0.0032
3848.00,0.0032
3847.00,0.0031
3846.00,0.0030
3845.00,0.0030
3844.00,0.0030
3843.00,0.0030
3842.00,0.0030
3841.00,0.0031
3840.00,0.0031
3839.00,0.0031
3838.00,0.0031
3837.00,0.0031
3836.00,0.0031
3835.00,0.0031
3834.00,0.0031
3833.00,0.0031
3832.00,0.0031
3831.00,0.0031
3830.00,0.0031
3829.00,0.0031
3828.00,0.0031
3827.00,0.0031
3826.00,0.0031
3825.00,0.0031
3824.00,0.0031
3823.00,0.0031
3822.00,0.0031
3821.00,0.0031
3820.00,0.0031
3819.00,0.0031
3818.00,0.0031
3817.00,0.0031
3816.00,0.0031
3815.00,0.0031
3814.00,0.0031
3813.00,0.0031
3812.00,0.0031
3811.00,0.0031
3810.00,0.0031
3809.00,0.0031
3808.00,0.0031
3807.00,0.0031
3806.00,0.0031
3805.00,0.0031
3804.00,0.0031
3803.00,0.0031
3802.00,0.0031
3801.00,0.0031
3800.00,0.0031
3799.00,0.0031
3798.00,0.0031
3797.00,0.0031
3796.00,0.0031
3795.00,0.0031
3794.00,0.0030
3793.00,0.0030
3792.00,0.0030
3791.00,0.0030
3790.00,0.0030
3789.00,0.0030
3788.00,0.0030
3787.00,0.0030
3786.00,0.0030
3785.00,0.0030
3784.00,0.0030
3783.00,0.0030
3782.00,0.0030
3781.00,0.0030
3780.00,0.0030
3779.00,0.0030
3778.00,0.0030
3777.00,0.0030
3776.00,0.0030
3775.00,0.0031
3774.00,0.0031
3773.00,0.0030
3772.00,0.0030
3771.00,0.0030
3770.00,0.0030
3769.00,0.0030
3768.00,0.0030
3767.00,0.0030
3766.00,0.0030
3765.00,0.0030
3764.00,0.0030
3763.00,0.0030
3762.00,0.0030
3761.00,0.0031
3760.00,0.0031
3759.00,0.0031
3758.00,0.0030
3757.00,0.0030
3756.00,0.0030
3755.00,0.0030
3754.00,0.0031
3753.00,0.0032
3752.00,0.0032
3751.00,0.0032
3750.00,0.0032
3749.00,0.0032
3748.00,0.0032
3747.00,0.0033
3746.00,0.0033
3745.00,0.0032
3744.00,0.0032
3743.00,0.0032
3742.00,0.0032
3741.00,0.0032
3740.00,0.0031
3739.00,0.0031
3738.00,0.0031
3737.00,0.0031
3736.00,0.0031
3735.00,0.0031
3734.00,0.0031
3733.00,0.0031
3732.00,0.0031
3731.00,0.0031
3730.00,0.0031
3729.00,0.0030
3728.00,0.0031
3727.00,0.0031
3726.00,0.0030
3725.00,0.0030
3724.00,0.0030
3723.00,0.0030
3722.00,0.0030
3721.00,0.0030
3720.00,0.0029
3719.00,0.0029
3718.00,0.0029
3717.00,0.0029
3716.00,0.0029
3715.00,0.0029
3714.00,0.0030
3713.00,0.0030
3712.00,0.0030
3711.00,0.0030
3710.00,0.0030
3709.00,0.0030
3708.00,0.0030
3707.00,0.0030
3706.00,0.0030
3705.00,0.0030
3704.00,0.0029
3703.00,0.0029
3702.00,0.0029
3701.00,0.0029
3700.00,0.0029
3699.00,0.0029
3698.00,0.0029
3697.00,0.0029
3696.00,0.0029
3695.00,0.0029
3694.00,0.0029
3693.00,0.0029
3692.00,0.0029
3691.00,0.0029
3690.00,0.0029
3689.00,0.0029
3688.00,0.0030
3687.00,0.0030
3686.00,0.0030
3685.00,0.0030
3684.00,0.0030
3683.00,0.0029
3682.00,0.0029
3681.00,0.0029
3680.00,0.0029
3679.00,0.0030
3678.00,0.0030
3677.00,0.0030
3676.00,0.0030
3675.00,0.0030
3674.00,0.0030
3673.00,0.0030
3672.00,0.0031
3671.00,0.0030
3670.00,0.0030
3669.00,0.0030
3668.00,0.0030
3667.00,0.0030
3666.00,0.0030
3665.00,0.0030
3664.00,0.0029
3663.00,0.0029
3662.00,0.0029
3661.00,0.0029
3660.00,0.0029
3659.00,0.0030
3658.00,0.0030
3657.00,0.0030
3656.00,0.0030
3655.00,0.0030
3654.00,0.0031
3653.00,0.0031
3652.00,0.0032
3651.00,0.0032
3650.00,0.0032
3649.00,0.0032
3648.00,0.0031
3647.00,0.0031
3646.00,0.0031
3645.00,0.0030
3644.00,0.0030
3643.00,0.0030
3642.00,0.0030
3641.00,0.0029
3640.00,0.0029
3639.00,0.0029
3638.00,0.0029
3637.00,0.0029
3636.00,0.0029
3635.00,0.0028
3634.00,0.0028
3633.00,0.0028
3632.00,0.0028
3631.00,0.0029
3630.00,0.0029
3629.00,0.0029
3628.00,0.0029
3627.00,0.0029
3626.00,0.0029
3625.00,0.0029
3624.00,0.0029
3623.00,0.0029
3622.00,0.0029
3621.00,0.0029
3620.00,0.0029
3619.00,0.0029
3618.00,0.0029
3617.00,0.0029
3616.00,0.0029
3615.00,0.0029
3614.00,0.0028
3613.00,0.0028
3612.00,0.0028
3611.00,0.0029
3610.00,0.0029
3609.00,0.0029
3608.00,0.0029
3607.00,0.0029
3606.00,0.0029
3605.00,0.0029
3604.00,0.0028
3603.00,0.0028
3602.00,0.0028
3601.00,0.0028
3600.00,0.0028
3599.00,0.0028
3598.00,0.0028
3597.00,0.0028
3596.00,0.0028
3595.00,0.0027
3594.00,0.0027
3593.00,0.0028
3592.00,0.0028
3591.00,0.0028
3590.00,0.0028
3589.00,0.0028
3588.00,0.0028
3587.00,0.0028
3586.00,0.0028
3585.00,0.0028
3584.00,0.0028
3583.00,0.0028
3582.00,0.0028
3581.00,0.0028
3580.00,0.0028
3579.00,0.0028
3578.00,0.0028
3577.00,0.0028
3576.00,0.0028
3575.00,0.0028
3574.00,0.0028
3573.00,0.0028
3572.00,0.0028
3571.00,0.0028
3570.00,0.0029
3569.00,0.0029
3568.00,0.0028
3567.00,0.0028
3566.00,0.0028
3565.00,0.0028
3564.00,0.0028
3563.00,0.0028
3562.00,0.0028
3561.00,0.0028
3560.00,0.0028
3559.00,0.0028
3558.00,0.0028
3557.00,0.0029
3556.00,0.0029
3555.00,0.0029
3554.00,0.0029
3553.00,0.0029
3552.00,0.0029
3551.00,0.0029
3550.00,0.0029
3549.00,0.0029
3548.00,0.0029
3547.00,0.0029
3546.00,0.0029
3545.00,0.0029
3544.00,0.0029
3543.00,0.0029
3542.00,0.0029
3541.00,0.0029
3540.00,0.0029
3539.00,0.0029
3538.00,0.0029
3537.00,0.0029
3536.00,0.0029
3535.00,0.0030
3534.00,0.0030
3533.00,0.0029
3532.00,0.0029
3531.00,0.0029
3530.00,0.0029
3529.00,0.0029
3528.00,0.0029
3527.00,0.0029
3526.00,0.0030
3525.00,0.0030
3524.00,0.0030
3523.00,0.0030
3522.00,0.0030
3521.00,0.0030
3520.00,0.0030
3519.00,0.0030
3518.00,0.0030
3517.00,0.0030
3516.00,0.0030
3515.00,0.0030
3514.00,0.0030
3513.00,0.0030
3512.00,0.0030
3511.00,0.0030
3510.00,0.0030
3509.00,0.0030
3508.00,0.0030
3507.00,0.0030
3506.00,0.0030
3505.00,0.0030
3504.00,0.0030
3503.00,0.0030
3502.00,0.0030
3501.00,0.0030
3500.00,0.0030
3499.00,0.0030
3498.00,0.0030
3497.00,0.0030
3496.00,0.0030
3495.00,0.0030
3494.00,0.0030
3493.00,0.0030
3492.00,0.0030
3491.00,0.0030
3490.00,0.0030
3489.00,0.0030
3488.00,0.0030
3487.00,0.0030
3486.00,0.0030
3485.00,0.0030
3484.00,0.0029
3483.00,0.0029
3482.00,0.0029
3481.00,0.0029
3480.00,0.0029
3479.00,0.0030
3478.00,0.0030
3477.00,0.0030
3476.00,0.0030
3475.00,0.0030
3474.00,0.0030
3473.00,0.0030
3472.00,0.0029
3471.00,0.0029
3470.00,0.0029
3469.00,0.0028
3468.00,0.0028
3467.00,0.0028
3466.00,0.0027
3465.00,0.0027
3464.00,0.0027
3463.00,0.0026
3462.00,0.0025
3461.00,0.0024
3460.00,0.0023
3459.00,0.0022
3458.00,0.0021
3457.00,0.0020
3456.00,0.0019
3455.00,0.0019
3454.00,0.0018
3453.00,0.0017
3452.00,0.0017
3451.00,0.0016
3450.00,0.0017
3449.00,0.0017
3448.00,0.0019
3447.00,0.0021
3446.00,0.0023
3445.00,0.0025
3444.00,0.0027
3443.00,0.0029
3442.00,0.0030
3441.00,0.0032
3440.00,0.0033
3439.00,0.0034
3438.00,0.0035
3437.00,0.0035
3436.00,0.0035
3435.00,0.0036
3434.00,0.0036
3433.00,0.0035
3432.00,0.0035
3431.00,0.0035
3430.00,0.0034
3429.00,0.0034
3428.00,0.0034
3427.00,0.0034
3426.00,0.0034
3425.00,0.0034
3424.00,0.0033
3423.00,0.0033
3422.00,0.0033
3421.00,0.0033
3420.00,0.0033
3419.00,0.0033
3418.00,0.0033
3417.00,0.0033
3416.00,0.0033
3415.00,0.0033
3414.00,0.0033
3413.00,0.0032
3412.00,0.0032
3411.00,0.0033
3410.00,0.0033
3409.00,0.0033
3408.00,0.0033
3407.00,0.0033
3406.00,0.0033
3405.00,0.0033
3404.00,0.0033
3403.00,0.0033
3402.00,0.0032
3401.00,0.0032
3400.00,0.0032
3399.00,0.0032
3398.00,0.0032
3397.00,0.0032
3396.00,0.0032
3395.00,0.0033
3394.00,0.0033
3393.00,0.0033
3392.00,0.0033
3391.00,0.0033
3390.00,0.0033
3389.00,0.0033
3388.00,0.0033
3387.00,0.0033
3386.00,0.0033
3385.00,0.0033
3384.00,0.0033
3383.00,0.0033
3382.00,0.0033
3381.00,0.0033
3380.00,0.0033
3379.00,0.0033
3378.00,0.0033
3377.00,0.0032
3376.00,0.0032
3375.00,0.0032
3374.00,0.0032
3373.00,0.0032
3372.00,0.0032
3371.00,0.0032
3370.00,0.0032
3369.00,0.0032
3368.00,0.0032
3367.00,0.0032
3366.00,0.0032
3365.00,0.0032
3364.00,0.0032
3363.00,0.0032
3362.00,0.0032
3361.00,0.0032
3360.00,0.0032
3359.00,0.0032
3358.00,0.0032
3357.00,0.0032
3356.00,0.0032
3355.00,0.0032
3354.00,0.0031
3353.00,0.0031
3352.00,0.0031
3351.00,0.0032
3350.00,0.0032
3349.00,0.0032
3348.00,0.0032
3347.00,0.0032
3346.00,0.0032
3345.00,0.0032
3344.00,0.0032
3343.00,0.0032
3342.00,0.0032
3341.00,0.0032
3340.00,0.0032
3339.00,0.0032
3338.00,0.0032
3337.00,0.0032
3336.00,0.0032
3335.00,0.0031
3334.00,0.0031
3333.00,0.0031
3332.00,0.0031
3331.00,0.0031
3330.00,0.0031
3329.00,0.0031
3328.00,0.0031
3327.00,0.0031
3326.00,0.0031
3325.00,0.0031
3324.00,0.0031
3323.00,0.0031
3322.00,0.0031
3321.00,0.0031
3320.00,0.0031
3319.00,0.0031
3318.00,0.0031
3317.00,0.0031
3316.00,0.0031
3315.00,0.0031
3314.00,0.0031
3313.00,0.0031
3312.00,0.0031
3311.00,0.0031
3310.00,0.0031
3309.00,0.0031
3308.00,0.0031
3307.00,0.0030
3306.00,0.0030
3305.00,0.0030
3304.00,0.0030
3303.00,0.0030
3302.00,0.0030
3301.00,0.0030
3300.00,0.0030
3299.00,0.0030
3298.00,0.0031
3297.00,0.0031
3296.00,0.0031
3295.00,0.0031
3294.00,0.0031
3293.00,0.0030
3292.00,0.0030
3291.00,0.0030
3290.00,0.0030
3289.00,0.0030
3288.00,0.0030
3287.00,0.0030
3286.00,0.0030
3285.00,0.0030
3284.00,0.0029
3283.00,0.0029
3282.00,0.0029
3281.00,0.0030
3280.00,0.0030
3279.00,0.0029
3278.00,0.0029
3277.00,0.0029
3276.00,0.0029
3275.00,0.0029
3274.00,0.0030
3273.00,0.0030
3272.00,0.0030
3271.00,0.0030
3270.00,0.0030
3269.00,0.0030
3268.00,0.0029
3267.00,0.0029
3266.00,0.0029
3265.00,0.0029
3264.00,0.0029
3263.00,0.0029
3262.00,0.0029
3261.00,0.0029
3260.00,0.0029
3259.00,0.0029
3258.00,0.0029
3257.00,0.0029
3256.00,0.0029
3255.00,0.0030
3254.00,0.0030
3253.00,0.0030
3252.00,0.0030
3251.00,0.0029
3250.00,0.0029
3249.00,0.0029
3248.00,0.0029
3247.00,0.0029
3246.00,0.0029
3245.00,0.0028
3244.00,0.0028
3243.00,0.0028
3242.00,0.0028
3241.00,0.0029
3240.00,0.0029
3239.00,0.0029
3238.00,0.0028
3237.00,0.0028
3236.00,0.0028
3235.00,0.0028
3234.00,0.0028
3233.00,0.0027
3232.00,0.0027
3231.00,0.0027
3230.00,0.0028
3229.00,0.0028
3228.00,0.0028
3227.00,0.0028
3226.00,0.0028
3225.00,0.0028
3224.00,0.0028
3223.00,0.0028
3222.00,0.0028
3221.00,0.0028
3220.00,0.0028
3219.00,0.0028
3218.00,0.0028
3217.00,0.0028
3216.00,0.0029
3215.00,0.0029
3214.00,0.0029
3213.00,0.0029
3212.00,0.0029
3211.00,0.0029
3210.00,0.0029
3209.00,0.0029
3208.00,0.0030
3207.00,0.0030
3206.00,0.0030
3205.00,0.0030
3204.00,0.0030
3203.00,0.0030
3202.00,0.0030
3201.00,0.0030
3200.00,0.0030
3199.00,0.0030
3198.00,0.0030
3197.00,0.0029
3196.00,0.0029
3195.00,0.0029
3194.00,0.0029
3193.00,0.0029
3192.00,0.0028
3191.00,0.0028
3190.00,0.0028
3189.00,0.0028
3188.00,0.0028
3187.00,0.0028
3186.00,0.0028
3185.00,0.0028
3184.00,0.0028
3183.00,0.0029
3182.00,0.0029
3181.00,0.0029
3180.00,0.0029
3179.00,0.0028
3178.00,0.0028
3177.00,0.0028
3176.00,0.0028
3175.00,0.0028
3174.00,0.0028
3173.00,0.0028
3172.00,0.0029
3171.00,0.0029
3170.00,0.0029
3169.00,0.0029
3168.00,0.0030
3167.00,0.0030
3166.00,0.0031
3165.00,0.0031
3164.00,0.0031
3163.00,0.0032
3162.00,0.0032
3161.00,0.0032
3160.00,0.0031
3159.00,0.0031
3158.00,0.0030
3157.00,0.0030
3156.00,0.0030
3155.00,0.0029
3154.00,0.0029
3153.00,0.0029
3152.00,0.0029
3151.00,0.0029
3150.00,0.0029
3149.00,0.0029
3148.00,0.0029
3147.00,0.0029
3146.00,0.0029
3145.00,0.0029
3144.00,0.0029
3143.00,0.0029
3142.00,0.0028
3141.00,0.0028
3140.00,0.0028
3139.00,0.0028
3138.00,0.0029
3137.00,0.0029
3136.00,0.0029
3135.00,0.0029
3134.00,0.0029
3133.00,0.0029
3132.00,0.0029
3131.00,0.0029
3130.00,0.0029
3129.00,0.0029
3128.00,0.0029
3127.00,0.0029
3126.00,0.0029
3125.00,0.0030
3124.00,0.0030
3123.00,0.0030
3122.00,0.0031
3121.00,0.0031
3120.00,0.0032
3119.00,0.0032
3118.00,0.0033
3117.00,0.0034
3116.00,0.0035
3115.00,0.0037
3114.00,0.0039
3113.00,0.0041
3112.00,0.0043
3111.00,0.0046
3110.00,0.0049
3109.00,0.0052
3108.00,0.0055
3107.00,0.0058
3106.00,0.0060
3105.00,0.0062
3104.00,0.0063
3103.00,0.0063
3102.00,0.0063
3101.00,0.0062
3100.00,0.0061
3099.00,0.0060
3098.00,0.0060
3097.00,0.0060
3096.00,0.0060
3095.00,0.0062
3094.00,0.0064
3093.00,0.0068
3092.00,0.0073
3091.00,0.0080
3090.00,0.0088
3089.00,0.0097
3088.00,0.0107
3087.00,0.0117
3086.00,0.0127
3085.00,0.0136
3084.00,0.0143
3083.00,0.0147
3082.00,0.0147
3081.00,0.0143
3080.00,0.0137
3079.00,0.0131
3078.00,0.0124
3077.00,0.0118
3076.00,0.0113
3075.00,0.0110
3074.00,0.0108
3073.00,0.0108
3072.00,0.0110
3071.00,0.0113
3070.00,0.0118
3069.00,0.0124
3068.00,0.0132
3067.00,0.0142
3066.00,0.0152
3065.00,0.0163
3064.00,0.0175
3063.00,0.0185
3062.00,0.0193
3061.00,0.0198
3060.00,0.0199
3059.00,0.0197
3058.00,0.0191
3057.00,0.0182
3056.00,0.0172
3055.00,0.0161
3054.00,0.0151
3053.00,0.0141
3052.00,0.0132
3051.00,0.0125
3050.00,0.0118
3049.00,0.0113
3048.00,0.0110
3047.00,0.0107
3046.00,0.0106
3045.00,0.0105
3044.00,0.0107
3043.00,0.0109
3042.00,0.0113
3041.00,0.0119
3040.00,0.0125
3039.00,0.0133
3038.00,0.0142
3037.00,0.0154
3036.00,0.0168
3035.00,0.0185
3034.00,0.0205
3033.00,0.0228
3032.00,0.0254
3031.00,0.0281
3030.00,0.0308
3029.00,0.0335
3028.00,0.0357
3027.00,0.0373
3026.00,0.0381
3025.00,0.0379
3024.00,0.0366
3023.00,0.0345
3022.00,0.0318
3021.00,0.0286
3020.00,0.0255
3019.00,0.0225
3018.00,0.0198
3017.00,0.0175
3016.00,0.0156
3015.00,0.0140
3014.00,0.0128
3013.00,0.0119
3012.00,0.0112
3011.00,0.0107
3010.00,0.0104
3009.00,0.0103
3008.00,0.0103
3007.00,0.0105
3006.00,0.0107
3005.00,0.0110
3004.00,0.0114
3003.00,0.0116
3002.00,0.0117
3001.00,0.0116
3000.00,0.0112
2999.00,0.0107
2998.00,0.0100
2997.00,0.0093
2996.00,0.0086
2995.00,0.0080
2994.00,0.0075
2993.00,0.0071
2992.00,0.0068
2991.00,0.0066
2990.00,0.0064
2989.00,0.0063
2988.00,0.0062
2987.00,0.0061
2986.00,0.0061
2985.00,0.0061
2984.00,0.0060
2983.00,0.0060
2982.00,0.0060
2981.00,0.0060
2980.00,0.0060
2979.00,0.0061
2978.00,0.0061
2977.00,0.0062
2976.00,0.0062
2975.00,0.0062
2974.00,0.0062
2973.00,0.0063
2972.00,0.0064
2971.00,0.0064
2970.00,0.0065
2969.00,0.0066
2968.00,0.0068
2967.00,0.0069
2966.00,0.0071
2965.00,0.0073
2964.00,0.0075
2963.00,0.0077
2962.00,0.0080
2961.00,0.0083
2960.00,0.0086
2959.00,0.0089
2958.00,0.0092
2957.00,0.0095
2956.00,0.0099
2955.00,0.0103
2954.00,0.0108
2953.00,0.0113
2952.00,0.0118
2951.00,0.0124
2950.00,0.0131
2949.00,0.0138
2948.00,0.0146
2947.00,0.0155
2946.00,0.0165
2945.00,0.0175
2944.00,0.0186
2943.00,0.0197
2942.00,0.0208
2941.00,0.0220
2940.00,0.0233
2939.00,0.0246
2938.00,0.0260
2937.00,0.0275
2936.00,0.0290
2935.00,0.0306
2934.00,0.0322
2933.00,0.0338
2932.00,0.0353
2931.00,0.0368
2930.00,0.0382
2929.00,0.0395
2928.00,0.0406
2927.00,0.0416
2926.00,0.0424
2925.00,0.0431
2924.00,0.0435
2923.00,0.0438
2922.00,0.0439
2921.00,0.0438
2920.00,0.0436
2919.00,0.0432
2918.00,0.0427
2917.00,0.0420
2916.00,0.0413
2915.00,0.0404
2914.00,0.0395
2913.00,0.0385
2912.00,0.0375
2911.00,0.0365
2910.00,0.0354
2909.00,0.0343
2908.00,0.0333
2907.00,0.0322
2906.00,0.0311
2905.00,0.0300
2904.00,0.0289
2903.00,0.0277
2902.00,0.0266
2901.00,0.0255
2900.00,0.0244
2899.00,0.0234
2898.00,0.0224
2897.00,0.0215
2896.00,0.0207
2895.00,0.0200
2894.00,0.0193
2893.00,0.0187
2892.00,0.0182
2891.00,0.0177
2890.00,0.0173
2889.00,0.0168
2888.00,0.0164
2887.00,0.0160
2886.00,0.0156
2885.00,0.0153
2884.00,0.0149
2883.00,0.0146
2882.00,0.0143
2881.00,0.0139
2880.00,0.0136
2879.00,0.0133
2878.00,0.0130
2877.00,0.0127
2876.00,0.0124
2875.00,0.0121
2874.00,0.0119
2873.00,0.0117
2872.00,0.0115
2871.00,0.0114
2870.00,0.0113
2869.00,0.0113
2868.00,0.0114
2867.00,0.0115
2866.00,0.0118
2865.00,0.0120
2864.00,0.0124
2863.00,0.0128
2862.00,0.0133
2861.00,0.0138
2860.00,0.0144
2859.00,0.0150
2858.00,0.0156
2857.00,0.0163
2856.00,0.0170
2855.00,0.0176
2854.00,0.0182
2853.00,0.0187
2852.00,0.0192
2851.00,0.0195
2850.00,0.0197
2849.00,0.0197
2848.00,0.0196
2847.00,0.0192
2846.00,0.0187
2845.00,0.0180
2844.00,0.0172
2843.00,0.0162
2842.00,0.0151
2841.00,0.0140
2840.00,0.0129
2839.00,0.0118
2838.00,0.0109
2837.00,0.0100
2836.00,0.0092
2835.00,0.0085
2834.00,0.0079
2833.00,0.0075
2832.00,0.0071
2831.00,0.0068
2830.00,0.0066
2829.00,0.0063
2828.00,0.0062
2827.00,0.0061
2826.00,0.0060
2825.00,0.0059
2824.00,0.0058
2823.00,0.0058
2822.00,0.0057
2821.00,0.0057
2820.00,0.0056
2819.00,0.0056
2818.00,0.0055
2817.00,0.0055
2816.00,0.0054
2815.00,0.0054
2814.00,0.0054
2813.00,0.0054
2812.00,0.0053
2811.00,0.0053
2810.00,0.0053
2809.00,0.0052
2808.00,0.0052
2807.00,0.0052
2806.00,0.0051
2805.00,0.0051
2804.00,0.0051
2803.00,0.0050
2802.00,0.0050
2801.00,0.0049
2800.00,0.0049
2799.00,0.0049
2798.00,0.0048
2797.00,0.0048
2796.00,0.0048
2795.00,0.0048
2794.00,0.0048
2793.00,0.0047
2792.00,0.0047
2791.00,0.0047
2790.00,0.0047
2789.00,0.0046
2788.00,0.0046
2787.00,0.0046
2786.00,0.0046
2785.00,0.0046
2784.00,0.0046
2783.00,0.0046
2782.00,0.0046
2781.00,0.0046
2780.00,0.0046
2779.00,0.0045
2778.00,0.0045
2777.00,0.0045
2776.00,0.0045
2775.00,0.0045
2774.00,0.0044
2773.00,0.0044
2772.00,0.0044
2771.00,0.0043
2770.00,0.0043
2769.00,0.0043
2768.00,0.0043
2767.00,0.0043
2766.00,0.0042
2765.00,0.0042
2764.00,0.0042
2763.00,0.0042
2762.00,0.0042
2761.00,0.0041
2760.00,0.0041
2759.00,0.0041
2758.00,0.0041
2757.00,0.0041
2756.00,0.0040
2755.00,0.0040
2754.00,0.0040
2753.00,0.0040
2752.00,0.0040
2751.00,0.0040
2750.00,0.0040
2749.00,0.0040
2748.00,0.0040
2747.00,0.0040
2746.00,0.0040
2745.00,0.0040
2744.00,0.0040
2743.00,0.0040
2742.00,0.0040
2741.00,0.0040
2740.00,0.0040
2739.00,0.0040
2738.00,0.0040
2737.00,0.0040
2736.00,0.0040
2735.00,0.0040
2734.00,0.0040
2733.00,0.0040
2732.00,0.0041
2731.00,0.0041
2730.00,0.0041
2729.00,0.0041
2728.00,0.0041
2727.00,0.0041
2726.00,0.0040
2725.00,0.0040
2724.00,0.0040
2723.00,0.0040
2722.00,0.0040
2721.00,0.0040
2720.00,0.0041
2719.00,0.0041
2718.00,0.0041
2717.00,0.0040
2716.00,0.0040
2715.00,0.0040
2714.00,0.0040
2713.00,0.0040
2712.00,0.0040
2711.00,0.0040
2710.00,0.0040
2709.00,0.0040
2708.00,0.0040
2707.00,0.0040
2706.00,0.0040
2705.00,0.0040
2704.00,0.0040
2703.00,0.0040
2702.00,0.0040
2701.00,0.0039
2700.00,0.0039
2699.00,0.0039
2698.00,0.0039
2697.00,0.0040
2696.00,0.0040
2695.00,0.0040
2694.00,0.0040
2693.00,0.0040
2692.00,0.0040
2691.00,0.0040
2690.00,0.0040
2689.00,0.0039
2688.00,0.0039
2687.00,0.0039
2686.00,0.0039
2685.00,0.0039
2684.00,0.0039
2683.00,0.0039
2682.00,0.0039
2681.00,0.0039
2680.00,0.0039
2679.00,0.0039
2678.00,0.0039
2677.00,0.0039
2676.00,0.0039
2675.00,0.0039
2674.00,0.0039
2673.00,0.0039
2672.00,0.0039
2671.00,0.0039
2670.00,0.0039
2669.00,0.0039
2668.00,0.0039
2667.00,0.0040
2666.00,0.0040
2665.00,0.0041
2664.00,0.0041
2663.00,0.0042
2662.00,0.0042
2661.00,0.0043
2660.00,0.0043
2659.00,0.0043
2658.00,0.0044
2657.00,0.0044
2656.00,0.0044
2655.00,0.0044
2654.00,0.0044
2653.00,0.0044
2652.00,0.0044
2651.00,0.0044
2650.00,0.0044
2649.00,0.0044
2648.00,0.0044
2647.00,0.0044
2646.00,0.0044
2645.00,0.0044
2644.00,0.0044
2643.00,0.0044
2642.00,0.0044
2641.00,0.0044
2640.00,0.0044
2639.00,0.0044
2638.00,0.0044
2637.00,0.0044
2636.00,0.0044
2635.00,0.0044
2634.00,0.0045
2633.00,0.0045
2632.00,0.0045
2631.00,0.0045
2630.00,0.0045
2629.00,0.0044
2628.00,0.0044
2627.00,0.0043
2626.00,0.0043
2625.00,0.0043
2624.00,0.0043
2623.00,0.0042
2622.00,0.0042
2621.00,0.0042
2620.00,0.0042
2619.00,0.0041
2618.00,0.0041
2617.00,0.0041
2616.00,0.0041
2615.00,0.0040
2614.00,0.0040
2613.00,0.0040
2612.00,0.0040
2611.00,0.0040
2610.00,0.0040
2609.00,0.0040
2608.00,0.0041
2607.00,0.0041
2606.00,0.0041
2605.00,0.0041
2604.00,0.0042
2603.00,0.0041
2602.00,0.0041
2601.00,0.0041
2600.00,0.0040
2599.00,0.0040
2598.00,0.0039
2597.00,0.0039
2596.00,0.0039
2595.00,0.0039
2594.00,0.0039
2593.00,0.0038
2592.00,0.0038
2591.00,0.0038
2590.00,0.0038
2589.00,0.0038
2588.00,0.0038
2587.00,0.0038
2586.00,0.0038
2585.00,0.0038
2584.00,0.0038
2583.00,0.0038
2582.00,0.0038
2581.00,0.0038
2580.00,0.0038
2579.00,0.0037
2578.00,0.0037
2577.00,0.0036
2576.00,0.0036
2575.00,0.0036
2574.00,0.0036
2573.00,0.0036
2572.00,0.0036
2571.00,0.0036
2570.00,0.0035
2569.00,0.0035
2568.00,0.0035
2567.00,0.0035
2566.00,0.0035
2565.00,0.0035
2564.00,0.0035
2563.00,0.0035
2562.00,0.0035
2561.00,0.0035
2560.00,0.0035
2559.00,0.0035
2558.00,0.0035
2557.00,0.0035
2556.00,0.0034
2555.00,0.0034
2554.00,0.0034
2553.00,0.0034
2552.00,0.0034
2551.00,0.0034
2550.00,0.0034
2549.00,0.0034
2548.00,0.0034
2547.00,0.0034
2546.00,0.0034
2545.00,0.0033
2544.00,0.0033
2543.00,0.0033
2542.00,0.0034
2541.00,0.0034
2540.00,0.0034
2539.00,0.0034
2538.00,0.0033
2537.00,0.0033
2536.00,0.0033
2535.00,0.0033
2534.00,0.0033
2533.00,0.0033
2532.00,0.0033
2531.00,0.0033
2530.00,0.0033
2529.00,0.0033
2528.00,0.0033
2527.00,0.0033
2526.00,0.0033
2525.00,0.0033
2524.00,0.0033
2523.00,0.0033
2522.00,0.0034
2521.00,0.0034
2520.00,0.0033
2519.00,0.0033
2518.00,0.0033
2517.00,0.0033
2516.00,0.0033
2515.00,0.0033
2514.00,0.0033
2513.00,0.0033
2512.00,0.0033
2511.00,0.0033
2510.00,0.0033
2509.00,0.0033
2508.00,0.0033
2507.00,0.0033
2506.00,0.0033
2505.00,0.0033
2504.00,0.0033
2503.00,0.0033
2502.00,0.0032
2501.00,0.0032
2500.00,0.0032
2499.00,0.0033
2498.00,0.0033
2497.00,0.0033
2496.00,0.0033
2495.00,0.0033
2494.00,0.0032
2493.00,0.0032
2492.00,0.0032
2491.00,0.0032
2490.00,0.0032
2489.00,0.0032
2488.00,0.0032
2487.00,0.0032
2486.00,0.0032
2485.00,0.0032
2484.00,0.0032
2483.00,0.0032
2482.00,0.0032
2481.00,0.0032
2480.00,0.0031
2479.00,0.0031
2478.00,0.0031
2477.00,0.0031
2476.00,0.0031
2475.00,0.0031
2474.00,0.0031
2473.00,0.0031
2472.00,0.0031
2471.00,0.0031
2470.00,0.0031
2469.00,0.0030
2468.00,0.0030
2467.00,0.0030
2466.00,0.0030
2465.00,0.0030
2464.00,0.0030
2463.00,0.0030
2462.00,0.0030
2461.00,0.0030
2460.00,0.0030
2459.00,0.0030
2458.00,0.0031
2457.00,0.0031
2456.00,0.0031
2455.00,0.0031
2454.00,0.0031
2453.00,0.0031
2452.00,0.0031
2451.00,0.0031
2450.00,0.0031
2449.00,0.0031
2448.00,0.0031
2447.00,0.0031
2446.00,0.0030
2445.00,0.0030
2444.00,0.0029
2443.00,0.0029
2442.00,0.0029
2441.00,0.0029
2440.00,0.0029
2439.00,0.0029
2438.00,0.0029
2437.00,0.0029
2436.00,0.0029
2435.00,0.0029
2434.00,0.0029
2433.00,0.0028
2432.00,0.0028
2431.00,0.0027
2430.00,0.0027
2429.00,0.0027
2428.00,0.0027
2427.00,0.0027
2426.00,0.0027
2425.00,0.0027
2424.00,0.0026
2423.00,0.0026
2422.00,0.0026
2421.00,0.0026
2420.00,0.0026
2419.00,0.0026
2418.00,0.0026
2417.00,0.0026
2416.00,0.0026
2415.00,0.0026
2414.00,0.0026
2413.00,0.0026
2412.00,0.0026
2411.00,0.0026
2410.00,0.0026
2409.00,0.0026
2408.00,0.0025
2407.00,0.0025
2406.00,0.0025
2405.00,0.0025
2404.00,0.0025
2403.00,0.0026
2402.00,0.0026
2401.00,0.0026
2400.00,0.0025
2399.00,0.0025
2398.00,0.0025
2397.00,0.0025
2396.00,0.0026
2395.00,0.0026
2394.00,0.0025
2393.00,0.0025
2392.00,0.0025
2391.00,0.0025
2390.00,0.0025
2389.00,0.0025
2388.00,0.0025
2387.00,0.0025
2386.00,0.0025
2385.00,0.0025
2384.00,0.0025
2383.00,0.0025
2382.00,0.0025
2381.00,0.0025
2380.00,0.0026
2379.00,0.0026
2378.00,0.0027
2377.00,0.0027
2376.00,0.0027
2375.00,0.0027
2374.00,0.0027
2373.00,0.0027
2372.00,0.0027
2371.00,0.0026
2370.00,0.0026
2369.00,0.0025
2368.00,0.0025
2367.00,0.0026
2366.00,0.0027
2365.00,0.0028
2364.00,0.0029
2363.00,0.0029
2362.00,0.0030
2361.00,0.0031
2360.00,0.0031
2359.00,0.0031
2358.00,0.0031
2357.00,0.0031
2356.00,0.0031
2355.00,0.0031
2354.00,0.0031
2353.00,0.0031
2352.00,0.0032
2351.00,0.0032
2350.00,0.0033
2349.00,0.0033
2348.00,0.0033
2347.00,0.0034
2346.00,0.0035
2345.00,0.0037
2344.00,0.0038
2343.00,0.0038
2342.00,0.0037
2341.00,0.0037
2340.00,0.0037
2339.00,0.0037
2338.00,0.0037
2337.00,0.0037
2336.00,0.0037
2335.00,0.0037
2334.00,0.0037
2333.00,0.0036
2332.00,0.0035
2331.00,0.0035
2330.00,0.0036
2329.00,0.0038
2328.00,0.0041
2327.00,0.0045
2326.00,0.0048
2325.00,0.0049
2324.00,0.0048
2323.00,0.0046
2322.00,0.0045
2321.00,0.0043
2320.00,0.0043
2319.00,0.0042
2318.00,0.0041
2317.00,0.0040
2316.00,0.0040
2315.00,0.0040
2314.00,0.0040
2313.00,0.0040
2312.00,0.0040
2311.00,0.0040
2310.00,0.0039
2309.00,0.0039
2308.00,0.0038
2307.00,0.0038
2306.00,0.0037
2305.00,0.0037
2304.00,0.0037
2303.00,0.0037
2302.00,0.0037
2301.00,0.0037
2300.00,0.0036
2299.00,0.0036
2298.00,0.0037
2297.00,0.0038
2296.00,0.0039
2295.00,0.0040
2294.00,0.0040
2293.00,0.0041
2292.00,0.0041
2291.00,0.0042
2290.00,0.0042
2289.00,0.0042
2288.00,0.0043
2287.00,0.0043
2286.00,0.0042
2285.00,0.0041
2284.00,0.0041
2283.00,0.0040
2282.00,0.0039
2281.00,0.0038
2280.00,0.0038
2279.00,0.0038
2278.00,0.0038
2277.00,0.0038
2276.00,0.0037
2275.00,0.0037
2274.00,0.0036
2273.00,0.0036
2272.00,0.0035
2271.00,0.0035
2270.00,0.0036
2269.00,0.0035
2268.00,0.0035
2267.00,0.0034
2266.00,0.0034
2265.00,0.0033
2264.00,0.0033
2263.00,0.0034
2262.00,0.0034
2261.00,0.0035
2260.00,0.0035
2259.00,0.0035
2258.00,0.0034
2257.00,0.0033
2256.00,0.0032
2255.00,0.0032
2254.00,0.0032
2253.00,0.0032
2252.00,0.0032
2251.00,0.0032
2250.00,0.0032
2249.00,0.0032
2248.00,0.0032
2247.00,0.0032
2246.00,0.0032
2245.00,0.0031
2244.00,0.0031
2243.00,0.0031
2242.00,0.0031
2241.00,0.0032
2240.00,0.0032
2239.00,0.0032
2238.00,0.0032
2237.00,0.0032
2236.00,0.0032
2235.00,0.0031
2234.00,0.0031
2233.00,0.0030
2232.00,0.0030
2231.00,0.0030
2230.00,0.0030
2229.00,0.0029
2228.00,0.0029
2227.00,0.0028
2226.00,0.0028
2225.00,0.0027
2224.00,0.0028
2223.00,0.0028
2222.00,0.0029
2221.00,0.0028
2220.00,0.0028
2219.00,0.0028
2218.00,0.0028
2217.00,0.0028
2216.00,0.0028
2215.00,0.0029
2214.00,0.0029
2213.00,0.0029
2212.00,0.0029
2211.00,0.0029
2210.00,0.0029
2209.00,0.0028
2208.00,0.0028
2207.00,0.0028
2206.00,0.0029
2205.00,0.0029
2204.00,0.0029
2203.00,0.0029
2202.00,0.0029
2201.00,0.0029
2200.00,0.0030
2199.00,0.0030
2198.00,0.0030
2197.00,0.0030
2196.00,0.0029
2195.00,0.0029
2194.00,0.0029
2193.00,0.0029
2192.00,0.0029
2191.00,0.0030
2190.00,0.0031
2189.00,0.0032
2188.00,0.0033
2187.00,0.0034
2186.00,0.0033
2185.00,0.0031
2184.00,0.0027
2183.00,0.0023
2182.00,0.0020
2181.00,0.0020
2180.00,0.0022
2179.00,0.0024
2178.00,0.0025
2177.00,0.0024
2176.00,0.0023
2175.00,0.0023
2174.00,0.0024
2173.00,0.0026
2172.00,0.0029
2171.00,0.0032
2170.00,0.0034
2169.00,0.0036
2168.00,0.0036
2167.00,0.0037
2166.00,0.0038
2165.00,0.0040
2164.00,0.0041
2163.00,0.0041
2162.00,0.0035
2161.00,0.0022
2160.00,0.0006
2159.00,-0.0008
2158.00,-0.0015
2157.00,-0.0015
2156.00,-0.0011
2155.00,-0.0007
2154.00,-0.0003
2153.00,-0.0001
2152.00,0.0000
2151.00,0.0001
2150.00,0.0001
2149.00,0.0001
2148.00,0.0002
2147.00,0.0003
2146.00,0.0004
2145.00,0.0006
2144.00,0.0007
2143.00,0.0007
2142.00,0.0007
2141.00,0.0007
2140.00,0.0006
2139.00,0.0005
2138.00,0.0003
2137.00,0.0001
2136.00,-0.0002
2135.00,-0.0003
2134.00,-0.0003
2133.00,-0.0001
2132.00,0.0002
2131.00,0.0005
2130.00,0.0007
2129.00,0.0009
2128.00,0.0010
2127.00,0.0012
2126.00,0.0013
2125.00,0.0014
2124.00,0.0015
2123.00,0.0016
2122.00,0.0017
2121.00,0.0018
2120.00,0.0020
2119.00,0.0021
2118.00,0.0022
2117.00,0.0023
2116.00,0.0024
2115.00,0.0024
2114.00,0.0025
2113.00,0.0025
2112.00,0.0024
2111.00,0.0023
2110.00,0.0023
2109.00,0.0022
2108.00,0.0022
2107.00,0.0022
2106.00,0.0023
2105.00,0.0023
2104.00,0.0023
2103.00,0.0023
2102.00,0.0023
2101.00,0.0023
2100.00,0.0023
2099.00,0.0022
2098.00,0.0021
2097.00,0.0019
2096.00,0.0017
2095.00,0.0017
2094.00,0.0018
2093.00,0.0019
2092.00,0.0021
2091.00,0.0022
2090.00,0.0023
2089.00,0.0024
2088.00,0.0025
2087.00,0.0025
2086.00,0.0024
2085.00,0.0024
2084.00,0.0024
2083.00,0.0024
2082.00,0.0024
2081.00,0.0025
2080.00,0.0025
2079.00,0.0026
2078.00,0.0026
2077.00,0.0025
2076.00,0.0025
2075.00,0.0025
2074.00,0.0025
2073.00,0.0025
2072.00,0.0024
2071.00,0.0022
2070.00,0.0021
2069.00,0.0021
2068.00,0.0022
2067.00,0.0022
2066.00,0.0023
2065.00,0.0023
2064.00,0.0022
2063.00,0.0021
2062.00,0.0021
2061.00,0.0021
2060.00,0.0020
2059.00,0.0020
2058.00,0.0020
2057.00,0.0020
2056.00,0.0019
2055.00,0.0020
2054.00,0.0024
2053.00,0.0029
2052.00,0.0034
2051.00,0.0034
2050.00,0.0031
2049.00,0.0027
2048.00,0.0024
2047.00,0.0023
2046.00,0.0023
2045.00,0.0023
2044.00,0.0024
2043.00,0.0024
2042.00,0.0024
2041.00,0.0023
2040.00,0.0023
2039.00,0.0023
2038.00,0.0024
2037.00,0.0023
2036.00,0.0020
2035.00,0.0016
2034.00,0.0013
2033.00,0.0012
2032.00,0.0012
2031.00,0.0014
2030.00,0.0015
2029.00,0.0015
2028.00,0.0016
2027.00,0.0015
2026.00,0.0014
2025.00,0.0013
2024.00,0.0012
2023.00,0.0011
2022.00,0.0011
2021.00,0.0012
2020.00,0.0014
2019.00,0.0016
2018.00,0.0017
2017.00,0.0018
2016.00,0.0018
2015.00,0.0017
2014.00,0.0016
2013.00,0.0015
2012.00,0.0015
2011.00,0.0015
2010.00,0.0014
2009.00,0.0012
2008.00,0.0009
2007.00,0.0006
2006.00,0.0005
2005.00,0.0006
2004.00,0.0008
2003.00,0.0010
2002.00,0.0013
2001.00,0.0015
2000.00,0.0017
1999.00,0.0018
1998.00,0.0019
1997.00,0.0019
1996.00,0.0019
1995.00,0.0019
1994.00,0.0020
1993.00,0.0020
1992.00,0.0021
1991.00,0.0022
1990.00,0.0023
1989.00,0.0025
1988.00,0.0027
1987.00,0.0028
1986.00,0.0029
1985.00,0.0031
1984.00,0.0033
1983.00,0.0037
1982.00,0.0040
1981.00,0.0041
1980.00,0.0038
1979.00,0.0032
1978.00,0.0025
1977.00,0.0020
1976.00,0.0017
1975.00,0.0016
1974.00,0.0015
1973.00,0.0015
1972.00,0.0016
1971.00,0.0018
1970.00,0.0021
1969.00,0.0024
1968.00,0.0028
1967.00,0.0031
1966.00,0.0033
1965.00,0.0033
1964.00,0.0033
1963.00,0.0033
1962.00,0.0034
1961.00,0.0034
1960.00,0.0035
1959.00,0.0036
1958.00,0.0038
1957.00,0.0040
1956.00,0.0042
1955.00,0.0044
1954.00,0.0045
1953.00,0.0047
1952.00,0.0049
1951.00,0.0051
1950.00,0.0054
1949.00,0.0055
1948.00,0.0057
1947.00,0.0058
1946.00,0.0059
1945.00,0.0060
1944.00,0.0062
1943.00,0.0062
1942.00,0.0063
1941.00,0.0063
1940.00,0.0062
1939.00,0.0060
1938.00,0.0058
1937.00,0.0055
1936.00,0.0052
1935.00,0.0049
1934.00,0.0046
1933.00,0.0042
1932.00,0.0040
1931.00,0.0037
1930.00,0.0035
1929.00,0.0033
1928.00,0.0032
1927.00,0.0030
1926.00,0.0029
1925.00,0.0027
1924.00,0.0026
1923.00,0.0026
1922.00,0.0025
1921.00,0.0025
1920.00,0.0025
1919.00,0.0025
1918.00,0.0025
1917.00,0.0024
1916.00,0.0024
1915.00,0.0024
1914.00,0.0024
1913.00,0.0024
1912.00,0.0024
1911.00,0.0024
1910.00,0.0024
1909.00,0.0024
1908.00,0.0024
1907.00,0.0024
1906.00,0.0025
1905.00,0.0025
1904.00,0.0026
1903.00,0.0027
1902.00,0.0027
1901.00,0.0028
1900.00,0.0029
1899.00,0.0030
1898.00,0.0030
1897.00,0.0032
1896.00,0.0033
1895.00,0.0034
1894.00,0.0036
1893.00,0.0038
1892.00,0.0039
1891.00,0.0040
1890.00,0.0042
1889.00,0.0044
1888.00,0.0045
1887.00,0.0046
1886.00,0.0048
1885.00,0.0049
1884.00,0.0050
1883.00,0.0051
1882.00,0.0053
1881.00,0.0053
1880.00,0.0054
1879.00,0.0055
1878.00,0.0056
1877.00,0.0057
1876.00,0.0058
1875.00,0.0059
1874.00,0.0060
1873.00,0.0060
1872.00,0.0061
1871.00,0.0060
1870.00,0.0060
1869.00,0.0060
1868.00,0.0059
1867.00,0.0058
1866.00,0.0058
1865.00,0.0056
1864.00,0.0055
1863.00,0.0052
1862.00,0.0050
1861.00,0.0047
1860.00,0.0045
1859.00,0.0042
1858.00,0.0040
1857.00,0.0038
1856.00,0.0036
1855.00,0.0035
1854.00,0.0033
1853.00,0.0032
1852.00,0.0031
1851.00,0.0031
1850.00,0.0030
1849.00,0.0029
1848.00,0.0028
1847.00,0.0028
1846.00,0.0027
1845.00,0.0026
1844.00,0.0026
1843.00,0.0025
1842.00,0.0025
1841.00,0.0026
1840.00,0.0026
1839.00,0.0027
1838.00,0.0027
1837.00,0.0027
1836.00,0.0027
1835.00,0.0028
1834.00,0.0028
1833.00,0.0029
1832.00,0.0030
1831.00,0.0031
1830.00,0.0032
1829.00,0.0032
1828.00,0.0033
1827.00,0.0035
1826.00,0.0036
1825.00,0.0037
1824.00,0.0038
1823.00,0.0039
1822.00,0.0041
1821.00,0.0042
1820.00,0.0043
1819.00,0.0043
1818.00,0.0043
1817.00,0.0044
1816.00,0.0046
1815.00,0.0048
1814.00,0.0051
1813.00,0.0053
1812.00,0.0055
1811.00,0.0057
1810.00,0.0059
1809.00,0.0060
1808.00,0.0062
1807.00,0.0064
1806.00,0.0065
1805.00,0.0066
1804.00,0.0067
1803.00,0.0067
1802.00,0.0067
1801.00,0.0067
1800.00,0.0066
1799.00,0.0065
1798.00,0.0063
1797.00,0.0061
1796.00,0.0059
1795.00,0.0056
1794.00,0.0054
1793.00,0.0051
1792.00,0.0048
1791.00,0.0045
1790.00,0.0044
1789.00,0.0042
1788.00,0.0041
1787.00,0.0040
1786.00,0.0039
1785.00,0.0039
1784.00,0.0038
1783.00,0.0037
1782.00,0.0037
1781.00,0.0037
1780.00,0.0037
1779.00,0.0037
1778.00,0.0038
1777.00,0.0038
1776.00,0.0038
1775.00,0.0039
1774.00,0.0039
1773.00,0.0039
1772.00,0.0038
1771.00,0.0038
1770.00,0.0038
1769.00,0.0038
1768.00,0.0039
1767.00,0.0039
1766.00,0.0040
1765.00,0.0040
1764.00,0.0041
1763.00,0.0042
1762.00,0.0043
1761.00,0.0044
1760.00,0.0046
1759.00,0.0047
1758.00,0.0049
1757.00,0.0050
1756.00,0.0052
1755.00,0.0054
1754.00,0.0055
1753.00,0.0057
1752.00,0.0058
1751.00,0.0060
1750.00,0.0061
1749.00,0.0063
1748.00,0.0064
1747.00,0.0065
1746.00,0.0065
1745.00,0.0066
1744.00,0.0066
1743.00,0.0066
1742.00,0.0066
1741.00,0.0065
1740.00,0.0065
1739.00,0.0064
1738.00,0.0064
1737.00,0.0063
1736.00,0.0063
1735.00,0.0062
1734.00,0.0060
1733.00,0.0059
1732.00,0.0058
1731.00,0.0058
1730.00,0.0057
1729.00,0.0056
1728.00,0.0055
1727.00,0.0055
1726.00,0.0054
1725.00,0.0054
1724.00,0.0053
1723.00,0.0052
1722.00,0.0052
1721.00,0.0052
1720.00,0.0051
1719.00,0.0050
1718.00,0.0050
1717.00,0.0049
1716.00,0.0049
1715.00,0.0048
1714.00,0.0048
1713.00,0.0047
1712.00,0.0047
1711.00,0.0047
1710.00,0.0046
1709.00,0.0046
1708.00,0.0046
1707.00,0.0046
1706.00,0.0045
1705.00,0.0045
1704.00,0.0045
1703.00,0.0045
1702.00,0.0045
1701.00,0.0045
1700.00,0.0045
1699.00,0.0045
1698.00,0.0045
1697.00,0.0045
1696.00,0.0045
1695.00,0.0045
1694.00,0.0045
1693.00,0.0046
1692.00,0.0046
1691.00,0.0046
1690.00,0.0046
1689.00,0.0046
1688.00,0.0046
1687.00,0.0047
1686.00,0.0048
1685.00,0.0050
1684.00,0.0050
1683.00,0.0050
1682.00,0.0051
1681.00,0.0051
1680.00,0.0051
1679.00,0.0051
1678.00,0.0052
1677.00,0.0052
1676.00,0.0053
1675.00,0.0053
1674.00,0.0054
1673.00,0.0054
1672.00,0.0054
1671.00,0.0054
1670.00,0.0054
1669.00,0.0054
1668.00,0.0055
1667.00,0.0055
1666.00,0.0055
1665.00,0.0055
1664.00,0.0054
1663.00,0.0054
1662.00,0.0054
1661.00,0.0053
1660.00,0.0052
1659.00,0.0051
1658.00,0.0051
1657.00,0.0050
1656.00,0.0050
1655.00,0.0049
1654.00,0.0049
1653.00,0.0048
1652.00,0.0047
1651.00,0.0047
1650.00,0.0047
1649.00,0.0045
1648.00,0.0044
1647.00,0.0043
1646.00,0.0042
1645.00,0.0042
1644.00,0.0042
1643.00,0.0041
1642.00,0.0039
1641.00,0.0038
1640.00,0.0037
1639.00,0.0036
1638.00,0.0035
1637.00,0.0034
1636.00,0.0033
1635.00,0.0033
1634.00,0.0033
1633.00,0.0032
1632.00,0.0031
1631.00,0.0030
1630.00,0.0030
1629.00,0.0030
1628.00,0.0030
1627.00,0.0031
1626.00,0.0032
1625.00,0.0034
1624.00,0.0036
1623.00,0.0038
1622.00,0.0040
1621.00,0.0042
1620.00,0.0044
1619.00,0.0045
1618.00,0.0048
1617.00,0.0051
1616.00,0.0056
1615.00,0.0060
1614.00,0.0064
1613.00,0.0070
1612.00,0.0077
1611.00,0.0087
1610.00,0.0102
1609.00,0.0122
1608.00,0.0149
1607.00,0.0182
1606.00,0.0220
1605.00,0.0261
1604.00,0.0302
1603.00,0.0337
1602.00,0.0359
1601.00,0.0364
1600.00,0.0350
1599.00,0.0321
1598.00,0.0284
1597.00,0.0246
1596.00,0.0211
1595.00,0.0182
1594.00,0.0160
1593.00,0.0142
1592.00,0.0128
1591.00,0.0117
1590.00,0.0110
1589.00,0.0106
1588.00,0.0107
1587.00,0.0114
1586.00,0.0125
1585.00,0.0136
1584.00,0.0144
1583.00,0.0144
1582.00,0.0135
1581.00,0.0119
1580.00,0.0100
1579.00,0.0084
1578.00,0.0070
1577.00,0.0060
1576.00,0.0052
1575.00,0.0048
1574.00,0.0044
1573.00,0.0040
1572.00,0.0036
1571.00,0.0033
1570.00,0.0031
1569.00,0.0030
1568.00,0.0029
1567.00,0.0029
1566.00,0.0028
1565.00,0.0028
1564.00,0.0028
1563.00,0.0028
1562.00,0.0028
1561.00,0.0028
1560.00,0.0028
1559.00,0.0030
1558.00,0.0033
1557.00,0.0036
1556.00,0.0037
1555.00,0.0038
1554.00,0.0040
1553.00,0.0042
1552.00,0.0044
1551.00,0.0046
1550.00,0.0048
1549.00,0.0050
1548.00,0.0052
1547.00,0.0054
1546.00,0.0055
1545.00,0.0056
1544.00,0.0057
1543.00,0.0058
1542.00,0.0058
1541.00,0.0058
1540.00,0.0058
1539.00,0.0058
1538.00,0.0058
1537.00,0.0057
1536.00,0.0055
1535.00,0.0053
1534.00,0.0050
1533.00,0.0048
1532.00,0.0046
1531.00,0.0045
1530.00,0.0044
1529.00,0.0043
1528.00,0.0041
1527.00,0.0040
1526.00,0.0039
1525.00,0.0038
1524.00,0.0037
1523.00,0.0037
1522.00,0.0037
1521.00,0.0037
1520.00,0.0038
1519.00,0.0039
1518.00,0.0040
1517.00,0.0040
1516.00,0.0042
1515.00,0.0043
1514.00,0.0045
1513.00,0.0047
1512.00,0.0048
1511.00,0.0050
1510.00,0.0051
1509.00,0.0052
1508.00,0.0055
1507.00,0.0060
1506.00,0.0068
1505.00,0.0077
1504.00,0.0086
1503.00,0.0096
1502.00,0.0109
1501.00,0.0129
1500.00,0.0159
1499.00,0.0208
1498.00,0.0287
1497.00,0.0410
1496.00,0.0569
1495.00,0.0728
1494.00,0.0848
1493.00,0.0904
1492.00,0.0886
1491.00,0.0794
1490.00,0.0656
1489.00,0.0519
1488.00,0.0412
1487.00,0.0334
1486.00,0.0277
1485.00,0.0234
1484.00,0.0200
1483.00,0.0173
1482.00,0.0151
1481.00,0.0135
1480.00,0.0123
1479.00,0.0114
1478.00,0.0107
1477.00,0.0102
1476.00,0.0098
1475.00,0.0095
1474.00,0.0093
1473.00,0.0091
1472.00,0.0091
1471.00,0.0091
1470.00,0.0091
1469.00,0.0092
1468.00,0.0093
1467.00,0.0094
1466.00,0.0097
1465.00,0.0102
1464.00,0.0110
1463.00,0.0118
1462.00,0.0127
1461.00,0.0140
1460.00,0.0158
1459.00,0.0190
1458.00,0.0260
1457.00,0.0386
1456.00,0.0544
1455.00,0.0689
1454.00,0.0804
1453.00,0.0884
1452.00,0.0917
1451.00,0.0896
1450.00,0.0838
1449.00,0.0764
1448.00,0.0691
1447.00,0.0629
1446.00,0.0577
1445.00,0.0531
1444.00,0.0486
1443.00,0.0443
1442.00,0.0403
1441.00,0.0368
1440.00,0.0337
1439.00,0.0309
1438.00,0.0281
1437.00,0.0253
1436.00,0.0226
1435.00,0.0202
1434.00,0.0184
1433.00,0.0166
1432.00,0.0151
1431.00,0.0137
1430.00,0.0126
1429.00,0.0117
1428.00,0.0109
1427.00,0.0104
1426.00,0.0099
1425.00,0.0095
1424.00,0.0091
1423.00,0.0088
1422.00,0.0086
1421.00,0.0084
1420.00,0.0082
1419.00,0.0081
1418.00,0.0079
1417.00,0.0078
1416.00,0.0077
1415.00,0.0076
1414.00,0.0075
1413.00,0.0075
1412.00,0.0074
1411.00,0.0073
1410.00,0.0073
1409.00,0.0073
1408.00,0.0072
1407.00,0.0071
1406.00,0.0071
1405.00,0.0071
1404.00,0.0071
1403.00,0.0071
1402.00,0.0071
1401.00,0.0072
1400.00,0.0072
1399.00,0.0072
1398.00,0.0073
1397.00,0.0075
1396.00,0.0076
1395.00,0.0079
1394.00,0.0083
1393.00,0.0088
1392.00,0.0093
1391.00,0.0098
1390.00,0.0103
1389.00,0.0109
1388.00,0.0115
1387.00,0.0123
1386.00,0.0130
1385.00,0.0137
1384.00,0.0143
1383.00,0.0148
1382.00,0.0153
1381.00,0.0158
1380.00,0.0163
1379.00,0.0167
1378.00,0.0172
1377.00,0.0176
1376.00,0.0180
1375.00,0.0185
1374.00,0.0189
1373.00,0.0192
1372.00,0.0193
1371.00,0.0193
1370.00,0.0192
1369.00,0.0190
1368.00,0.0189
1367.00,0.0187
1366.00,0.0185
1365.00,0.0183
1364.00,0.0181
1363.00,0.0179
1362.00,0.0178
1361.00,0.0176
1360.00,0.0174
1359.00,0.0171
1358.00,0.0169
1357.00,0.0166
1356.00,0.0164
1355.00,0.0162
1354.00,0.0161
1353.00,0.0160
1352.00,0.0158
1351.00,0.0157
1350.00,0.0157
1349.00,0.0155
1348.00,0.0154
1347.00,0.0152
1346.00,0.0150
1345.00,0.0148
1344.00,0.0146
1343.00,0.0143
1342.00,0.0140
1341.00,0.0138
1340.00,0.0136
1339.00,0.0135
1338.00,0.0135
1337.00,0.0136
1336.00,0.0138
1335.00,0.0140
1334.00,0.0144
1333.00,0.0148
1332.00,0.0153
1331.00,0.0157
1330.00,0.0161
1329.00,0.0163
1328.00,0.0163
1327.00,0.0162
1326.00,0.0159
1325.00,0.0156
1324.00,0.0152
1323.00,0.0149
1322.00,0.0146
1321.00,0.0144
1320.00,0.0142
1319.00,0.0141
1318.00,0.0142
1317.00,0.0143
1316.00,0.0145
1315.00,0.0148
1314.00,0.0150
1313.00,0.0152
1312.00,0.0154
1311.00,0.0154
1310.00,0.0153
1309.00,0.0152
1308.00,0.0149
1307.00,0.0147
1306.00,0.0144
1305.00,0.0140
1304.00,0.0137
1303.00,0.0134
1302.00,0.0131
1301.00,0.0129
1300.00,0.0127
1299.00,0.0125
1298.00,0.0123
1297.00,0.0122
1296.00,0.0121
1295.00,0.0120
1294.00,0.0119
1293.00,0.0118
1292.00,0.0117
1291.00,0.0116
1290.00,0.0114
1289.00,0.0112
1288.00,0.0110
1287.00,0.0109
1286.00,0.0108
1285.00,0.0107
1284.00,0.0106
1283.00,0.0105
1282.00,0.0104
1281.00,0.0103
1280.00,0.0101
1279.00,0.0099
1278.00,0.0098
1277.00,0.0096
1276.00,0.0094
1275.00,0.0093
1274.00,0.0092
1273.00,0.0091
1272.00,0.0090
1271.00,0.0089
1270.00,0.0088
1269.00,0.0087
1268.00,0.0086
1267.00,0.0086
1266.00,0.0085
1265.00,0.0085
1264.00,0.0084
1263.00,0.0084
1262.00,0.0084
1261.00,0.0084
1260.00,0.0083
1259.00,0.0083
1258.00,0.0083
1257.00,0.0084
1256.00,0.0084
1255.00,0.0084
1254.00,0.0084
1253.00,0.0084
1252.00,0.0084
1251.00,0.0084
1250.00,0.0084
1249.00,0.0085
1248.00,0.0084
1247.00,0.0084
1246.00,0.0082
1245.00,0.0081
1244.00,0.0079
1243.00,0.0078
1242.00,0.0078
1241.00,0.0078
1240.00,0.0078
1239.00,0.0079
1238.00,0.0081
1237.00,0.0081
1236.00,0.0082
1235.00,0.0082
1234.00,0.0083
1233.00,0.0083
1232.00,0.0083
1231.00,0.0083
1230.00,0.0083
1229.00,0.0083
1228.00,0.0082
1227.00,0.0082
1226.00,0.0083
1225.00,0.0083
1224.00,0.0084
1223.00,0.0084
1222.00,0.0084
1221.00,0.0084
1220.00,0.0084
1219.00,0.0085
1218.00,0.0085
1217.00,0.0086
1216.00,0.0087
1215.00,0.0088
1214.00,0.0090
1213.00,0.0091
1212.00,0.0093
1211.00,0.0095
1210.00,0.0097
1209.00,0.0099
1208.00,0.0100
1207.00,0.0101
1206.00,0.0102
1205.00,0.0104
1204.00,0.0106
1203.00,0.0109
1202.00,0.0114
1201.00,0.0119
1200.00,0.0124
1199.00,0.0128
1198.00,0.0131
1197.00,0.0133
1196.00,0.0135
1195.00,0.0136
1194.00,0.0137
1193.00,0.0137
1192.00,0.0138
1191.00,0.0139
1190.00,0.0140
1189.00,0.0142
1188.00,0.0145
1187.00,0.0150
1186.00,0.0158
1185.00,0.0166
1184.00,0.0175
1183.00,0.0184
1182.00,0.0189
1181.00,0.0190
1180.00,0.0185
1179.00,0.0175
1178.00,0.0163
1177.00,0.0149
1176.00,0.0136
1175.00,0.0125
1174.00,0.0117
1173.00,0.0110
1172.00,0.0105
1171.00,0.0101
1170.00,0.0099
1169.00,0.0098
1168.00,0.0098
1167.00,0.0099
1166.00,0.0102
1165.00,0.0104
1164.00,0.0107
1163.00,0.0111
1162.00,0.0116
1161.00,0.0124
1160.00,0.0134
1159.00,0.0147
1158.00,0.0161
1157.00,0.0174
1156.00,0.0185
1155.00,0.0190
1154.00,0.0190
1153.00,0.0182
1152.00,0.0169
1151.00,0.0153
1150.00,0.0136
1149.00,0.0121
1148.00,0.0108
1147.00,0.0100
1146.00,0.0094
1145.00,0.0091
1144.00,0.0088
1143.00,0.0086
1142.00,0.0084
1141.00,0.0082
1140.00,0.0080
1139.00,0.0078
1138.00,0.0077
1137.00,0.0076
1136.00,0.0074
1135.00,0.0073
1134.00,0.0073
1133.00,0.0073
1132.00,0.0073
1131.00,0.0073
1130.00,0.0073
1129.00,0.0073
1128.00,0.0073
1127.00,0.0073
1126.00,0.0074
1125.00,0.0075
1124.00,0.0076
1123.00,0.0078
1122.00,0.0080
1121.00,0.0082
1120.00,0.0085
1119.00,0.0088
1118.00,0.0091
1117.00,0.0095
1116.00,0.0098
1115.00,0.0100
1114.00,0.0103
1113.00,0.0104
1112.00,0.0105
1111.00,0.0105
1110.00,0.0104
1109.00,0.0103
1108.00,0.0102
1107.00,0.0101
1106.00,0.0100
1105.00,0.0100
1104.00,0.0100
1103.00,0.0100
1102.00,0.0101
1101.00,0.0102
1100.00,0.0103
1099.00,0.0104
1098.00,0.0106
1097.00,0.0108
1096.00,0.0110
1095.00,0.0112
1094.00,0.0115
1093.00,0.0117
1092.00,0.0119
1091.00,0.0121
1090.00,0.0123
1089.00,0.0126
1088.00,0.0128
1087.00,0.0132
1086.00,0.0137
1085.00,0.0143
1084.00,0.0148
1083.00,0.0154
1082.00,0.0160
1081.00,0.0166
1080.00,0.0172
1079.00,0.0179
1078.00,0.0186
1077.00,0.0194
1076.00,0.0203
1075.00,0.0214
1074.00,0.0225
1073.00,0.0236
1072.00,0.0246
1071.00,0.0254
1070.00,0.0260
1069.00,0.0262
1068.00,0.0260
1067.00,0.0256
1066.00,0.0249
1065.00,0.0240
1064.00,0.0229
1063.00,0.0218
1062.00,0.0208
1061.00,0.0198
1060.00,0.0189
1059.00,0.0181
1058.00,0.0174
1057.00,0.0167
1056.00,0.0159
1055.00,0.0152
1054.00,0.0146
1053.00,0.0141
1052.00,0.0136
1051.00,0.0133
1050.00,0.0132
1049.00,0.0131
1048.00,0.0129
1047.00,0.0128
1046.00,0.0127
1045.00,0.0126
1044.00,0.0125
1043.00,0.0125
1042.00,0.0127
1041.00,0.0129
1040.00,0.0132
1039.00,0.0139
1038.00,0.0150
1037.00,0.0166
1036.00,0.0188
1035.00,0.0219
1034.00,0.0256
1033.00,0.0299
1032.00,0.0343
1031.00,0.0383
1030.00,0.0416
1029.00,0.0438
1028.00,0.0445
1027.00,0.0438
1026.00,0.0417
1025.00,0.0388
1024.00,0.0356
1023.00,0.0326
1022.00,0.0300
1021.00,0.0279
1020.00,0.0261
1019.00,0.0246
1018.00,0.0233
1017.00,0.0221
1016.00,0.0211
1015.00,0.0202
1014.00,0.0195
1013.00,0.0188
1012.00,0.0182
1011.00,0.0178
1010.00,0.0175
1009.00,0.0174
1008.00,0.0175
1007.00,0.0178
1006.00,0.0183
1005.00,0.0189
1004.00,0.0192
1003.00,0.0192
1002.00,0.0187
1001.00,0.0177
1000.00,0.0164
999.00,0.0152
998.00,0.0143
997.00,0.0137
996.00,0.0134
995.00,0.0133
994.00,0.0132
993.00,0.0132
992.00,0.0133
991.00,0.0134
990.00,0.0136
989.00,0.0139
988.00,0.0142
987.00,0.0145
986.00,0.0150
985.00,0.0155
984.00,0.0159
983.00,0.0164
982.00,0.0168
981.00,0.0170
980.00,0.0171
979.00,0.0170
978.00,0.0168
977.00,0.0166
976.00,0.0163
975.00,0.0160
974.00,0.0158
973.00,0.0157
972.00,0.0157
971.00,0.0159
970.00,0.0164
969.00,0.0171
968.00,0.0177
967.00,0.0183
966.00,0.0188
965.00,0.0191
964.00,0.0190
963.00,0.0187
962.00,0.0182
961.00,0.0174
960.00,0.0165
959.00,0.0156
958.00,0.0149
957.00,0.0143
956.00,0.0138
955.00,0.0134
954.00,0.0132
953.00,0.0131
952.00,0.0131
951.00,0.0132
950.00,0.0134
949.00,0.0136
948.00,0.0138
947.00,0.0141
946.00,0.0143
945.00,0.0145
944.00,0.0146
943.00,0.0147
942.00,0.0146
941.00,0.0144
940.00,0.0140
939.00,0.0136
938.00,0.0132
937.00,0.0128
936.00,0.0123
935.00,0.0118
934.00,0.0114
933.00,0.0110
932.00,0.0107
931.00,0.0104
930.00,0.0102
929.00,0.0101
928.00,0.0100
927.00,0.0100
926.00,0.0101
925.00,0.0102
924.00,0.0104
923.00,0.0106
922.00,0.0110
921.00,0.0114
920.00,0.0118
919.00,0.0124
918.00,0.0131
917.00,0.0140
916.00,0.0151
915.00,0.0165
914.00,0.0182
913.00,0.0201
912.00,0.0222
911.00,0.0243
910.00,0.0264
909.00,0.0282
908.00,0.0295
907.00,0.0302
906.00,0.0303
905.00,0.0297
904.00,0.0283
903.00,0.0264
902.00,0.0242
901.00,0.0219
900.00,0.0195
899.00,0.0174
898.00,0.0157
897.00,0.0142
896.00,0.0130
895.00,0.0121
894.00,0.0114
893.00,0.0107
892.00,0.0100
891.00,0.0093
890.00,0.0087
889.00,0.0082
888.00,0.0079
887.00,0.0076
886.00,0.0074
885.00,0.0072
884.00,0.0070
883.00,0.0069
882.00,0.0069
881.00,0.0070
880.00,0.0071
879.00,0.0071
878.00,0.0071
877.00,0.0071
876.00,0.0070
875.00,0.0070
874.00,0.0069
873.00,0.0069
872.00,0.0068
871.00,0.0066
870.00,0.0066
869.00,0.0065
868.00,0.0064
867.00,0.0064
866.00,0.0064
865.00,0.0064
864.00,0.0062
863.00,0.0061
862.00,0.0060
861.00,0.0059
860.00,0.0057
859.00,0.0057
858.00,0.0057
857.00,0.0058
856.00,0.0058
855.00,0.0060
854.00,0.0064
853.00,0.0069
852.00,0.0074
851.00,0.0081
850.00,0.0089
849.00,0.0098
848.00,0.0107
847.00,0.0117
846.00,0.0126
845.00,0.0134
844.00,0.0139
843.00,0.0143
842.00,0.0145
841.00,0.0145
840.00,0.0141
839.00,0.0134
838.00,0.0127
837.00,0.0118
836.00,0.0108
835.00,0.0099
834.00,0.0091
833.00,0.0084
832.00,0.0078
831.00,0.0073
830.00,0.0068
829.00,0.0065
828.00,0.0062
827.00,0.0060
826.00,0.0061
825.00,0.0061
824.00,0.0061
823.00,0.0062
822.00,0.0063
821.00,0.0063
820.00,0.0063
819.00,0.0064
818.00,0.0064
817.00,0.0065
816.00,0.0064
815.00,0.0064
814.00,0.0065
813.00,0.0066
812.00,0.0067
811.00,0.0068
810.00,0.0069
809.00,0.0069
808.00,0.0069
807.00,0.0068
806.00,0.0069
805.00,0.0069
804.00,0.0069
803.00,0.0069
802.00,0.0071
801.00,0.0074
800.00,0.0077
799.00,0.0080
798.00,0.0084
797.00,0.0088
796.00,0.0091
795.00,0.0095
794.00,0.0101
793.00,0.0108
792.00,0.0116
791.00,0.0125
790.00,0.0135
789.00,0.0146
788.00,0.0156
787.00,0.0166
786.00,0.0178
785.00,0.0190
784.00,0.0202
783.00,0.0216
782.00,0.0232
781.00,0.0250
780.00,0.0269
779.00,0.0292
778.00,0.0319
777.00,0.0350
776.00,0.0382
775.00,0.0417
774.00,0.0456
773.00,0.0499
772.00,0.0545
771.00,0.0595
770.00,0.0648
769.00,0.0703
768.00,0.0758
767.00,0.0811
766.00,0.0864
765.00,0.0916
764.00,0.0968
763.00,0.1022
762.00,0.1078
761.00,0.1134
760.00,0.1188
759.00,0.1239
758.00,0.1283
757.00,0.1317
756.00,0.1339
755.00,0.1350
754.00,0.1351
753.00,0.1347
752.00,0.1341
751.00,0.1336
750.00,0.1334
749.00,0.1330
748.00,0.1320
747.00,0.1297
746.00,0.1257
745.00,0.1196
744.00,0.1117
743.00,0.1027
742.00,0.0934
741.00,0.0844
740.00,0.0759
739.00,0.0682
738.00,0.0612
737.00,0.0546
736.00,0.0483
735.00,0.0424
734.00,0.0368
733.00,0.0317
732.00,0.0273
731.00,0.0238
730.00,0.0211
729.00,0.0191
728.00,0.0176
727.00,0.0164
726.00,0.0157
725.00,0.0151
724.00,0.0146
723.00,0.0143
722.00,0.0142
721.00,0.0143
720.00,0.0144
719.00,0.0148
718.00,0.0153
717.00,0.0161
716.00,0.0172
715.00,0.0187
714.00,0.0209
713.00,0.0239
712.00,0.0281
711.00,0.0338
710.00,0.0418
709.00,0.0522
708.00,0.0653
707.00,0.0815
706.00,0.1010
705.00,0.1237
704.00,0.1496
703.00,0.1788
702.00,0.2113
701.00,0.2469
700.00,0.2850
699.00,0.3253
698.00,0.3667
697.00,0.4055
696.00,0.4348
695.00,0.4463
694.00,0.4338
693.00,0.3984
692.00,0.3488
691.00,0.2965
690.00,0.2494
689.00,0.2103
688.00,0.1792
687.00,0.1551
686.00,0.1365
685.00,0.1218
684.00,0.1099
683.00,0.1000
682.00,0.0919
681.00,0.0851
680.00,0.0790
679.00,0.0739
678.00,0.0696
677.00,0.0661
676.00,0.0629
675.00,0.0602
674.00,0.0579
673.00,0.0558
672.00,0.0537
671.00,0.0518
670.00,0.0501
669.00,0.0483
668.00,0.0463
667.00,0.0443
666.00,0.0426
665.00,0.0411
664.00,0.0395
663.00,0.0379
662.00,0.0363
661.00,0.0347
660.00,0.0330
659.00,0.0315
658.00,0.0302
657.00,0.0290
656.00,0.0278
655.00,0.0266
654.00,0.0257
653.00,0.0247
652.00,0.0237
651.00,0.0229
650.00,0.0222
649.00,0.0217
648.00,0.0211
647.00,0.0205
646.00,0.0202
645.00,0.0198
644.00,0.0194
643.00,0.0192
642.00,0.0192
641.00,0.0192
640.00,0.0192
639.00,0.0194
638.00,0.0198
637.00,0.0204
636.00,0.0208
635.00,0.0213
634.00,0.0219
633.00,0.0224
632.00,0.0228
631.00,0.0232
630.00,0.0237
629.00,0.0242
628.00,0.0245
627.00,0.0247
626.00,0.0251
625.00,0.0254
624.00,0.0258
623.00,0.0263
622.00,0.0270
621.00,0.0274
620.00,0.0272
619.00,0.0266
618.00,0.0258
617.00,0.0249
616.00,0.0240
615.00,0.0233
614.00,0.0228
613.00,0.0222
612.00,0.0212
611.00,0.0200
610.00,0.0192
609.00,0.0191
608.00,0.0195
607.00,0.0200
606.00,0.0205
605.00,0.0208
604.00,0.0208
603.00,0.0209
602.00,0.0210
601.00,0.0212
600.00,0.0212
599.00,0.0213
598.00,0.0216
597.00,0.0219
596.00,0.0222
595.00,0.0225
594.00,0.0229
593.00,0.0233
592.00,0.0237
591.00,0.0240
590.00,0.0245
589.00,0.0249
588.00,0.0251
587.00,0.0254
586.00,0.0259
585.00,0.0266
584.00,0.0272
583.00,0.0279
582.00,0.0288
581.00,0.0296
580.00,0.0305
579.00,0.0315
578.00,0.0328
577.00,0.0343
576.00,0.0360
575.00,0.0379
574.00,0.0400
573.00,0.0419
572.00,0.0436
571.00,0.0453
570.00,0.0473
569.00,0.0493
568.00,0.0512
567.00,0.0529
566.00,0.0547
565.00,0.0563
564.00,0.0578
563.00,0.0594
562.00,0.0612
561.00,0.0630
560.00,0.0646
559.00,0.0664
558.00,0.0683
557.00,0.0701
556.00,0.0718
555.00,0.0736
554.00,0.0755
553.00,0.0776
552.00,0.0798
551.00,0.0823
550.00,0.0852
549.00,0.0884
548.00,0.0918
547.00,0.0955
546.00,0.0996
545.00,0.1040
544.00,0.1083
543.00,0.1127
542.00,0.1170
541.00,0.1209
540.00,0.1239
539.00,0.1260
538.00,0.1268
537.00,0.1260
536.00,0.1233
535.00,0.1190
534.00,0.1136
533.00,0.1073
532.00,0.1004
531.00,0.0936
530.00,0.0873
529.00,0.0814
528.00,0.0756
527.00,0.0702
526.00,0.0654
525.00,0.0610
524.00,0.0569
523.00,0.0535
522.00,0.0508
521.00,0.0485
520.00,0.0462
519.00,0.0442
518.00,0.0425
517.00,0.0410
516.00,0.0395
515.00,0.0383
514.00,0.0374
513.00,0.0364
512.00,0.0351
511.00,0.0338
510.00,0.0327
509.00,0.0317
508.00,0.0304
507.00,0.0292
506.00,0.0283
505.00,0.0275
504.00,0.0265
503.00,0.0257
502.00,0.0253
501.00,0.0248
500.00,0.0240
499.00,0.0232
498.00,0.0227
497.00,0.0222
496.00,0.0215
495.00,0.0208
494.00,0.0204
493.00,0.0199
492.00,0.0191
491.00,0.0185
490.00,0.0184
489.00,0.0182
488.00,0.0175
487.00,0.0168
486.00,0.0166
485.00,0.0164
484.00,0.0160
483.00,0.0157
482.00,0.0157
481.00,0.0157
480.00,0.0153
479.00,0.0151
478.00,0.0153
477.00,0.0153
476.00,0.0149
475.00,0.0144
474.00,0.0145
473.00,0.0146
472.00,0.0142
471.00,0.0137
470.00,0.0136
469.00,0.0136
468.00,0.0133
467.00,0.0132
466.00,0.0136
465.00,0.0138
464.00,0.0137
463.00,0.0136
462.00,0.0139
461.00,0.0139
460.00,0.0132
459.00,0.0125
458.00,0.0126
457.00,0.0131
456.00,0.0132
455.00,0.0134
454.00,0.0138
453.00,0.0140
452.00,0.0135
451.00,0.0130
450.00,0.0130
449.00,0.0130
448.00,0.0125
447.00,0.0122
446.00,0.0124
445.00,0.0124
444.00,0.0119
443.00,0.0115
442.00,0.0117
441.00,0.0120
440.00,0.0119
439.00,0.0117
438.00,0.0119
437.00,0.0120
436.00,0.0115
435.00,0.0110
434.00,0.0113
433.00,0.0115
432.00,0.0113
431.00,0.0110
430.00,0.0113
429.00,0.0114
428.00,0.0108
427.00,0.0103
426.00,0.0104
425.00,0.0104
424.00,0.0096
423.00,0.0089
422.00,0.0090
421.00,0.0091
420.00,0.0083
419.00,0.0079
418.00,0.0090
417.00,0.0101
416.00,0.0100
415.00,0.0101
414.00,0.0109
413.00,0.0116
412.00,0.0113
411.00,0.0113
410.00,0.0127
409.00,0.0142
408.00,0.0144
407.00,0.0143
406.00,0.0150
405.00,0.0151
404.00,0.0136
403.00,0.0120
402.00,0.0119
401.00,0.0115
400.00,0.0092
