Created as New Dataset,Sample 1031 By YargerLab Date Monday, August 04 2025
cm-1,A
4000.00,0.0002
3999.00,0.0002
3998.00,0.0002
3997.00,0.0002
3996.00,0.0002
3995.00,0.0002
3994.00,0.0002
3993.00,0.0002
3992.00,0.0002
3991.00,0.0002
3990.00,0.0002
3989.00,0.0002
3988.00,0.0002
3987.00,0.0002
3986.00,0.0002
3985.00,0.0002
3984.00,0.0002
3983.00,0.0002
3982.00,0.0002
3981.00,0.0002
3980.00,0.0002
3979.00,0.0002
3978.00,0.0002
3977.00,0.0002
3976.00,0.0002
3975.00,0.0002
3974.00,0.0002
3973.00,0.0002
3972.00,0.0002
3971.00,0.0002
3970.00,0.0002
3969.00,0.0002
3968.00,0.0002
3967.00,0.0002
3966.00,0.0002
3965.00,0.0002
3964.00,0.0002
3963.00,0.0002
3962.00,0.0002
3961.00,0.0002
3960.00,0.0002
3959.00,0.0002
3958.00,0.0002
3957.00,0.0002
3956.00,0.0002
3955.00,0.0002
3954.00,0.0002
3953.00,0.0002
3952.00,0.0001
3951.00,0.0001
3950.00,0.0001
3949.00,0.0001
3948.00,0.0001
3947.00,0.0001
3946.00,0.0001
3945.00,0.0001
3944.00,0.0001
3943.00,0.0002
3942.00,0.0002
3941.00,0.0002
3940.00,0.0002
3939.00,0.0002
3938.00,0.0002
3937.00,0.0002
3936.00,0.0002
3935.00,0.0002
3934.00,0.0002
3933.00,0.0002
3932.00,0.0001
3931.00,0.0001
3930.00,0.0002
3929.00,0.0002
3928.00,0.0002
3927.00,0.0002
3926.00,0.0002
3925.00,0.0002
3924.00,0.0002
3923.00,0.0003
3922.00,0.0002
3921.00,0.0002
3920.00,0.0001
3919.00,0.0001
3918.00,0.0001
3917.00,0.0001
3916.00,0.0002
3915.00,0.0002
3914.00,0.0002
3913.00,0.0002
3912.00,0.0002
3911.00,0.0002
3910.00,0.0002
3909.00,0.0001
3908.00,0.0001
3907.00,0.0001
3906.00,0.0001
3905.00,0.0001
3904.00,0.0001
3903.00,0.0001
3902.00,0.0001
3901.00,0.0001
3900.00,0.0001
3899.00,0.0001
3898.00,0.0001
3897.00,0.0001
3896.00,0.0001
3895.00,0.0001
3894.00,0.0001
3893.00,0.0001
3892.00,0.0001
3891.00,0.0001
3890.00,0.0001
3889.00,0.0001
3888.00,0.0001
3887.00,0.0001
3886.00,0.0001
3885.00,0.0001
3884.00,0.0001
3883.00,0.0001
3882.00,0.0001
3881.00,0.0000
3880.00,0.0001
3879.00,0.0001
3878.00,0.0001
3877.00,0.0001
3876.00,0.0001
3875.00,0.0001
3874.00,0.0001
3873.00,0.0001
3872.00,0.0001
3871.00,0.0001
3870.00,0.0001
3869.00,0.0001
3868.00,0.0001
3867.00,0.0001
3866.00,0.0001
3865.00,0.0001
3864.00,0.0001
3863.00,0.0001
3862.00,0.0001
3861.00,0.0001
3860.00,0.0001
3859.00,0.0001
3858.00,0.0001
3857.00,0.0001
3856.00,0.0001
3855.00,0.0001
3854.00,0.0001
3853.00,0.0001
3852.00,0.0001
3851.00,0.0001
3850.00,0.0000
3849.00,0.0000
3848.00,0.0001
3847.00,0.0001
3846.00,0.0001
3845.00,0.0001
3844.00,0.0001
3843.00,0.0001
3842.00,0.0001
3841.00,0.0001
3840.00,0.0001
3839.00,0.0001
3838.00,0.0001
3837.00,0.0001
3836.00,0.0001
3835.00,0.0001
3834.00,0.0002
3833.00,0.0002
3832.00,0.0002
3831.00,0.0002
3830.00,0.0002
3829.00,0.0002
3828.00,0.0001
3827.00,0.0001
3826.00,0.0001
3825.00,0.0001
3824.00,0.0001
3823.00,0.0000
3822.00,0.0000
3821.00,0.0000
3820.00,0.0000
3819.00,0.0000
3818.00,0.0000
3817.00,0.0001
3816.00,0.0001
3815.00,0.0001
3814.00,0.0002
3813.00,0.0001
3812.00,0.0001
3811.00,0.0001
3810.00,0.0001
3809.00,0.0001
3808.00,0.0001
3807.00,0.0001
3806.00,0.0002
3805.00,0.0002
3804.00,0.0002
3803.00,0.0002
3802.00,0.0001
3801.00,0.0001
3800.00,0.0001
3799.00,0.0001
3798.00,0.0000
3797.00,0.0001
3796.00,0.0001
3795.00,0.0001
3794.00,0.0002
3793.00,0.0002
3792.00,0.0002
3791.00,0.0002
3790.00,0.0002
3789.00,0.0003
3788.00,0.0003
3787.00,0.0002
3786.00,0.0002
3785.00,0.0002
3784.00,0.0002
3783.00,0.0002
3782.00,0.0001
3781.00,0.0001
3780.00,0.0001
3779.00,0.0002
3778.00,0.0002
3777.00,0.0002
3776.00,0.0002
3775.00,0.0002
3774.00,0.0002
3773.00,0.0002
3772.00,0.0002
3771.00,0.0002
3770.00,0.0002
3769.00,0.0002
3768.00,0.0002
3767.00,0.0002
3766.00,0.0002
3765.00,0.0002
3764.00,0.0002
3763.00,0.0002
3762.00,0.0001
3761.00,0.0001
3760.00,0.0001
3759.00,0.0001
3758.00,0.0001
3757.00,0.0001
3756.00,0.0001
3755.00,0.0001
3754.00,0.0001
3753.00,0.0001
3752.00,0.0001
3751.00,0.0001
3750.00,0.0001
3749.00,0.0000
3748.00,0.0000
3747.00,0.0000
3746.00,0.0000
3745.00,-0.0000
3744.00,-0.0000
3743.00,-0.0000
3742.00,-0.0001
3741.00,-0.0001
3740.00,-0.0001
3739.00,-0.0001
3738.00,-0.0001
3737.00,-0.0001
3736.00,-0.0001
3735.00,-0.0001
3734.00,-0.0000
3733.00,-0.0000
3732.00,-0.0000
3731.00,-0.0000
3730.00,-0.0000
3729.00,-0.0000
3728.00,-0.0000
3727.00,-0.0000
3726.00,-0.0001
3725.00,-0.0001
3724.00,-0.0001
3723.00,-0.0001
3722.00,-0.0000
3721.00,-0.0000
3720.00,0.0000
3719.00,0.0001
3718.00,0.0001
3717.00,0.0001
3716.00,0.0001
3715.00,0.0001
3714.00,0.0001
3713.00,0.0001
3712.00,0.0001
3711.00,0.0001
3710.00,0.0000
3709.00,0.0000
3708.00,0.0000
3707.00,0.0000
3706.00,0.0000
3705.00,0.0000
3704.00,0.0000
3703.00,0.0000
3702.00,0.0000
3701.00,0.0000
3700.00,0.0001
3699.00,0.0001
3698.00,0.0001
3697.00,0.0001
3696.00,0.0001
3695.00,0.0001
3694.00,0.0001
3693.00,0.0001
3692.00,0.0001
3691.00,0.0001
3690.00,0.0000
3689.00,0.0000
3688.00,0.0000
3687.00,0.0000
3686.00,0.0000
3685.00,0.0000
3684.00,0.0000
3683.00,0.0001
3682.00,0.0001
3681.00,0.0001
3680.00,0.0001
3679.00,0.0001
3678.00,0.0001
3677.00,0.0000
3676.00,-0.0001
3675.00,-0.0001
3674.00,-0.0001
3673.00,-0.0001
3672.00,-0.0001
3671.00,-0.0001
3670.00,-0.0001
3669.00,-0.0001
3668.00,-0.0000
3667.00,0.0000
3666.00,0.0000
3665.00,0.0000
3664.00,0.0001
3663.00,0.0001
3662.00,0.0001
3661.00,0.0001
3660.00,0.0001
3659.00,0.0001
3658.00,0.0001
3657.00,0.0001
3656.00,0.0001
3655.00,0.0000
3654.00,0.0000
3653.00,-0.0000
3652.00,-0.0001
3651.00,-0.0001
3650.00,-0.0002
3649.00,-0.0002
3648.00,-0.0001
3647.00,-0.0001
3646.00,-0.0001
3645.00,-0.0000
3644.00,-0.0000
3643.00,0.0000
3642.00,0.0001
3641.00,0.0001
3640.00,0.0001
3639.00,0.0001
3638.00,0.0001
3637.00,0.0001
3636.00,0.0001
3635.00,0.0001
3634.00,0.0001
3633.00,0.0000
3632.00,-0.0000
3631.00,-0.0000
3630.00,-0.0001
3629.00,-0.0001
3628.00,-0.0001
3627.00,-0.0000
3626.00,-0.0000
3625.00,-0.0000
3624.00,-0.0001
3623.00,-0.0001
3622.00,-0.0001
3621.00,-0.0001
3620.00,-0.0000
3619.00,-0.0000
3618.00,-0.0000
3617.00,-0.0000
3616.00,-0.0001
3615.00,-0.0001
3614.00,-0.0001
3613.00,-0.0000
3612.00,-0.0000
3611.00,0.0000
3610.00,0.0000
3609.00,0.0000
3608.00,0.0000
3607.00,0.0000
3606.00,0.0000
3605.00,0.0001
3604.00,0.0000
3603.00,0.0000
3602.00,0.0000
3601.00,0.0000
3600.00,0.0000
3599.00,0.0001
3598.00,0.0001
3597.00,0.0001
3596.00,0.0001
3595.00,0.0001
3594.00,0.0001
3593.00,0.0001
3592.00,0.0001
3591.00,0.0000
3590.00,0.0000
3589.00,0.0000
3588.00,0.0001
3587.00,0.0001
3586.00,0.0001
3585.00,0.0000
3584.00,0.0000
3583.00,0.0000
3582.00,0.0000
3581.00,0.0000
3580.00,0.0001
3579.00,0.0001
3578.00,0.0001
3577.00,0.0002
3576.00,0.0002
3575.00,0.0001
3574.00,0.0001
3573.00,0.0001
3572.00,0.0000
3571.00,0.0000
3570.00,-0.0000
3569.00,-0.0000
3568.00,-0.0000
3567.00,-0.0000
3566.00,0.0000
3565.00,0.0001
3564.00,0.0001
3563.00,0.0001
3562.00,0.0001
3561.00,0.0002
3560.00,0.0002
3559.00,0.0002
3558.00,0.0002
3557.00,0.0002
3556.00,0.0002
3555.00,0.0002
3554.00,0.0002
3553.00,0.0001
3552.00,0.0001
3551.00,0.0001
3550.00,0.0001
3549.00,0.0001
3548.00,0.0001
3547.00,0.0001
3546.00,0.0002
3545.00,0.0002
3544.00,0.0002
3543.00,0.0002
3542.00,0.0002
3541.00,0.0002
3540.00,0.0003
3539.00,0.0003
3538.00,0.0003
3537.00,0.0003
3536.00,0.0003
3535.00,0.0003
3534.00,0.0003
3533.00,0.0002
3532.00,0.0002
3531.00,0.0002
3530.00,0.0002
3529.00,0.0002
3528.00,0.0002
3527.00,0.0002
3526.00,0.0002
3525.00,0.0003
3524.00,0.0003
3523.00,0.0003
3522.00,0.0003
3521.00,0.0003
3520.00,0.0004
3519.00,0.0004
3518.00,0.0004
3517.00,0.0003
3516.00,0.0003
3515.00,0.0003
3514.00,0.0003
3513.00,0.0003
3512.00,0.0003
3511.00,0.0003
3510.00,0.0003
3509.00,0.0004
3508.00,0.0004
3507.00,0.0004
3506.00,0.0004
3505.00,0.0003
3504.00,0.0004
3503.00,0.0004
3502.00,0.0004
3501.00,0.0004
3500.00,0.0004
3499.00,0.0003
3498.00,0.0003
3497.00,0.0003
3496.00,0.0004
3495.00,0.0004
3494.00,0.0004
3493.00,0.0004
3492.00,0.0004
3491.00,0.0005
3490.00,0.0005
3489.00,0.0005
3488.00,0.0005
3487.00,0.0005
3486.00,0.0005
3485.00,0.0005
3484.00,0.0005
3483.00,0.0005
3482.00,0.0005
3481.00,0.0005
3480.00,0.0005
3479.00,0.0005
3478.00,0.0005
3477.00,0.0005
3476.00,0.0004
3475.00,0.0004
3474.00,0.0004
3473.00,0.0005
3472.00,0.0005
3471.00,0.0005
3470.00,0.0005
3469.00,0.0005
3468.00,0.0005
3467.00,0.0005
3466.00,0.0005
3465.00,0.0005
3464.00,0.0005
3463.00,0.0005
3462.00,0.0005
3461.00,0.0005
3460.00,0.0005
3459.00,0.0005
3458.00,0.0005
3457.00,0.0005
3456.00,0.0005
3455.00,0.0005
3454.00,0.0005
3453.00,0.0005
3452.00,0.0005
3451.00,0.0005
3450.00,0.0005
3449.00,0.0005
3448.00,0.0005
3447.00,0.0005
3446.00,0.0005
3445.00,0.0005
3444.00,0.0005
3443.00,0.0005
3442.00,0.0005
3441.00,0.0005
3440.00,0.0005
3439.00,0.0005
3438.00,0.0005
3437.00,0.0005
3436.00,0.0005
3435.00,0.0005
3434.00,0.0005
3433.00,0.0005
3432.00,0.0005
3431.00,0.0005
3430.00,0.0005
3429.00,0.0005
3428.00,0.0005
3427.00,0.0005
3426.00,0.0005
3425.00,0.0005
3424.00,0.0005
3423.00,0.0005
3422.00,0.0005
3421.00,0.0005
3420.00,0.0005
3419.00,0.0005
3418.00,0.0005
3417.00,0.0005
3416.00,0.0005
3415.00,0.0005
3414.00,0.0005
3413.00,0.0005
3412.00,0.0005
3411.00,0.0005
3410.00,0.0005
3409.00,0.0005
3408.00,0.0005
3407.00,0.0006
3406.00,0.0006
3405.00,0.0006
3404.00,0.0005
3403.00,0.0005
3402.00,0.0005
3401.00,0.0005
3400.00,0.0005
3399.00,0.0005
3398.00,0.0005
3397.00,0.0005
3396.00,0.0005
3395.00,0.0005
3394.00,0.0005
3393.00,0.0005
3392.00,0.0005
3391.00,0.0005
3390.00,0.0005
3389.00,0.0005
3388.00,0.0005
3387.00,0.0005
3386.00,0.0005
3385.00,0.0005
3384.00,0.0005
3383.00,0.0005
3382.00,0.0005
3381.00,0.0005
3380.00,0.0005
3379.00,0.0005
3378.00,0.0005
3377.00,0.0005
3376.00,0.0005
3375.00,0.0005
3374.00,0.0005
3373.00,0.0005
3372.00,0.0005
3371.00,0.0005
3370.00,0.0005
3369.00,0.0005
3368.00,0.0005
3367.00,0.0005
3366.00,0.0005
3365.00,0.0005
3364.00,0.0005
3363.00,0.0005
3362.00,0.0004
3361.00,0.0004
3360.00,0.0005
3359.00,0.0005
3358.00,0.0005
3357.00,0.0005
3356.00,0.0005
3355.00,0.0005
3354.00,0.0005
3353.00,0.0005
3352.00,0.0005
3351.00,0.0005
3350.00,0.0005
3349.00,0.0005
3348.00,0.0005
3347.00,0.0005
3346.00,0.0005
3345.00,0.0005
3344.00,0.0005
3343.00,0.0005
3342.00,0.0005
3341.00,0.0005
3340.00,0.0005
3339.00,0.0005
3338.00,0.0005
3337.00,0.0005
3336.00,0.0005
3335.00,0.0005
3334.00,0.0005
3333.00,0.0005
3332.00,0.0005
3331.00,0.0005
3330.00,0.0005
3329.00,0.0005
3328.00,0.0005
3327.00,0.0005
3326.00,0.0005
3325.00,0.0005
3324.00,0.0005
3323.00,0.0005
3322.00,0.0005
3321.00,0.0005
3320.00,0.0005
3319.00,0.0004
3318.00,0.0004
3317.00,0.0004
3316.00,0.0004
3315.00,0.0004
3314.00,0.0004
3313.00,0.0004
3312.00,0.0004
3311.00,0.0004
3310.00,0.0004
3309.00,0.0004
3308.00,0.0004
3307.00,0.0004
3306.00,0.0004
3305.00,0.0004
3304.00,0.0004
3303.00,0.0004
3302.00,0.0004
3301.00,0.0004
3300.00,0.0004
3299.00,0.0004
3298.00,0.0004
3297.00,0.0004
3296.00,0.0004
3295.00,0.0004
3294.00,0.0004
3293.00,0.0004
3292.00,0.0004
3291.00,0.0004
3290.00,0.0004
3289.00,0.0004
3288.00,0.0004
3287.00,0.0004
3286.00,0.0004
3285.00,0.0004
3284.00,0.0004
3283.00,0.0004
3282.00,0.0004
3281.00,0.0004
3280.00,0.0004
3279.00,0.0004
3278.00,0.0004
3277.00,0.0004
3276.00,0.0004
3275.00,0.0004
3274.00,0.0004
3273.00,0.0003
3272.00,0.0004
3271.00,0.0004
3270.00,0.0004
3269.00,0.0004
3268.00,0.0004
3267.00,0.0004
3266.00,0.0004
3265.00,0.0004
3264.00,0.0004
3263.00,0.0004
3262.00,0.0004
3261.00,0.0004
3260.00,0.0003
3259.00,0.0004
3258.00,0.0004
3257.00,0.0004
3256.00,0.0004
3255.00,0.0004
3254.00,0.0004
3253.00,0.0004
3252.00,0.0004
3251.00,0.0004
3250.00,0.0004
3249.00,0.0004
3248.00,0.0004
3247.00,0.0004
3246.00,0.0004
3245.00,0.0004
3244.00,0.0004
3243.00,0.0003
3242.00,0.0003
3241.00,0.0003
3240.00,0.0003
3239.00,0.0003
3238.00,0.0003
3237.00,0.0003
3236.00,0.0003
3235.00,0.0003
3234.00,0.0003
3233.00,0.0003
3232.00,0.0003
3231.00,0.0003
3230.00,0.0003
3229.00,0.0003
3228.00,0.0003
3227.00,0.0003
3226.00,0.0003
3225.00,0.0003
3224.00,0.0003
3223.00,0.0003
3222.00,0.0003
3221.00,0.0003
3220.00,0.0003
3219.00,0.0003
3218.00,0.0003
3217.00,0.0003
3216.00,0.0003
3215.00,0.0002
3214.00,0.0002
3213.00,0.0002
3212.00,0.0003
3211.00,0.0003
3210.00,0.0003
3209.00,0.0003
3208.00,0.0003
3207.00,0.0003
3206.00,0.0003
3205.00,0.0003
3204.00,0.0003
3203.00,0.0003
3202.00,0.0002
3201.00,0.0002
3200.00,0.0002
3199.00,0.0003
3198.00,0.0003
3197.00,0.0002
3196.00,0.0002
3195.00,0.0002
3194.00,0.0002
3193.00,0.0003
3192.00,0.0003
3191.00,0.0003
3190.00,0.0003
3189.00,0.0003
3188.00,0.0003
3187.00,0.0003
3186.00,0.0003
3185.00,0.0002
3184.00,0.0002
3183.00,0.0002
3182.00,0.0002
3181.00,0.0002
3180.00,0.0002
3179.00,0.0002
3178.00,0.0002
3177.00,0.0002
3176.00,0.0002
3175.00,0.0002
3174.00,0.0002
3173.00,0.0002
3172.00,0.0002
3171.00,0.0002
3170.00,0.0002
3169.00,0.0002
3168.00,0.0002
3167.00,0.0002
3166.00,0.0002
3165.00,0.0002
3164.00,0.0002
3163.00,0.0002
3162.00,0.0002
3161.00,0.0002
3160.00,0.0002
3159.00,0.0002
3158.00,0.0002
3157.00,0.0003
3156.00,0.0003
3155.00,0.0003
3154.00,0.0003
3153.00,0.0003
3152.00,0.0003
3151.00,0.0002
3150.00,0.0002
3149.00,0.0002
3148.00,0.0002
3147.00,0.0002
3146.00,0.0002
3145.00,0.0002
3144.00,0.0002
3143.00,0.0002
3142.00,0.0002
3141.00,0.0002
3140.00,0.0002
3139.00,0.0002
3138.00,0.0002
3137.00,0.0002
3136.00,0.0002
3135.00,0.0002
3134.00,0.0002
3133.00,0.0002
3132.00,0.0002
3131.00,0.0002
3130.00,0.0002
3129.00,0.0002
3128.00,0.0002
3127.00,0.0002
3126.00,0.0002
3125.00,0.0002
3124.00,0.0002
3123.00,0.0002
3122.00,0.0002
3121.00,0.0002
3120.00,0.0002
3119.00,0.0002
3118.00,0.0003
3117.00,0.0003
3116.00,0.0003
3115.00,0.0003
3114.00,0.0003
3113.00,0.0004
3112.00,0.0004
3111.00,0.0005
3110.00,0.0005
3109.00,0.0006
3108.00,0.0007
3107.00,0.0008
3106.00,0.0009
3105.00,0.0010
3104.00,0.0010
3103.00,0.0010
3102.00,0.0010
3101.00,0.0010
3100.00,0.0010
3099.00,0.0009
3098.00,0.0009
3097.00,0.0009
3096.00,0.0009
3095.00,0.0009
3094.00,0.0009
3093.00,0.0010
3092.00,0.0011
3091.00,0.0012
3090.00,0.0014
3089.00,0.0015
3088.00,0.0017
3087.00,0.0019
3086.00,0.0022
3085.00,0.0024
3084.00,0.0026
3083.00,0.0028
3082.00,0.0028
3081.00,0.0028
3080.00,0.0028
3079.00,0.0026
3078.00,0.0025
3077.00,0.0023
3076.00,0.0022
3075.00,0.0021
3074.00,0.0020
3073.00,0.0019
3072.00,0.0019
3071.00,0.0020
3070.00,0.0021
3069.00,0.0022
3068.00,0.0024
3067.00,0.0025
3066.00,0.0027
3065.00,0.0030
3064.00,0.0032
3063.00,0.0035
3062.00,0.0037
3061.00,0.0039
3060.00,0.0040
3059.00,0.0040
3058.00,0.0040
3057.00,0.0038
3056.00,0.0036
3055.00,0.0034
3054.00,0.0031
3053.00,0.0029
3052.00,0.0027
3051.00,0.0025
3050.00,0.0023
3049.00,0.0021
3048.00,0.0020
3047.00,0.0020
3046.00,0.0020
3045.00,0.0020
3044.00,0.0020
3043.00,0.0020
3042.00,0.0021
3041.00,0.0021
3040.00,0.0023
3039.00,0.0024
3038.00,0.0026
3037.00,0.0028
3036.00,0.0030
3035.00,0.0033
3034.00,0.0037
3033.00,0.0042
3032.00,0.0047
3031.00,0.0052
3030.00,0.0058
3029.00,0.0064
3028.00,0.0070
3027.00,0.0074
3026.00,0.0078
3025.00,0.0079
3024.00,0.0079
3023.00,0.0076
3022.00,0.0071
3021.00,0.0065
3020.00,0.0059
3019.00,0.0051
3018.00,0.0045
3017.00,0.0038
3016.00,0.0033
3015.00,0.0028
3014.00,0.0025
3013.00,0.0022
3012.00,0.0020
3011.00,0.0018
3010.00,0.0017
3009.00,0.0017
3008.00,0.0017
3007.00,0.0017
3006.00,0.0017
3005.00,0.0017
3004.00,0.0018
3003.00,0.0019
3002.00,0.0019
3001.00,0.0019
3000.00,0.0018
2999.00,0.0017
2998.00,0.0016
2997.00,0.0015
2996.00,0.0014
2995.00,0.0012
2994.00,0.0011
2993.00,0.0010
2992.00,0.0009
2991.00,0.0009
2990.00,0.0008
2989.00,0.0008
2988.00,0.0007
2987.00,0.0007
2986.00,0.0007
2985.00,0.0006
2984.00,0.0006
2983.00,0.0006
2982.00,0.0006
2981.00,0.0006
2980.00,0.0006
2979.00,0.0007
2978.00,0.0007
2977.00,0.0008
2976.00,0.0009
2975.00,0.0009
2974.00,0.0010
2973.00,0.0010
2972.00,0.0011
2971.00,0.0011
2970.00,0.0012
2969.00,0.0014
2968.00,0.0015
2967.00,0.0016
2966.00,0.0017
2965.00,0.0018
2964.00,0.0019
2963.00,0.0019
2962.00,0.0020
2961.00,0.0022
2960.00,0.0023
2959.00,0.0024
2958.00,0.0025
2957.00,0.0026
2956.00,0.0027
2955.00,0.0027
2954.00,0.0028
2953.00,0.0029
2952.00,0.0030
2951.00,0.0032
2950.00,0.0033
2949.00,0.0034
2948.00,0.0036
2947.00,0.0037
2946.00,0.0039
2945.00,0.0041
2944.00,0.0044
2943.00,0.0047
2942.00,0.0050
2941.00,0.0053
2940.00,0.0056
2939.00,0.0060
2938.00,0.0064
2937.00,0.0068
2936.00,0.0073
2935.00,0.0077
2934.00,0.0082
2933.00,0.0087
2932.00,0.0092
2931.00,0.0097
2930.00,0.0101
2929.00,0.0106
2928.00,0.0110
2927.00,0.0114
2926.00,0.0118
2925.00,0.0121
2924.00,0.0124
2923.00,0.0127
2922.00,0.0129
2921.00,0.0130
2920.00,0.0131
2919.00,0.0131
2918.00,0.0130
2917.00,0.0129
2916.00,0.0126
2915.00,0.0122
2914.00,0.0117
2913.00,0.0112
2912.00,0.0106
2911.00,0.0101
2910.00,0.0097
2909.00,0.0093
2908.00,0.0089
2907.00,0.0085
2906.00,0.0082
2905.00,0.0078
2904.00,0.0075
2903.00,0.0072
2902.00,0.0069
2901.00,0.0066
2900.00,0.0063
2899.00,0.0060
2898.00,0.0058
2897.00,0.0055
2896.00,0.0053
2895.00,0.0050
2894.00,0.0048
2893.00,0.0046
2892.00,0.0044
2891.00,0.0042
2890.00,0.0041
2889.00,0.0039
2888.00,0.0038
2887.00,0.0037
2886.00,0.0036
2885.00,0.0035
2884.00,0.0034
2883.00,0.0033
2882.00,0.0032
2881.00,0.0031
2880.00,0.0030
2879.00,0.0030
2878.00,0.0030
2877.00,0.0029
2876.00,0.0029
2875.00,0.0029
2874.00,0.0028
2873.00,0.0028
2872.00,0.0028
2871.00,0.0027
2870.00,0.0027
2869.00,0.0027
2868.00,0.0027
2867.00,0.0028
2866.00,0.0028
2865.00,0.0029
2864.00,0.0030
2863.00,0.0032
2862.00,0.0033
2861.00,0.0035
2860.00,0.0037
2859.00,0.0040
2858.00,0.0042
2857.00,0.0045
2856.00,0.0048
2855.00,0.0051
2854.00,0.0054
2853.00,0.0057
2852.00,0.0059
2851.00,0.0062
2850.00,0.0063
2849.00,0.0063
2848.00,0.0061
2847.00,0.0058
2846.00,0.0054
2845.00,0.0049
2844.00,0.0045
2843.00,0.0041
2842.00,0.0037
2841.00,0.0034
2840.00,0.0030
2839.00,0.0027
2838.00,0.0024
2837.00,0.0021
2836.00,0.0019
2835.00,0.0017
2834.00,0.0015
2833.00,0.0013
2832.00,0.0012
2831.00,0.0011
2830.00,0.0010
2829.00,0.0009
2828.00,0.0009
2827.00,0.0009
2826.00,0.0008
2825.00,0.0008
2824.00,0.0008
2823.00,0.0007
2822.00,0.0007
2821.00,0.0007
2820.00,0.0007
2819.00,0.0006
2818.00,0.0006
2817.00,0.0006
2816.00,0.0006
2815.00,0.0006
2814.00,0.0006
2813.00,0.0006
2812.00,0.0006
2811.00,0.0006
2810.00,0.0006
2809.00,0.0006
2808.00,0.0006
2807.00,0.0006
2806.00,0.0006
2805.00,0.0005
2804.00,0.0005
2803.00,0.0005
2802.00,0.0005
2801.00,0.0005
2800.00,0.0005
2799.00,0.0005
2798.00,0.0005
2797.00,0.0005
2796.00,0.0005
2795.00,0.0004
2794.00,0.0004
2793.00,0.0004
2792.00,0.0004
2791.00,0.0004
2790.00,0.0004
2789.00,0.0004
2788.00,0.0004
2787.00,0.0004
2786.00,0.0004
2785.00,0.0004
2784.00,0.0003
2783.00,0.0003
2782.00,0.0003
2781.00,0.0003
2780.00,0.0004
2779.00,0.0004
2778.00,0.0004
2777.00,0.0004
2776.00,0.0004
2775.00,0.0004
2774.00,0.0004
2773.00,0.0003
2772.00,0.0003
2771.00,0.0003
2770.00,0.0003
2769.00,0.0003
2768.00,0.0003
2767.00,0.0003
2766.00,0.0003
2765.00,0.0003
2764.00,0.0003
2763.00,0.0003
2762.00,0.0003
2761.00,0.0003
2760.00,0.0003
2759.00,0.0003
2758.00,0.0003
2757.00,0.0003
2756.00,0.0003
2755.00,0.0003
2754.00,0.0003
2753.00,0.0003
2752.00,0.0003
2751.00,0.0003
2750.00,0.0003
2749.00,0.0003
2748.00,0.0003
2747.00,0.0003
2746.00,0.0003
2745.00,0.0002
2744.00,0.0003
2743.00,0.0003
2742.00,0.0003
2741.00,0.0003
2740.00,0.0003
2739.00,0.0003
2738.00,0.0003
2737.00,0.0003
2736.00,0.0003
2735.00,0.0003
2734.00,0.0003
2733.00,0.0003
2732.00,0.0003
2731.00,0.0003
2730.00,0.0003
2729.00,0.0003
2728.00,0.0003
2727.00,0.0003
2726.00,0.0002
2725.00,0.0002
2724.00,0.0002
2723.00,0.0002
2722.00,0.0002
2721.00,0.0002
2720.00,0.0002
2719.00,0.0003
2718.00,0.0003
2717.00,0.0003
2716.00,0.0003
2715.00,0.0003
2714.00,0.0003
2713.00,0.0003
2712.00,0.0003
2711.00,0.0003
2710.00,0.0003
2709.00,0.0003
2708.00,0.0003
2707.00,0.0003
2706.00,0.0003
2705.00,0.0002
2704.00,0.0002
2703.00,0.0002
2702.00,0.0003
2701.00,0.0003
2700.00,0.0003
2699.00,0.0003
2698.00,0.0003
2697.00,0.0003
2696.00,0.0003
2695.00,0.0003
2694.00,0.0003
2693.00,0.0003
2692.00,0.0003
2691.00,0.0002
2690.00,0.0002
2689.00,0.0003
2688.00,0.0003
2687.00,0.0003
2686.00,0.0003
2685.00,0.0003
2684.00,0.0003
2683.00,0.0003
2682.00,0.0003
2681.00,0.0003
2680.00,0.0002
2679.00,0.0002
2678.00,0.0002
2677.00,0.0003
2676.00,0.0003
2675.00,0.0003
2674.00,0.0003
2673.00,0.0003
2672.00,0.0003
2671.00,0.0003
2670.00,0.0003
2669.00,0.0003
2668.00,0.0003
2667.00,0.0004
2666.00,0.0004
2665.00,0.0005
2664.00,0.0005
2663.00,0.0005
2662.00,0.0006
2661.00,0.0006
2660.00,0.0006
2659.00,0.0006
2658.00,0.0007
2657.00,0.0007
2656.00,0.0007
2655.00,0.0007
2654.00,0.0007
2653.00,0.0007
2652.00,0.0007
2651.00,0.0007
2650.00,0.0007
2649.00,0.0008
2648.00,0.0008
2647.00,0.0008
2646.00,0.0008
2645.00,0.0007
2644.00,0.0007
2643.00,0.0007
2642.00,0.0007
2641.00,0.0007
2640.00,0.0007
2639.00,0.0007
2638.00,0.0007
2637.00,0.0007
2636.00,0.0008
2635.00,0.0008
2634.00,0.0008
2633.00,0.0008
2632.00,0.0008
2631.00,0.0008
2630.00,0.0008
2629.00,0.0007
2628.00,0.0007
2627.00,0.0007
2626.00,0.0007
2625.00,0.0007
2624.00,0.0006
2623.00,0.0006
2622.00,0.0006
2621.00,0.0006
2620.00,0.0006
2619.00,0.0006
2618.00,0.0006
2617.00,0.0006
2616.00,0.0006
2615.00,0.0006
2614.00,0.0006
2613.00,0.0006
2612.00,0.0006
2611.00,0.0006
2610.00,0.0006
2609.00,0.0006
2608.00,0.0006
2607.00,0.0006
2606.00,0.0006
2605.00,0.0006
2604.00,0.0006
2603.00,0.0006
2602.00,0.0006
2601.00,0.0006
2600.00,0.0006
2599.00,0.0005
2598.00,0.0005
2597.00,0.0005
2596.00,0.0005
2595.00,0.0005
2594.00,0.0005
2593.00,0.0005
2592.00,0.0005
2591.00,0.0004
2590.00,0.0004
2589.00,0.0004
2588.00,0.0004
2587.00,0.0005
2586.00,0.0005
2585.00,0.0005
2584.00,0.0004
2583.00,0.0004
2582.00,0.0004
2581.00,0.0004
2580.00,0.0004
2579.00,0.0004
2578.00,0.0004
2577.00,0.0004
2576.00,0.0004
2575.00,0.0003
2574.00,0.0003
2573.00,0.0003
2572.00,0.0002
2571.00,0.0002
2570.00,0.0002
2569.00,0.0002
2568.00,0.0003
2567.00,0.0003
2566.00,0.0003
2565.00,0.0003
2564.00,0.0003
2563.00,0.0003
2562.00,0.0003
2561.00,0.0003
2560.00,0.0003
2559.00,0.0003
2558.00,0.0003
2557.00,0.0003
2556.00,0.0003
2555.00,0.0003
2554.00,0.0003
2553.00,0.0002
2552.00,0.0002
2551.00,0.0002
2550.00,0.0002
2549.00,0.0002
2548.00,0.0002
2547.00,0.0002
2546.00,0.0002
2545.00,0.0002
2544.00,0.0002
2543.00,0.0002
2542.00,0.0002
2541.00,0.0002
2540.00,0.0002
2539.00,0.0002
2538.00,0.0002
2537.00,0.0002
2536.00,0.0002
2535.00,0.0002
2534.00,0.0002
2533.00,0.0002
2532.00,0.0002
2531.00,0.0002
2530.00,0.0002
2529.00,0.0001
2528.00,0.0001
2527.00,0.0001
2526.00,0.0001
2525.00,0.0001
2524.00,0.0001
2523.00,0.0001
2522.00,0.0001
2521.00,0.0001
2520.00,0.0001
2519.00,0.0001
2518.00,0.0001
2517.00,0.0001
2516.00,0.0002
2515.00,0.0002
2514.00,0.0001
2513.00,0.0001
2512.00,0.0001
2511.00,0.0001
2510.00,0.0001
2509.00,0.0001
2508.00,0.0001
2507.00,0.0001
2506.00,0.0001
2505.00,0.0001
2504.00,0.0001
2503.00,0.0001
2502.00,0.0001
2501.00,0.0001
2500.00,0.0000
2499.00,0.0001
2498.00,0.0001
2497.00,0.0001
2496.00,0.0001
2495.00,0.0001
2494.00,0.0001
2493.00,0.0001
2492.00,0.0001
2491.00,0.0001
2490.00,0.0001
2489.00,0.0001
2488.00,0.0000
2487.00,0.0000
2486.00,0.0000
2485.00,0.0000
2484.00,0.0000
2483.00,0.0000
2482.00,0.0000
2481.00,0.0000
2480.00,0.0000
2479.00,0.0000
2478.00,0.0000
2477.00,0.0000
2476.00,0.0000
2475.00,0.0000
2474.00,0.0000
2473.00,0.0000
2472.00,0.0000
2471.00,0.0000
2470.00,0.0000
2469.00,0.0000
2468.00,0.0001
2467.00,0.0001
2466.00,0.0001
2465.00,0.0000
2464.00,0.0000
2463.00,0.0001
2462.00,0.0001
2461.00,0.0001
2460.00,0.0001
2459.00,0.0002
2458.00,0.0002
2457.00,0.0002
2456.00,0.0002
2455.00,0.0002
2454.00,0.0002
2453.00,0.0001
2452.00,0.0001
2451.00,0.0001
2450.00,0.0001
2449.00,0.0001
2448.00,0.0001
2447.00,0.0000
2446.00,0.0000
2445.00,0.0000
2444.00,0.0001
2443.00,0.0001
2442.00,0.0001
2441.00,0.0001
2440.00,0.0001
2439.00,0.0001
2438.00,0.0000
2437.00,0.0000
2436.00,-0.0000
2435.00,-0.0000
2434.00,-0.0000
2433.00,-0.0000
2432.00,-0.0000
2431.00,-0.0000
2430.00,-0.0001
2429.00,-0.0001
2428.00,-0.0001
2427.00,-0.0001
2426.00,-0.0001
2425.00,-0.0001
2424.00,-0.0001
2423.00,-0.0001
2422.00,-0.0001
2421.00,-0.0001
2420.00,-0.0001
2419.00,-0.0001
2418.00,-0.0001
2417.00,-0.0001
2416.00,-0.0002
2415.00,-0.0002
2414.00,-0.0002
2413.00,-0.0002
2412.00,-0.0002
2411.00,-0.0002
2410.00,-0.0001
2409.00,-0.0002
2408.00,-0.0002
2407.00,-0.0002
2406.00,-0.0002
2405.00,-0.0002
2404.00,-0.0002
2403.00,-0.0002
2402.00,-0.0002
2401.00,-0.0002
2400.00,-0.0002
2399.00,-0.0003
2398.00,-0.0003
2397.00,-0.0003
2396.00,-0.0003
2395.00,-0.0003
2394.00,-0.0003
2393.00,-0.0002
2392.00,-0.0002
2391.00,-0.0002
2390.00,-0.0002
2389.00,-0.0003
2388.00,-0.0003
2387.00,-0.0003
2386.00,-0.0003
2385.00,-0.0003
2384.00,-0.0003
2383.00,-0.0003
2382.00,-0.0003
2381.00,-0.0003
2380.00,-0.0003
2379.00,-0.0003
2378.00,-0.0003
2377.00,-0.0003
2376.00,-0.0003
2375.00,-0.0003
2374.00,-0.0003
2373.00,-0.0003
2372.00,-0.0003
2371.00,-0.0004
2370.00,-0.0004
2369.00,-0.0004
2368.00,-0.0004
2367.00,-0.0004
2366.00,-0.0004
2365.00,-0.0003
2364.00,-0.0003
2363.00,-0.0002
2362.00,-0.0002
2361.00,-0.0002
2360.00,-0.0002
2359.00,-0.0002
2358.00,-0.0002
2357.00,-0.0002
2356.00,-0.0002
2355.00,-0.0003
2354.00,-0.0004
2353.00,-0.0004
2352.00,-0.0004
2351.00,-0.0004
2350.00,-0.0002
2349.00,-0.0001
2348.00,0.0000
2347.00,0.0001
2346.00,0.0001
2345.00,0.0001
2344.00,0.0001
2343.00,0.0001
2342.00,0.0002
2341.00,0.0002
2340.00,0.0002
2339.00,0.0002
2338.00,0.0002
2337.00,0.0002
2336.00,0.0002
2335.00,0.0002
2334.00,0.0002
2333.00,0.0002
2332.00,0.0001
2331.00,0.0001
2330.00,0.0002
2329.00,0.0003
2328.00,0.0006
2327.00,0.0010
2326.00,0.0013
2325.00,0.0014
2324.00,0.0013
2323.00,0.0012
2322.00,0.0010
2321.00,0.0008
2320.00,0.0007
2319.00,0.0007
2318.00,0.0007
2317.00,0.0007
2316.00,0.0007
2315.00,0.0006
2314.00,0.0005
2313.00,0.0005
2312.00,0.0005
2311.00,0.0005
2310.00,0.0005
2309.00,0.0005
2308.00,0.0005
2307.00,0.0005
2306.00,0.0006
2305.00,0.0006
2304.00,0.0006
2303.00,0.0006
2302.00,0.0006
2301.00,0.0006
2300.00,0.0005
2299.00,0.0005
2298.00,0.0006
2297.00,0.0006
2296.00,0.0006
2295.00,0.0007
2294.00,0.0008
2293.00,0.0008
2292.00,0.0009
2291.00,0.0009
2290.00,0.0010
2289.00,0.0010
2288.00,0.0011
2287.00,0.0011
2286.00,0.0011
2285.00,0.0011
2284.00,0.0010
2283.00,0.0009
2282.00,0.0008
2281.00,0.0008
2280.00,0.0008
2279.00,0.0008
2278.00,0.0007
2277.00,0.0007
2276.00,0.0006
2275.00,0.0006
2274.00,0.0006
2273.00,0.0005
2272.00,0.0005
2271.00,0.0005
2270.00,0.0004
2269.00,0.0004
2268.00,0.0003
2267.00,0.0003
2266.00,0.0003
2265.00,0.0003
2264.00,0.0003
2263.00,0.0004
2262.00,0.0004
2261.00,0.0005
2260.00,0.0005
2259.00,0.0005
2258.00,0.0005
2257.00,0.0004
2256.00,0.0003
2255.00,0.0002
2254.00,0.0001
2253.00,0.0001
2252.00,0.0001
2251.00,0.0001
2250.00,0.0001
2249.00,0.0002
2248.00,0.0003
2247.00,0.0003
2246.00,0.0002
2245.00,0.0002
2244.00,0.0001
2243.00,0.0001
2242.00,0.0001
2241.00,0.0002
2240.00,0.0002
2239.00,0.0002
2238.00,0.0002
2237.00,0.0002
2236.00,0.0002
2235.00,0.0003
2234.00,0.0003
2233.00,0.0003
2232.00,0.0003
2231.00,0.0002
2230.00,0.0002
2229.00,0.0001
2228.00,0.0001
2227.00,0.0001
2226.00,0.0000
2225.00,0.0000
2224.00,-0.0000
2223.00,-0.0000
2222.00,-0.0000
2221.00,0.0000
2220.00,0.0001
2219.00,0.0001
2218.00,0.0002
2217.00,0.0002
2216.00,0.0001
2215.00,0.0001
2214.00,0.0001
2213.00,0.0002
2212.00,0.0002
2211.00,0.0002
2210.00,0.0002
2209.00,0.0002
2208.00,0.0001
2207.00,0.0002
2206.00,0.0002
2205.00,0.0002
2204.00,0.0002
2203.00,0.0001
2202.00,0.0000
2201.00,0.0000
2200.00,0.0001
2199.00,0.0002
2198.00,0.0002
2197.00,0.0002
2196.00,0.0002
2195.00,0.0001
2194.00,0.0001
2193.00,0.0001
2192.00,0.0001
2191.00,0.0002
2190.00,0.0002
2189.00,0.0002
2188.00,0.0002
2187.00,0.0003
2186.00,0.0003
2185.00,0.0002
2184.00,0.0001
2183.00,-0.0001
2182.00,-0.0002
2181.00,-0.0001
2180.00,-0.0000
2179.00,0.0001
2178.00,0.0001
2177.00,-0.0001
2176.00,-0.0004
2175.00,-0.0005
2174.00,-0.0005
2173.00,-0.0003
2172.00,0.0001
2171.00,0.0004
2170.00,0.0007
2169.00,0.0009
2168.00,0.0008
2167.00,0.0008
2166.00,0.0007
2165.00,0.0007
2164.00,0.0008
2163.00,0.0008
2162.00,0.0005
2161.00,-0.0003
2160.00,-0.0013
2159.00,-0.0022
2158.00,-0.0026
2157.00,-0.0027
2156.00,-0.0026
2155.00,-0.0024
2154.00,-0.0022
2153.00,-0.0020
2152.00,-0.0018
2151.00,-0.0017
2150.00,-0.0017
2149.00,-0.0016
2148.00,-0.0016
2147.00,-0.0015
2146.00,-0.0015
2145.00,-0.0014
2144.00,-0.0015
2143.00,-0.0015
2142.00,-0.0016
2141.00,-0.0017
2140.00,-0.0018
2139.00,-0.0018
2138.00,-0.0018
2137.00,-0.0018
2136.00,-0.0019
2135.00,-0.0020
2134.00,-0.0020
2133.00,-0.0019
2132.00,-0.0018
2131.00,-0.0016
2130.00,-0.0014
2129.00,-0.0013
2128.00,-0.0011
2127.00,-0.0010
2126.00,-0.0009
2125.00,-0.0008
2124.00,-0.0007
2123.00,-0.0006
2122.00,-0.0005
2121.00,-0.0005
2120.00,-0.0004
2119.00,-0.0004
2118.00,-0.0003
2117.00,-0.0002
2116.00,-0.0001
2115.00,-0.0001
2114.00,-0.0002
2113.00,-0.0002
2112.00,-0.0002
2111.00,-0.0001
2110.00,-0.0002
2109.00,-0.0002
2108.00,-0.0002
2107.00,-0.0002
2106.00,-0.0002
2105.00,-0.0002
2104.00,-0.0002
2103.00,-0.0001
2102.00,-0.0001
2101.00,-0.0001
2100.00,-0.0002
2099.00,-0.0003
2098.00,-0.0003
2097.00,-0.0004
2096.00,-0.0006
2095.00,-0.0006
2094.00,-0.0007
2093.00,-0.0007
2092.00,-0.0006
2091.00,-0.0005
2090.00,-0.0004
2089.00,-0.0004
2088.00,-0.0003
2087.00,-0.0003
2086.00,-0.0002
2085.00,-0.0001
2084.00,-0.0001
2083.00,-0.0000
2082.00,0.0000
2081.00,0.0001
2080.00,0.0001
2079.00,0.0001
2078.00,0.0001
2077.00,0.0000
2076.00,0.0000
2075.00,-0.0000
2074.00,-0.0000
2073.00,-0.0001
2072.00,-0.0001
2071.00,-0.0002
2070.00,-0.0003
2069.00,-0.0004
2068.00,-0.0004
2067.00,-0.0004
2066.00,-0.0004
2065.00,-0.0003
2064.00,-0.0003
2063.00,-0.0004
2062.00,-0.0004
2061.00,-0.0004
2060.00,-0.0004
2059.00,-0.0003
2058.00,-0.0002
2057.00,-0.0001
2056.00,-0.0001
2055.00,-0.0001
2054.00,0.0001
2053.00,0.0005
2052.00,0.0008
2051.00,0.0009
2050.00,0.0007
2049.00,0.0004
2048.00,0.0001
2047.00,-0.0001
2046.00,-0.0001
2045.00,-0.0001
2044.00,-0.0000
2043.00,0.0000
2042.00,0.0001
2041.00,0.0001
2040.00,0.0000
2039.00,0.0000
2038.00,-0.0000
2037.00,-0.0001
2036.00,-0.0002
2035.00,-0.0003
2034.00,-0.0004
2033.00,-0.0005
2032.00,-0.0006
2031.00,-0.0007
2030.00,-0.0008
2029.00,-0.0009
2028.00,-0.0009
2027.00,-0.0008
2026.00,-0.0006
2025.00,-0.0005
2024.00,-0.0005
2023.00,-0.0005
2022.00,-0.0006
2021.00,-0.0007
2020.00,-0.0007
2019.00,-0.0007
2018.00,-0.0006
2017.00,-0.0006
2016.00,-0.0007
2015.00,-0.0009
2014.00,-0.0011
2013.00,-0.0012
2012.00,-0.0011
2011.00,-0.0009
2010.00,-0.0008
2009.00,-0.0009
2008.00,-0.0011
2007.00,-0.0013
2006.00,-0.0014
2005.00,-0.0015
2004.00,-0.0015
2003.00,-0.0014
2002.00,-0.0013
2001.00,-0.0012
2000.00,-0.0010
1999.00,-0.0008
1998.00,-0.0006
1997.00,-0.0006
1996.00,-0.0005
1995.00,-0.0005
1994.00,-0.0005
1993.00,-0.0004
1992.00,-0.0003
1991.00,-0.0001
1990.00,0.0000
1989.00,0.0002
1988.00,0.0003
1987.00,0.0004
1986.00,0.0005
1985.00,0.0005
1984.00,0.0005
1983.00,0.0006
1982.00,0.0007
1981.00,0.0007
1980.00,0.0006
1979.00,0.0002
1978.00,-0.0003
1977.00,-0.0007
1976.00,-0.0010
1975.00,-0.0010
1974.00,-0.0010
1973.00,-0.0009
1972.00,-0.0008
1971.00,-0.0007
1970.00,-0.0006
1969.00,-0.0006
1968.00,-0.0005
1967.00,-0.0003
1966.00,-0.0002
1965.00,-0.0002
1964.00,-0.0003
1963.00,-0.0005
1962.00,-0.0006
1961.00,-0.0007
1960.00,-0.0007
1959.00,-0.0007
1958.00,-0.0007
1957.00,-0.0007
1956.00,-0.0006
1955.00,-0.0006
1954.00,-0.0006
1953.00,-0.0006
1952.00,-0.0005
1951.00,-0.0004
1950.00,-0.0003
1949.00,-0.0002
1948.00,-0.0001
1947.00,-0.0000
1946.00,0.0000
1945.00,0.0001
1944.00,0.0001
1943.00,0.0002
1942.00,0.0002
1941.00,0.0001
1940.00,0.0000
1939.00,0.0000
1938.00,0.0000
1937.00,0.0001
1936.00,0.0000
1935.00,-0.0000
1934.00,-0.0002
1933.00,-0.0003
1932.00,-0.0003
1931.00,-0.0004
1930.00,-0.0004
1929.00,-0.0004
1928.00,-0.0004
1927.00,-0.0005
1926.00,-0.0005
1925.00,-0.0005
1924.00,-0.0006
1923.00,-0.0006
1922.00,-0.0005
1921.00,-0.0005
1920.00,-0.0005
1919.00,-0.0006
1918.00,-0.0006
1917.00,-0.0006
1916.00,-0.0005
1915.00,-0.0005
1914.00,-0.0005
1913.00,-0.0005
1912.00,-0.0005
1911.00,-0.0005
1910.00,-0.0005
1909.00,-0.0005
1908.00,-0.0005
1907.00,-0.0005
1906.00,-0.0005
1905.00,-0.0005
1904.00,-0.0005
1903.00,-0.0005
1902.00,-0.0005
1901.00,-0.0005
1900.00,-0.0005
1899.00,-0.0004
1898.00,-0.0004
1897.00,-0.0004
1896.00,-0.0003
1895.00,-0.0003
1894.00,-0.0002
1893.00,-0.0002
1892.00,-0.0001
1891.00,-0.0001
1890.00,-0.0001
1889.00,-0.0000
1888.00,0.0000
1887.00,0.0001
1886.00,0.0001
1885.00,0.0001
1884.00,0.0001
1883.00,0.0001
1882.00,0.0001
1881.00,0.0002
1880.00,0.0002
1879.00,0.0003
1878.00,0.0003
1877.00,0.0004
1876.00,0.0004
1875.00,0.0003
1874.00,0.0003
1873.00,0.0003
1872.00,0.0003
1871.00,0.0004
1870.00,0.0004
1869.00,0.0003
1868.00,0.0003
1867.00,0.0003
1866.00,0.0003
1865.00,0.0002
1864.00,0.0002
1863.00,0.0001
1862.00,0.0001
1861.00,0.0001
1860.00,0.0000
1859.00,-0.0000
1858.00,-0.0001
1857.00,-0.0001
1856.00,-0.0002
1855.00,-0.0002
1854.00,-0.0003
1853.00,-0.0003
1852.00,-0.0003
1851.00,-0.0004
1850.00,-0.0004
1849.00,-0.0004
1848.00,-0.0004
1847.00,-0.0005
1846.00,-0.0005
1845.00,-0.0005
1844.00,-0.0005
1843.00,-0.0005
1842.00,-0.0005
1841.00,-0.0005
1840.00,-0.0004
1839.00,-0.0004
1838.00,-0.0004
1837.00,-0.0004
1836.00,-0.0004
1835.00,-0.0004
1834.00,-0.0004
1833.00,-0.0004
1832.00,-0.0003
1831.00,-0.0003
1830.00,-0.0003
1829.00,-0.0002
1828.00,-0.0001
1827.00,-0.0001
1826.00,-0.0001
1825.00,-0.0000
1824.00,0.0000
1823.00,0.0001
1822.00,0.0000
1821.00,0.0000
1820.00,-0.0000
1819.00,-0.0001
1818.00,-0.0001
1817.00,-0.0001
1816.00,-0.0000
1815.00,0.0001
1814.00,0.0002
1813.00,0.0003
1812.00,0.0003
1811.00,0.0004
1810.00,0.0005
1809.00,0.0005
1808.00,0.0006
1807.00,0.0007
1806.00,0.0007
1805.00,0.0007
1804.00,0.0007
1803.00,0.0008
1802.00,0.0008
1801.00,0.0008
1800.00,0.0007
1799.00,0.0007
1798.00,0.0006
1797.00,0.0006
1796.00,0.0006
1795.00,0.0006
1794.00,0.0006
1793.00,0.0005
1792.00,0.0005
1791.00,0.0004
1790.00,0.0003
1789.00,0.0003
1788.00,0.0002
1787.00,0.0002
1786.00,0.0002
1785.00,0.0002
1784.00,0.0002
1783.00,0.0001
1782.00,0.0002
1781.00,0.0002
1780.00,0.0002
1779.00,0.0002
1778.00,0.0002
1777.00,0.0001
1776.00,0.0001
1775.00,0.0001
1774.00,0.0001
1773.00,0.0001
1772.00,0.0001
1771.00,0.0002
1770.00,0.0002
1769.00,0.0002
1768.00,0.0003
1767.00,0.0003
1766.00,0.0004
1765.00,0.0004
1764.00,0.0004
1763.00,0.0005
1762.00,0.0005
1761.00,0.0005
1760.00,0.0005
1759.00,0.0005
1758.00,0.0006
1757.00,0.0006
1756.00,0.0007
1755.00,0.0008
1754.00,0.0008
1753.00,0.0009
1752.00,0.0009
1751.00,0.0009
1750.00,0.0009
1749.00,0.0009
1748.00,0.0009
1747.00,0.0010
1746.00,0.0010
1745.00,0.0011
1744.00,0.0012
1743.00,0.0012
1742.00,0.0013
1741.00,0.0013
1740.00,0.0013
1739.00,0.0012
1738.00,0.0012
1737.00,0.0012
1736.00,0.0012
1735.00,0.0011
1734.00,0.0011
1733.00,0.0010
1732.00,0.0009
1731.00,0.0009
1730.00,0.0009
1729.00,0.0009
1728.00,0.0009
1727.00,0.0009
1726.00,0.0009
1725.00,0.0008
1724.00,0.0007
1723.00,0.0007
1722.00,0.0007
1721.00,0.0007
1720.00,0.0007
1719.00,0.0007
1718.00,0.0006
1717.00,0.0006
1716.00,0.0005
1715.00,0.0006
1714.00,0.0006
1713.00,0.0006
1712.00,0.0006
1711.00,0.0005
1710.00,0.0005
1709.00,0.0005
1708.00,0.0005
1707.00,0.0005
1706.00,0.0005
1705.00,0.0005
1704.00,0.0004
1703.00,0.0004
1702.00,0.0004
1701.00,0.0004
1700.00,0.0003
1699.00,0.0002
1698.00,0.0000
1697.00,-0.0001
1696.00,-0.0001
1695.00,-0.0001
1694.00,-0.0002
1693.00,-0.0002
1692.00,-0.0002
1691.00,-0.0002
1690.00,-0.0003
1689.00,-0.0003
1688.00,-0.0003
1687.00,-0.0003
1686.00,-0.0003
1685.00,-0.0002
1684.00,-0.0001
1683.00,-0.0000
1682.00,-0.0000
1681.00,0.0000
1680.00,0.0001
1679.00,0.0002
1678.00,0.0003
1677.00,0.0005
1676.00,0.0006
1675.00,0.0007
1674.00,0.0008
1673.00,0.0009
1672.00,0.0009
1671.00,0.0010
1670.00,0.0012
1669.00,0.0012
1668.00,0.0013
1667.00,0.0013
1666.00,0.0013
1665.00,0.0014
1664.00,0.0015
1663.00,0.0015
1662.00,0.0015
1661.00,0.0016
1660.00,0.0015
1659.00,0.0015
1658.00,0.0015
1657.00,0.0015
1656.00,0.0015
1655.00,0.0015
1654.00,0.0015
1653.00,0.0014
1652.00,0.0014
1651.00,0.0012
1650.00,0.0012
1649.00,0.0012
1648.00,0.0012
1647.00,0.0011
1646.00,0.0011
1645.00,0.0011
1644.00,0.0010
1643.00,0.0010
1642.00,0.0010
1641.00,0.0010
1640.00,0.0010
1639.00,0.0009
1638.00,0.0009
1637.00,0.0008
1636.00,0.0008
1635.00,0.0008
1634.00,0.0008
1633.00,0.0008
1632.00,0.0008
1631.00,0.0008
1630.00,0.0008
1629.00,0.0008
1628.00,0.0008
1627.00,0.0008
1626.00,0.0008
1625.00,0.0007
1624.00,0.0007
1623.00,0.0007
1622.00,0.0007
1621.00,0.0007
1620.00,0.0007
1619.00,0.0007
1618.00,0.0007
1617.00,0.0008
1616.00,0.0008
1615.00,0.0009
1614.00,0.0010
1613.00,0.0012
1612.00,0.0013
1611.00,0.0016
1610.00,0.0019
1609.00,0.0023
1608.00,0.0029
1607.00,0.0037
1606.00,0.0046
1605.00,0.0056
1604.00,0.0066
1603.00,0.0076
1602.00,0.0082
1601.00,0.0085
1600.00,0.0084
1599.00,0.0078
1598.00,0.0070
1597.00,0.0060
1596.00,0.0051
1595.00,0.0043
1594.00,0.0037
1593.00,0.0032
1592.00,0.0028
1591.00,0.0026
1590.00,0.0024
1589.00,0.0022
1588.00,0.0023
1587.00,0.0024
1586.00,0.0027
1585.00,0.0030
1584.00,0.0033
1583.00,0.0035
1582.00,0.0034
1581.00,0.0031
1580.00,0.0027
1579.00,0.0023
1578.00,0.0019
1577.00,0.0016
1576.00,0.0013
1575.00,0.0012
1574.00,0.0010
1573.00,0.0010
1572.00,0.0009
1571.00,0.0008
1570.00,0.0008
1569.00,0.0007
1568.00,0.0007
1567.00,0.0006
1566.00,0.0006
1565.00,0.0006
1564.00,0.0006
1563.00,0.0006
1562.00,0.0006
1561.00,0.0006
1560.00,0.0005
1559.00,0.0006
1558.00,0.0006
1557.00,0.0006
1556.00,0.0006
1555.00,0.0006
1554.00,0.0007
1553.00,0.0007
1552.00,0.0007
1551.00,0.0008
1550.00,0.0009
1549.00,0.0009
1548.00,0.0010
1547.00,0.0011
1546.00,0.0011
1545.00,0.0012
1544.00,0.0012
1543.00,0.0012
1542.00,0.0013
1541.00,0.0012
1540.00,0.0012
1539.00,0.0012
1538.00,0.0011
1537.00,0.0011
1536.00,0.0011
1535.00,0.0011
1534.00,0.0010
1533.00,0.0009
1532.00,0.0008
1531.00,0.0007
1530.00,0.0007
1529.00,0.0006
1528.00,0.0006
1527.00,0.0006
1526.00,0.0006
1525.00,0.0005
1524.00,0.0005
1523.00,0.0005
1522.00,0.0005
1521.00,0.0005
1520.00,0.0005
1519.00,0.0005
1518.00,0.0005
1517.00,0.0006
1516.00,0.0006
1515.00,0.0007
1514.00,0.0007
1513.00,0.0007
1512.00,0.0007
1511.00,0.0007
1510.00,0.0008
1509.00,0.0008
1508.00,0.0009
1507.00,0.0010
1506.00,0.0013
1505.00,0.0014
1504.00,0.0016
1503.00,0.0018
1502.00,0.0022
1501.00,0.0027
1500.00,0.0035
1499.00,0.0046
1498.00,0.0063
1497.00,0.0089
1496.00,0.0124
1495.00,0.0162
1494.00,0.0196
1493.00,0.0220
1492.00,0.0228
1491.00,0.0213
1490.00,0.0180
1489.00,0.0141
1488.00,0.0109
1487.00,0.0087
1486.00,0.0070
1485.00,0.0058
1484.00,0.0049
1483.00,0.0042
1482.00,0.0036
1481.00,0.0031
1480.00,0.0028
1479.00,0.0026
1478.00,0.0025
1477.00,0.0024
1476.00,0.0024
1475.00,0.0024
1474.00,0.0024
1473.00,0.0024
1472.00,0.0025
1471.00,0.0025
1470.00,0.0025
1469.00,0.0026
1468.00,0.0028
1467.00,0.0029
1466.00,0.0030
1465.00,0.0031
1464.00,0.0033
1463.00,0.0034
1462.00,0.0036
1461.00,0.0038
1460.00,0.0042
1459.00,0.0050
1458.00,0.0064
1457.00,0.0088
1456.00,0.0121
1455.00,0.0155
1454.00,0.0187
1453.00,0.0214
1452.00,0.0229
1451.00,0.0231
1450.00,0.0222
1449.00,0.0205
1448.00,0.0186
1447.00,0.0167
1446.00,0.0153
1445.00,0.0141
1444.00,0.0130
1443.00,0.0119
1442.00,0.0109
1441.00,0.0100
1440.00,0.0092
1439.00,0.0085
1438.00,0.0078
1437.00,0.0069
1436.00,0.0059
1435.00,0.0051
1434.00,0.0045
1433.00,0.0041
1432.00,0.0037
1431.00,0.0033
1430.00,0.0029
1429.00,0.0026
1428.00,0.0024
1427.00,0.0022
1426.00,0.0021
1425.00,0.0019
1424.00,0.0018
1423.00,0.0017
1422.00,0.0017
1421.00,0.0016
1420.00,0.0016
1419.00,0.0015
1418.00,0.0015
1417.00,0.0015
1416.00,0.0015
1415.00,0.0015
1414.00,0.0015
1413.00,0.0015
1412.00,0.0015
1411.00,0.0014
1410.00,0.0014
1409.00,0.0014
1408.00,0.0014
1407.00,0.0014
1406.00,0.0014
1405.00,0.0014
1404.00,0.0014
1403.00,0.0014
1402.00,0.0014
1401.00,0.0014
1400.00,0.0014
1399.00,0.0014
1398.00,0.0015
1397.00,0.0016
1396.00,0.0016
1395.00,0.0017
1394.00,0.0018
1393.00,0.0019
1392.00,0.0020
1391.00,0.0021
1390.00,0.0023
1389.00,0.0025
1388.00,0.0027
1387.00,0.0029
1386.00,0.0031
1385.00,0.0033
1384.00,0.0034
1383.00,0.0036
1382.00,0.0037
1381.00,0.0039
1380.00,0.0040
1379.00,0.0042
1378.00,0.0044
1377.00,0.0045
1376.00,0.0047
1375.00,0.0048
1374.00,0.0049
1373.00,0.0049
1372.00,0.0049
1371.00,0.0049
1370.00,0.0049
1369.00,0.0049
1368.00,0.0049
1367.00,0.0048
1366.00,0.0048
1365.00,0.0048
1364.00,0.0048
1363.00,0.0047
1362.00,0.0046
1361.00,0.0045
1360.00,0.0045
1359.00,0.0044
1358.00,0.0043
1357.00,0.0042
1356.00,0.0042
1355.00,0.0041
1354.00,0.0041
1353.00,0.0041
1352.00,0.0041
1351.00,0.0041
1350.00,0.0041
1349.00,0.0041
1348.00,0.0041
1347.00,0.0041
1346.00,0.0040
1345.00,0.0040
1344.00,0.0039
1343.00,0.0038
1342.00,0.0037
1341.00,0.0036
1340.00,0.0035
1339.00,0.0035
1338.00,0.0035
1337.00,0.0036
1336.00,0.0037
1335.00,0.0038
1334.00,0.0039
1333.00,0.0040
1332.00,0.0041
1331.00,0.0042
1330.00,0.0043
1329.00,0.0043
1328.00,0.0043
1327.00,0.0043
1326.00,0.0043
1325.00,0.0042
1324.00,0.0042
1323.00,0.0041
1322.00,0.0040
1321.00,0.0040
1320.00,0.0040
1319.00,0.0040
1318.00,0.0040
1317.00,0.0040
1316.00,0.0041
1315.00,0.0042
1314.00,0.0042
1313.00,0.0042
1312.00,0.0042
1311.00,0.0042
1310.00,0.0041
1309.00,0.0041
1308.00,0.0040
1307.00,0.0040
1306.00,0.0039
1305.00,0.0038
1304.00,0.0038
1303.00,0.0037
1302.00,0.0036
1301.00,0.0036
1300.00,0.0035
1299.00,0.0035
1298.00,0.0035
1297.00,0.0035
1296.00,0.0034
1295.00,0.0034
1294.00,0.0034
1293.00,0.0033
1292.00,0.0032
1291.00,0.0031
1290.00,0.0030
1289.00,0.0029
1288.00,0.0028
1287.00,0.0028
1286.00,0.0027
1285.00,0.0027
1284.00,0.0027
1283.00,0.0027
1282.00,0.0027
1281.00,0.0027
1280.00,0.0027
1279.00,0.0027
1278.00,0.0027
1277.00,0.0026
1276.00,0.0025
1275.00,0.0025
1274.00,0.0024
1273.00,0.0023
1272.00,0.0022
1271.00,0.0022
1270.00,0.0021
1269.00,0.0021
1268.00,0.0020
1267.00,0.0020
1266.00,0.0020
1265.00,0.0020
1264.00,0.0020
1263.00,0.0020
1262.00,0.0020
1261.00,0.0020
1260.00,0.0020
1259.00,0.0020
1258.00,0.0020
1257.00,0.0020
1256.00,0.0020
1255.00,0.0020
1254.00,0.0020
1253.00,0.0020
1252.00,0.0021
1251.00,0.0021
1250.00,0.0021
1249.00,0.0022
1248.00,0.0022
1247.00,0.0022
1246.00,0.0022
1245.00,0.0022
1244.00,0.0022
1243.00,0.0022
1242.00,0.0022
1241.00,0.0022
1240.00,0.0022
1239.00,0.0022
1238.00,0.0022
1237.00,0.0022
1236.00,0.0022
1235.00,0.0022
1234.00,0.0022
1233.00,0.0022
1232.00,0.0022
1231.00,0.0022
1230.00,0.0022
1229.00,0.0022
1228.00,0.0023
1227.00,0.0023
1226.00,0.0023
1225.00,0.0023
1224.00,0.0023
1223.00,0.0023
1222.00,0.0023
1221.00,0.0023
1220.00,0.0024
1219.00,0.0024
1218.00,0.0024
1217.00,0.0024
1216.00,0.0024
1215.00,0.0025
1214.00,0.0025
1213.00,0.0025
1212.00,0.0026
1211.00,0.0026
1210.00,0.0027
1209.00,0.0027
1208.00,0.0028
1207.00,0.0029
1206.00,0.0030
1205.00,0.0031
1204.00,0.0033
1203.00,0.0034
1202.00,0.0034
1201.00,0.0035
1200.00,0.0036
1199.00,0.0037
1198.00,0.0038
1197.00,0.0038
1196.00,0.0038
1195.00,0.0039
1194.00,0.0039
1193.00,0.0039
1192.00,0.0039
1191.00,0.0039
1190.00,0.0040
1189.00,0.0040
1188.00,0.0042
1187.00,0.0043
1186.00,0.0046
1185.00,0.0048
1184.00,0.0051
1183.00,0.0053
1182.00,0.0055
1181.00,0.0055
1180.00,0.0054
1179.00,0.0052
1178.00,0.0049
1177.00,0.0045
1176.00,0.0042
1175.00,0.0039
1174.00,0.0036
1173.00,0.0034
1172.00,0.0033
1171.00,0.0032
1170.00,0.0032
1169.00,0.0032
1168.00,0.0031
1167.00,0.0031
1166.00,0.0031
1165.00,0.0031
1164.00,0.0031
1163.00,0.0032
1162.00,0.0034
1161.00,0.0036
1160.00,0.0039
1159.00,0.0042
1158.00,0.0046
1157.00,0.0050
1156.00,0.0053
1155.00,0.0055
1154.00,0.0055
1153.00,0.0053
1152.00,0.0049
1151.00,0.0045
1150.00,0.0041
1149.00,0.0037
1148.00,0.0033
1147.00,0.0031
1146.00,0.0029
1145.00,0.0027
1144.00,0.0025
1143.00,0.0024
1142.00,0.0023
1141.00,0.0023
1140.00,0.0022
1139.00,0.0022
1138.00,0.0021
1137.00,0.0020
1136.00,0.0020
1135.00,0.0020
1134.00,0.0020
1133.00,0.0020
1132.00,0.0021
1131.00,0.0021
1130.00,0.0021
1129.00,0.0022
1128.00,0.0022
1127.00,0.0022
1126.00,0.0022
1125.00,0.0023
1124.00,0.0023
1123.00,0.0023
1122.00,0.0024
1121.00,0.0024
1120.00,0.0025
1119.00,0.0026
1118.00,0.0027
1117.00,0.0028
1116.00,0.0029
1115.00,0.0030
1114.00,0.0031
1113.00,0.0032
1112.00,0.0032
1111.00,0.0032
1110.00,0.0031
1109.00,0.0031
1108.00,0.0031
1107.00,0.0030
1106.00,0.0030
1105.00,0.0031
1104.00,0.0031
1103.00,0.0031
1102.00,0.0031
1101.00,0.0032
1100.00,0.0032
1099.00,0.0033
1098.00,0.0034
1097.00,0.0034
1096.00,0.0035
1095.00,0.0035
1094.00,0.0036
1093.00,0.0036
1092.00,0.0036
1091.00,0.0037
1090.00,0.0037
1089.00,0.0038
1088.00,0.0039
1087.00,0.0040
1086.00,0.0041
1085.00,0.0043
1084.00,0.0044
1083.00,0.0046
1082.00,0.0048
1081.00,0.0049
1080.00,0.0051
1079.00,0.0054
1078.00,0.0056
1077.00,0.0058
1076.00,0.0061
1075.00,0.0064
1074.00,0.0067
1073.00,0.0071
1072.00,0.0074
1071.00,0.0076
1070.00,0.0078
1069.00,0.0079
1068.00,0.0079
1067.00,0.0078
1066.00,0.0076
1065.00,0.0073
1064.00,0.0070
1063.00,0.0066
1062.00,0.0063
1061.00,0.0061
1060.00,0.0058
1059.00,0.0056
1058.00,0.0054
1057.00,0.0052
1056.00,0.0050
1055.00,0.0049
1054.00,0.0048
1053.00,0.0046
1052.00,0.0045
1051.00,0.0043
1050.00,0.0042
1049.00,0.0041
1048.00,0.0041
1047.00,0.0040
1046.00,0.0040
1045.00,0.0040
1044.00,0.0040
1043.00,0.0040
1042.00,0.0040
1041.00,0.0041
1040.00,0.0042
1039.00,0.0044
1038.00,0.0048
1037.00,0.0053
1036.00,0.0060
1035.00,0.0069
1034.00,0.0080
1033.00,0.0093
1032.00,0.0106
1031.00,0.0118
1030.00,0.0128
1029.00,0.0135
1028.00,0.0138
1027.00,0.0136
1026.00,0.0130
1025.00,0.0122
1024.00,0.0112
1023.00,0.0102
1022.00,0.0094
1021.00,0.0087
1020.00,0.0082
1019.00,0.0077
1018.00,0.0073
1017.00,0.0069
1016.00,0.0065
1015.00,0.0062
1014.00,0.0060
1013.00,0.0059
1012.00,0.0058
1011.00,0.0057
1010.00,0.0056
1009.00,0.0055
1008.00,0.0054
1007.00,0.0055
1006.00,0.0056
1005.00,0.0058
1004.00,0.0059
1003.00,0.0059
1002.00,0.0058
1001.00,0.0056
1000.00,0.0052
999.00,0.0048
998.00,0.0045
997.00,0.0043
996.00,0.0042
995.00,0.0041
994.00,0.0041
993.00,0.0041
992.00,0.0041
991.00,0.0042
990.00,0.0042
989.00,0.0042
988.00,0.0043
987.00,0.0044
986.00,0.0046
985.00,0.0048
984.00,0.0050
983.00,0.0051
982.00,0.0052
981.00,0.0053
980.00,0.0054
979.00,0.0054
978.00,0.0053
977.00,0.0052
976.00,0.0051
975.00,0.0049
974.00,0.0048
973.00,0.0048
972.00,0.0048
971.00,0.0049
970.00,0.0050
969.00,0.0052
968.00,0.0054
967.00,0.0056
966.00,0.0058
965.00,0.0059
964.00,0.0060
963.00,0.0059
962.00,0.0057
961.00,0.0055
960.00,0.0052
959.00,0.0050
958.00,0.0048
957.00,0.0046
956.00,0.0044
955.00,0.0042
954.00,0.0041
953.00,0.0041
952.00,0.0041
951.00,0.0042
950.00,0.0042
949.00,0.0043
948.00,0.0044
947.00,0.0045
946.00,0.0046
945.00,0.0047
944.00,0.0047
943.00,0.0047
942.00,0.0046
941.00,0.0045
940.00,0.0044
939.00,0.0043
938.00,0.0042
937.00,0.0040
936.00,0.0038
935.00,0.0037
934.00,0.0035
933.00,0.0034
932.00,0.0033
931.00,0.0033
930.00,0.0032
929.00,0.0031
928.00,0.0031
927.00,0.0031
926.00,0.0032
925.00,0.0032
924.00,0.0033
923.00,0.0033
922.00,0.0034
921.00,0.0036
920.00,0.0038
919.00,0.0040
918.00,0.0042
917.00,0.0045
916.00,0.0048
915.00,0.0053
914.00,0.0058
913.00,0.0064
912.00,0.0071
911.00,0.0078
910.00,0.0084
909.00,0.0090
908.00,0.0095
907.00,0.0097
906.00,0.0097
905.00,0.0096
904.00,0.0092
903.00,0.0086
902.00,0.0079
901.00,0.0072
900.00,0.0065
899.00,0.0057
898.00,0.0051
897.00,0.0046
896.00,0.0041
895.00,0.0038
894.00,0.0036
893.00,0.0034
892.00,0.0032
891.00,0.0031
890.00,0.0029
889.00,0.0028
888.00,0.0027
887.00,0.0027
886.00,0.0026
885.00,0.0025
884.00,0.0024
883.00,0.0024
882.00,0.0023
881.00,0.0023
880.00,0.0022
879.00,0.0022
878.00,0.0022
877.00,0.0022
876.00,0.0021
875.00,0.0020
874.00,0.0020
873.00,0.0020
872.00,0.0020
871.00,0.0020
870.00,0.0020
869.00,0.0020
868.00,0.0020
867.00,0.0020
866.00,0.0020
865.00,0.0020
864.00,0.0020
863.00,0.0019
862.00,0.0019
861.00,0.0019
860.00,0.0019
859.00,0.0020
858.00,0.0020
857.00,0.0021
856.00,0.0021
855.00,0.0022
854.00,0.0022
853.00,0.0023
852.00,0.0024
851.00,0.0027
850.00,0.0029
849.00,0.0032
848.00,0.0035
847.00,0.0038
846.00,0.0041
845.00,0.0043
844.00,0.0046
843.00,0.0047
842.00,0.0048
841.00,0.0048
840.00,0.0048
839.00,0.0046
838.00,0.0043
837.00,0.0039
836.00,0.0035
835.00,0.0032
834.00,0.0029
833.00,0.0027
832.00,0.0025
831.00,0.0024
830.00,0.0022
829.00,0.0022
828.00,0.0021
827.00,0.0020
826.00,0.0020
825.00,0.0020
824.00,0.0019
823.00,0.0019
822.00,0.0018
821.00,0.0018
820.00,0.0018
819.00,0.0018
818.00,0.0019
817.00,0.0019
816.00,0.0020
815.00,0.0020
814.00,0.0020
813.00,0.0020
812.00,0.0021
811.00,0.0021
810.00,0.0021
809.00,0.0021
808.00,0.0021
807.00,0.0021
806.00,0.0021
805.00,0.0022
804.00,0.0022
803.00,0.0023
802.00,0.0024
801.00,0.0025
800.00,0.0026
799.00,0.0027
798.00,0.0028
797.00,0.0029
796.00,0.0031
795.00,0.0032
794.00,0.0034
793.00,0.0037
792.00,0.0039
791.00,0.0042
790.00,0.0044
789.00,0.0047
788.00,0.0050
787.00,0.0054
786.00,0.0058
785.00,0.0063
784.00,0.0067
783.00,0.0071
782.00,0.0076
781.00,0.0082
780.00,0.0089
779.00,0.0097
778.00,0.0105
777.00,0.0115
776.00,0.0126
775.00,0.0138
774.00,0.0151
773.00,0.0165
772.00,0.0180
771.00,0.0197
770.00,0.0214
769.00,0.0232
768.00,0.0249
767.00,0.0266
766.00,0.0283
765.00,0.0299
764.00,0.0316
763.00,0.0333
762.00,0.0350
761.00,0.0368
760.00,0.0385
759.00,0.0400
758.00,0.0413
757.00,0.0423
756.00,0.0430
755.00,0.0433
754.00,0.0434
753.00,0.0433
752.00,0.0431
751.00,0.0430
750.00,0.0430
749.00,0.0429
748.00,0.0427
747.00,0.0422
746.00,0.0411
745.00,0.0394
744.00,0.0371
743.00,0.0343
742.00,0.0314
741.00,0.0284
740.00,0.0256
739.00,0.0231
738.00,0.0207
737.00,0.0185
736.00,0.0164
735.00,0.0144
734.00,0.0125
733.00,0.0108
732.00,0.0093
731.00,0.0081
730.00,0.0072
729.00,0.0066
728.00,0.0061
727.00,0.0057
726.00,0.0054
725.00,0.0051
724.00,0.0050
723.00,0.0049
722.00,0.0050
721.00,0.0050
720.00,0.0051
719.00,0.0052
718.00,0.0054
717.00,0.0057
716.00,0.0061
715.00,0.0066
714.00,0.0073
713.00,0.0083
712.00,0.0098
711.00,0.0118
710.00,0.0145
709.00,0.0181
708.00,0.0226
707.00,0.0282
706.00,0.0350
705.00,0.0430
704.00,0.0521
703.00,0.0622
702.00,0.0730
701.00,0.0842
700.00,0.0957
699.00,0.1070
698.00,0.1178
697.00,0.1274
696.00,0.1344
695.00,0.1373
694.00,0.1350
693.00,0.1273
692.00,0.1154
691.00,0.1016
690.00,0.0881
689.00,0.0761
688.00,0.0660
687.00,0.0579
686.00,0.0514
685.00,0.0462
684.00,0.0419
683.00,0.0384
682.00,0.0353
681.00,0.0327
680.00,0.0303
679.00,0.0282
678.00,0.0265
677.00,0.0250
676.00,0.0237
675.00,0.0226
674.00,0.0217
673.00,0.0209
672.00,0.0202
671.00,0.0195
670.00,0.0189
669.00,0.0182
668.00,0.0173
667.00,0.0166
666.00,0.0161
665.00,0.0156
664.00,0.0150
663.00,0.0143
662.00,0.0136
661.00,0.0130
660.00,0.0124
659.00,0.0119
658.00,0.0114
657.00,0.0109
656.00,0.0104
655.00,0.0099
654.00,0.0094
653.00,0.0091
652.00,0.0087
651.00,0.0084
650.00,0.0081
649.00,0.0078
648.00,0.0075
647.00,0.0072
646.00,0.0070
645.00,0.0069
644.00,0.0068
643.00,0.0068
642.00,0.0067
641.00,0.0067
640.00,0.0066
639.00,0.0066
638.00,0.0067
637.00,0.0068
636.00,0.0070
635.00,0.0073
634.00,0.0076
633.00,0.0078
632.00,0.0080
631.00,0.0081
630.00,0.0083
629.00,0.0085
628.00,0.0087
627.00,0.0089
626.00,0.0090
625.00,0.0091
624.00,0.0092
623.00,0.0094
622.00,0.0095
621.00,0.0097
620.00,0.0096
619.00,0.0094
618.00,0.0091
617.00,0.0088
616.00,0.0085
615.00,0.0083
614.00,0.0081
613.00,0.0080
612.00,0.0078
611.00,0.0076
610.00,0.0075
609.00,0.0075
608.00,0.0075
607.00,0.0075
606.00,0.0074
605.00,0.0074
604.00,0.0074
603.00,0.0074
602.00,0.0075
601.00,0.0076
600.00,0.0077
599.00,0.0078
598.00,0.0079
597.00,0.0080
596.00,0.0081
595.00,0.0083
594.00,0.0083
593.00,0.0084
592.00,0.0085
591.00,0.0087
590.00,0.0089
589.00,0.0091
588.00,0.0094
587.00,0.0096
586.00,0.0098
585.00,0.0100
584.00,0.0101
583.00,0.0104
582.00,0.0107
581.00,0.0110
580.00,0.0113
579.00,0.0117
578.00,0.0121
577.00,0.0126
576.00,0.0132
575.00,0.0138
574.00,0.0146
573.00,0.0154
572.00,0.0162
571.00,0.0168
570.00,0.0175
569.00,0.0180
568.00,0.0186
567.00,0.0193
566.00,0.0199
565.00,0.0206
564.00,0.0213
563.00,0.0219
562.00,0.0226
561.00,0.0232
560.00,0.0239
559.00,0.0245
558.00,0.0252
557.00,0.0259
556.00,0.0266
555.00,0.0273
554.00,0.0280
553.00,0.0289
552.00,0.0299
551.00,0.0309
550.00,0.0319
549.00,0.0330
548.00,0.0342
547.00,0.0355
546.00,0.0369
545.00,0.0384
544.00,0.0400
543.00,0.0419
542.00,0.0436
541.00,0.0452
540.00,0.0464
539.00,0.0471
538.00,0.0473
537.00,0.0470
536.00,0.0462
535.00,0.0448
534.00,0.0431
533.00,0.0411
532.00,0.0389
531.00,0.0366
530.00,0.0343
529.00,0.0321
528.00,0.0300
527.00,0.0280
526.00,0.0260
525.00,0.0241
524.00,0.0225
523.00,0.0212
522.00,0.0201
521.00,0.0191
520.00,0.0183
519.00,0.0176
518.00,0.0170
517.00,0.0165
516.00,0.0161
515.00,0.0157
514.00,0.0152
513.00,0.0146
512.00,0.0140
511.00,0.0134
510.00,0.0130
509.00,0.0127
508.00,0.0124
507.00,0.0121
506.00,0.0116
505.00,0.0111
504.00,0.0107
503.00,0.0104
502.00,0.0101
501.00,0.0099
500.00,0.0097
499.00,0.0096
498.00,0.0095
497.00,0.0095
496.00,0.0094
495.00,0.0091
494.00,0.0088
493.00,0.0084
492.00,0.0082
491.00,0.0080
490.00,0.0081
489.00,0.0082
488.00,0.0083
487.00,0.0084
486.00,0.0083
485.00,0.0081
484.00,0.0078
483.00,0.0076
482.00,0.0074
481.00,0.0074
480.00,0.0073
479.00,0.0073
478.00,0.0072
477.00,0.0069
476.00,0.0066
475.00,0.0062
474.00,0.0061
473.00,0.0064
472.00,0.0067
471.00,0.0069
470.00,0.0069
469.00,0.0069
468.00,0.0068
467.00,0.0067
466.00,0.0066
465.00,0.0065
464.00,0.0065
463.00,0.0065
462.00,0.0066
461.00,0.0068
460.00,0.0069
459.00,0.0067
458.00,0.0064
457.00,0.0063
456.00,0.0063
455.00,0.0066
454.00,0.0068
453.00,0.0069
452.00,0.0066
451.00,0.0064
450.00,0.0063
449.00,0.0063
448.00,0.0062
447.00,0.0061
446.00,0.0060
445.00,0.0059
444.00,0.0059
443.00,0.0058
442.00,0.0057
441.00,0.0055
440.00,0.0051
439.00,0.0048
438.00,0.0046
437.00,0.0046
436.00,0.0047
435.00,0.0049
434.00,0.0050
433.00,0.0050
432.00,0.0048
431.00,0.0045
430.00,0.0044
429.00,0.0046
428.00,0.0047
427.00,0.0047
426.00,0.0047
425.00,0.0047
424.00,0.0048
423.00,0.0049
422.00,0.0051
421.00,0.0054
420.00,0.0056
419.00,0.0055
418.00,0.0054
417.00,0.0053
416.00,0.0054
415.00,0.0057
414.00,0.0059
413.00,0.0059
412.00,0.0055
411.00,0.0052
410.00,0.0052
409.00,0.0058
408.00,0.0066
407.00,0.0074
406.00,0.0082
405.00,0.0085
404.00,0.0081
403.00,0.0067
402.00,0.0046
401.00,0.0025
400.00,0.0011
