Created as New Dataset,Sample 1042 By YargerLab Date Monday, August 04 2025
cm-1,A
4000.00,0.0045
3999.00,0.0045
3998.00,0.0045
3997.00,0.0045
3996.00,0.0045
3995.00,0.0045
3994.00,0.0045
3993.00,0.0045
3992.00,0.0045
3991.00,0.0045
3990.00,0.0045
3989.00,0.0045
3988.00,0.0045
3987.00,0.0045
3986.00,0.0045
3985.00,0.0045
3984.00,0.0045
3983.00,0.0045
3982.00,0.0046
3981.00,0.0046
3980.00,0.0045
3979.00,0.0045
3978.00,0.0045
3977.00,0.0045
3976.00,0.0045
3975.00,0.0045
3974.00,0.0045
3973.00,0.0045
3972.00,0.0045
3971.00,0.0045
3970.00,0.0045
3969.00,0.0045
3968.00,0.0045
3967.00,0.0045
3966.00,0.0045
3965.00,0.0045
3964.00,0.0045
3963.00,0.0045
3962.00,0.0046
3961.00,0.0046
3960.00,0.0046
3959.00,0.0046
3958.00,0.0046
3957.00,0.0046
3956.00,0.0046
3955.00,0.0046
3954.00,0.0045
3953.00,0.0045
3952.00,0.0045
3951.00,0.0045
3950.00,0.0045
3949.00,0.0045
3948.00,0.0045
3947.00,0.0046
3946.00,0.0046
3945.00,0.0046
3944.00,0.0046
3943.00,0.0046
3942.00,0.0046
3941.00,0.0046
3940.00,0.0046
3939.00,0.0046
3938.00,0.0046
3937.00,0.0046
3936.00,0.0046
3935.00,0.0046
3934.00,0.0046
3933.00,0.0046
3932.00,0.0046
3931.00,0.0046
3930.00,0.0046
3929.00,0.0046
3928.00,0.0046
3927.00,0.0046
3926.00,0.0046
3925.00,0.0046
3924.00,0.0046
3923.00,0.0046
3922.00,0.0046
3921.00,0.0046
3920.00,0.0046
3919.00,0.0046
3918.00,0.0046
3917.00,0.0046
3916.00,0.0046
3915.00,0.0046
3914.00,0.0046
3913.00,0.0046
3912.00,0.0046
3911.00,0.0046
3910.00,0.0046
3909.00,0.0046
3908.00,0.0046
3907.00,0.0046
3906.00,0.0047
3905.00,0.0047
3904.00,0.0048
3903.00,0.0048
3902.00,0.0048
3901.00,0.0048
3900.00,0.0048
3899.00,0.0047
3898.00,0.0047
3897.00,0.0047
3896.00,0.0047
3895.00,0.0047
3894.00,0.0047
3893.00,0.0047
3892.00,0.0046
3891.00,0.0046
3890.00,0.0047
3889.00,0.0047
3888.00,0.0047
3887.00,0.0047
3886.00,0.0048
3885.00,0.0048
3884.00,0.0048
3883.00,0.0048
3882.00,0.0048
3881.00,0.0047
3880.00,0.0047
3879.00,0.0047
3878.00,0.0047
3877.00,0.0047
3876.00,0.0047
3875.00,0.0047
3874.00,0.0047
3873.00,0.0047
3872.00,0.0048
3871.00,0.0048
3870.00,0.0048
3869.00,0.0048
3868.00,0.0048
3867.00,0.0048
3866.00,0.0047
3865.00,0.0048
3864.00,0.0048
3863.00,0.0047
3862.00,0.0047
3861.00,0.0047
3860.00,0.0047
3859.00,0.0047
3858.00,0.0047
3857.00,0.0048
3856.00,0.0049
3855.00,0.0049
3854.00,0.0050
3853.00,0.0050
3852.00,0.0050
3851.00,0.0051
3850.00,0.0050
3849.00,0.0049
3848.00,0.0048
3847.00,0.0048
3846.00,0.0047
3845.00,0.0047
3844.00,0.0047
3843.00,0.0047
3842.00,0.0047
3841.00,0.0048
3840.00,0.0048
3839.00,0.0048
3838.00,0.0048
3837.00,0.0048
3836.00,0.0048
3835.00,0.0048
3834.00,0.0048
3833.00,0.0048
3832.00,0.0048
3831.00,0.0048
3830.00,0.0047
3829.00,0.0047
3828.00,0.0047
3827.00,0.0047
3826.00,0.0047
3825.00,0.0047
3824.00,0.0048
3823.00,0.0048
3822.00,0.0048
3821.00,0.0049
3820.00,0.0049
3819.00,0.0049
3818.00,0.0048
3817.00,0.0048
3816.00,0.0048
3815.00,0.0048
3814.00,0.0048
3813.00,0.0047
3812.00,0.0047
3811.00,0.0047
3810.00,0.0048
3809.00,0.0048
3808.00,0.0048
3807.00,0.0048
3806.00,0.0048
3805.00,0.0049
3804.00,0.0049
3803.00,0.0049
3802.00,0.0049
3801.00,0.0049
3800.00,0.0049
3799.00,0.0048
3798.00,0.0048
3797.00,0.0047
3796.00,0.0047
3795.00,0.0047
3794.00,0.0046
3793.00,0.0046
3792.00,0.0046
3791.00,0.0046
3790.00,0.0046
3789.00,0.0046
3788.00,0.0045
3787.00,0.0045
3786.00,0.0045
3785.00,0.0045
3784.00,0.0045
3783.00,0.0046
3782.00,0.0046
3781.00,0.0046
3780.00,0.0046
3779.00,0.0046
3778.00,0.0046
3777.00,0.0046
3776.00,0.0046
3775.00,0.0046
3774.00,0.0046
3773.00,0.0046
3772.00,0.0046
3771.00,0.0046
3770.00,0.0047
3769.00,0.0047
3768.00,0.0047
3767.00,0.0047
3766.00,0.0047
3765.00,0.0047
3764.00,0.0047
3763.00,0.0047
3762.00,0.0047
3761.00,0.0047
3760.00,0.0048
3759.00,0.0048
3758.00,0.0048
3757.00,0.0048
3756.00,0.0048
3755.00,0.0048
3754.00,0.0049
3753.00,0.0050
3752.00,0.0050
3751.00,0.0051
3750.00,0.0051
3749.00,0.0051
3748.00,0.0051
3747.00,0.0051
3746.00,0.0051
3745.00,0.0050
3744.00,0.0050
3743.00,0.0050
3742.00,0.0050
3741.00,0.0049
3740.00,0.0049
3739.00,0.0049
3738.00,0.0049
3737.00,0.0049
3736.00,0.0049
3735.00,0.0049
3734.00,0.0049
3733.00,0.0049
3732.00,0.0048
3731.00,0.0048
3730.00,0.0048
3729.00,0.0047
3728.00,0.0047
3727.00,0.0046
3726.00,0.0046
3725.00,0.0046
3724.00,0.0046
3723.00,0.0046
3722.00,0.0046
3721.00,0.0046
3720.00,0.0046
3719.00,0.0046
3718.00,0.0046
3717.00,0.0046
3716.00,0.0047
3715.00,0.0047
3714.00,0.0048
3713.00,0.0048
3712.00,0.0048
3711.00,0.0048
3710.00,0.0047
3709.00,0.0047
3708.00,0.0047
3707.00,0.0047
3706.00,0.0047
3705.00,0.0046
3704.00,0.0046
3703.00,0.0046
3702.00,0.0046
3701.00,0.0045
3700.00,0.0045
3699.00,0.0045
3698.00,0.0045
3697.00,0.0045
3696.00,0.0045
3695.00,0.0045
3694.00,0.0046
3693.00,0.0046
3692.00,0.0047
3691.00,0.0048
3690.00,0.0048
3689.00,0.0048
3688.00,0.0049
3687.00,0.0049
3686.00,0.0048
3685.00,0.0048
3684.00,0.0047
3683.00,0.0046
3682.00,0.0046
3681.00,0.0046
3680.00,0.0047
3679.00,0.0048
3678.00,0.0049
3677.00,0.0050
3676.00,0.0050
3675.00,0.0051
3674.00,0.0051
3673.00,0.0051
3672.00,0.0051
3671.00,0.0050
3670.00,0.0050
3669.00,0.0050
3668.00,0.0050
3667.00,0.0049
3666.00,0.0049
3665.00,0.0049
3664.00,0.0049
3663.00,0.0048
3662.00,0.0048
3661.00,0.0048
3660.00,0.0049
3659.00,0.0049
3658.00,0.0049
3657.00,0.0050
3656.00,0.0050
3655.00,0.0051
3654.00,0.0052
3653.00,0.0052
3652.00,0.0053
3651.00,0.0054
3650.00,0.0054
3649.00,0.0054
3648.00,0.0054
3647.00,0.0054
3646.00,0.0054
3645.00,0.0054
3644.00,0.0053
3643.00,0.0053
3642.00,0.0053
3641.00,0.0053
3640.00,0.0053
3639.00,0.0053
3638.00,0.0053
3637.00,0.0053
3636.00,0.0054
3635.00,0.0054
3634.00,0.0055
3633.00,0.0056
3632.00,0.0057
3631.00,0.0058
3630.00,0.0058
3629.00,0.0059
3628.00,0.0059
3627.00,0.0059
3626.00,0.0059
3625.00,0.0059
3624.00,0.0059
3623.00,0.0059
3622.00,0.0059
3621.00,0.0060
3620.00,0.0060
3619.00,0.0061
3618.00,0.0061
3617.00,0.0062
3616.00,0.0063
3615.00,0.0063
3614.00,0.0064
3613.00,0.0064
3612.00,0.0065
3611.00,0.0065
3610.00,0.0065
3609.00,0.0066
3608.00,0.0066
3607.00,0.0066
3606.00,0.0067
3605.00,0.0067
3604.00,0.0067
3603.00,0.0067
3602.00,0.0068
3601.00,0.0068
3600.00,0.0068
3599.00,0.0069
3598.00,0.0069
3597.00,0.0070
3596.00,0.0071
3595.00,0.0071
3594.00,0.0072
3593.00,0.0073
3592.00,0.0073
3591.00,0.0074
3590.00,0.0075
3589.00,0.0076
3588.00,0.0076
3587.00,0.0076
3586.00,0.0077
3585.00,0.0077
3584.00,0.0078
3583.00,0.0078
3582.00,0.0079
3581.00,0.0079
3580.00,0.0080
3579.00,0.0080
3578.00,0.0081
3577.00,0.0082
3576.00,0.0083
3575.00,0.0084
3574.00,0.0085
3573.00,0.0085
3572.00,0.0086
3571.00,0.0087
3570.00,0.0088
3569.00,0.0090
3568.00,0.0090
3567.00,0.0091
3566.00,0.0091
3565.00,0.0092
3564.00,0.0092
3563.00,0.0093
3562.00,0.0094
3561.00,0.0094
3560.00,0.0095
3559.00,0.0095
3558.00,0.0096
3557.00,0.0097
3556.00,0.0097
3555.00,0.0098
3554.00,0.0099
3553.00,0.0100
3552.00,0.0100
3551.00,0.0101
3550.00,0.0102
3549.00,0.0103
3548.00,0.0104
3547.00,0.0104
3546.00,0.0105
3545.00,0.0105
3544.00,0.0106
3543.00,0.0106
3542.00,0.0106
3541.00,0.0107
3540.00,0.0108
3539.00,0.0108
3538.00,0.0109
3537.00,0.0110
3536.00,0.0110
3535.00,0.0111
3534.00,0.0111
3533.00,0.0112
3532.00,0.0113
3531.00,0.0114
3530.00,0.0114
3529.00,0.0115
3528.00,0.0115
3527.00,0.0116
3526.00,0.0117
3525.00,0.0117
3524.00,0.0118
3523.00,0.0119
3522.00,0.0119
3521.00,0.0119
3520.00,0.0120
3519.00,0.0120
3518.00,0.0121
3517.00,0.0121
3516.00,0.0122
3515.00,0.0122
3514.00,0.0122
3513.00,0.0123
3512.00,0.0123
3511.00,0.0124
3510.00,0.0124
3509.00,0.0124
3508.00,0.0124
3507.00,0.0125
3506.00,0.0126
3505.00,0.0126
3504.00,0.0127
3503.00,0.0127
3502.00,0.0127
3501.00,0.0128
3500.00,0.0128
3499.00,0.0129
3498.00,0.0130
3497.00,0.0130
3496.00,0.0130
3495.00,0.0130
3494.00,0.0131
3493.00,0.0131
3492.00,0.0132
3491.00,0.0132
3490.00,0.0133
3489.00,0.0133
3488.00,0.0133
3487.00,0.0134
3486.00,0.0134
3485.00,0.0135
3484.00,0.0135
3483.00,0.0136
3482.00,0.0136
3481.00,0.0136
3480.00,0.0137
3479.00,0.0137
3478.00,0.0138
3477.00,0.0139
3476.00,0.0139
3475.00,0.0140
3474.00,0.0141
3473.00,0.0141
3472.00,0.0142
3471.00,0.0143
3470.00,0.0143
3469.00,0.0144
3468.00,0.0144
3467.00,0.0145
3466.00,0.0145
3465.00,0.0146
3464.00,0.0147
3463.00,0.0147
3462.00,0.0148
3461.00,0.0148
3460.00,0.0149
3459.00,0.0149
3458.00,0.0150
3457.00,0.0150
3456.00,0.0151
3455.00,0.0151
3454.00,0.0152
3453.00,0.0153
3452.00,0.0154
3451.00,0.0154
3450.00,0.0155
3449.00,0.0155
3448.00,0.0156
3447.00,0.0156
3446.00,0.0157
3445.00,0.0157
3444.00,0.0158
3443.00,0.0159
3442.00,0.0160
3441.00,0.0160
3440.00,0.0161
3439.00,0.0162
3438.00,0.0162
3437.00,0.0163
3436.00,0.0163
3435.00,0.0164
3434.00,0.0165
3433.00,0.0165
3432.00,0.0166
3431.00,0.0167
3430.00,0.0167
3429.00,0.0168
3428.00,0.0169
3427.00,0.0170
3426.00,0.0170
3425.00,0.0171
3424.00,0.0172
3423.00,0.0173
3422.00,0.0174
3421.00,0.0175
3420.00,0.0176
3419.00,0.0177
3418.00,0.0178
3417.00,0.0179
3416.00,0.0179
3415.00,0.0180
3414.00,0.0181
3413.00,0.0181
3412.00,0.0181
3411.00,0.0182
3410.00,0.0182
3409.00,0.0182
3408.00,0.0183
3407.00,0.0184
3406.00,0.0184
3405.00,0.0185
3404.00,0.0185
3403.00,0.0185
3402.00,0.0185
3401.00,0.0186
3400.00,0.0186
3399.00,0.0186
3398.00,0.0185
3397.00,0.0185
3396.00,0.0185
3395.00,0.0185
3394.00,0.0184
3393.00,0.0184
3392.00,0.0184
3391.00,0.0184
3390.00,0.0183
3389.00,0.0183
3388.00,0.0183
3387.00,0.0182
3386.00,0.0181
3385.00,0.0181
3384.00,0.0180
3383.00,0.0179
3382.00,0.0179
3381.00,0.0178
3380.00,0.0178
3379.00,0.0177
3378.00,0.0176
3377.00,0.0176
3376.00,0.0175
3375.00,0.0174
3374.00,0.0173
3373.00,0.0173
3372.00,0.0172
3371.00,0.0171
3370.00,0.0171
3369.00,0.0170
3368.00,0.0169
3367.00,0.0169
3366.00,0.0168
3365.00,0.0168
3364.00,0.0167
3363.00,0.0166
3362.00,0.0166
3361.00,0.0165
3360.00,0.0164
3359.00,0.0164
3358.00,0.0163
3357.00,0.0163
3356.00,0.0162
3355.00,0.0162
3354.00,0.0161
3353.00,0.0160
3352.00,0.0159
3351.00,0.0159
3350.00,0.0159
3349.00,0.0158
3348.00,0.0158
3347.00,0.0158
3346.00,0.0157
3345.00,0.0157
3344.00,0.0156
3343.00,0.0156
3342.00,0.0155
3341.00,0.0155
3340.00,0.0155
3339.00,0.0154
3338.00,0.0154
3337.00,0.0153
3336.00,0.0153
3335.00,0.0154
3334.00,0.0154
3333.00,0.0154
3332.00,0.0153
3331.00,0.0153
3330.00,0.0153
3329.00,0.0152
3328.00,0.0152
3327.00,0.0151
3326.00,0.0151
3325.00,0.0151
3324.00,0.0152
3323.00,0.0152
3322.00,0.0152
3321.00,0.0152
3320.00,0.0152
3319.00,0.0152
3318.00,0.0152
3317.00,0.0152
3316.00,0.0152
3315.00,0.0152
3314.00,0.0152
3313.00,0.0151
3312.00,0.0151
3311.00,0.0151
3310.00,0.0150
3309.00,0.0150
3308.00,0.0150
3307.00,0.0149
3306.00,0.0149
3305.00,0.0150
3304.00,0.0151
3303.00,0.0151
3302.00,0.0152
3301.00,0.0152
3300.00,0.0152
3299.00,0.0152
3298.00,0.0152
3297.00,0.0152
3296.00,0.0152
3295.00,0.0152
3294.00,0.0152
3293.00,0.0152
3292.00,0.0153
3291.00,0.0153
3290.00,0.0154
3289.00,0.0154
3288.00,0.0155
3287.00,0.0155
3286.00,0.0155
3285.00,0.0155
3284.00,0.0155
3283.00,0.0155
3282.00,0.0155
3281.00,0.0155
3280.00,0.0155
3279.00,0.0156
3278.00,0.0155
3277.00,0.0155
3276.00,0.0155
3275.00,0.0155
3274.00,0.0155
3273.00,0.0154
3272.00,0.0154
3271.00,0.0154
3270.00,0.0155
3269.00,0.0155
3268.00,0.0155
3267.00,0.0156
3266.00,0.0156
3265.00,0.0156
3264.00,0.0156
3263.00,0.0157
3262.00,0.0157
3261.00,0.0157
3260.00,0.0157
3259.00,0.0156
3258.00,0.0156
3257.00,0.0156
3256.00,0.0157
3255.00,0.0157
3254.00,0.0157
3253.00,0.0157
3252.00,0.0157
3251.00,0.0157
3250.00,0.0157
3249.00,0.0157
3248.00,0.0157
3247.00,0.0157
3246.00,0.0157
3245.00,0.0157
3244.00,0.0157
3243.00,0.0157
3242.00,0.0156
3241.00,0.0156
3240.00,0.0156
3239.00,0.0156
3238.00,0.0155
3237.00,0.0155
3236.00,0.0155
3235.00,0.0154
3234.00,0.0154
3233.00,0.0154
3232.00,0.0154
3231.00,0.0154
3230.00,0.0153
3229.00,0.0153
3228.00,0.0153
3227.00,0.0153
3226.00,0.0153
3225.00,0.0152
3224.00,0.0152
3223.00,0.0151
3222.00,0.0151
3221.00,0.0150
3220.00,0.0150
3219.00,0.0149
3218.00,0.0149
3217.00,0.0148
3216.00,0.0148
3215.00,0.0148
3214.00,0.0147
3213.00,0.0147
3212.00,0.0146
3211.00,0.0145
3210.00,0.0144
3209.00,0.0144
3208.00,0.0143
3207.00,0.0143
3206.00,0.0142
3205.00,0.0141
3204.00,0.0140
3203.00,0.0140
3202.00,0.0139
3201.00,0.0138
3200.00,0.0138
3199.00,0.0137
3198.00,0.0137
3197.00,0.0136
3196.00,0.0135
3195.00,0.0134
3194.00,0.0133
3193.00,0.0133
3192.00,0.0132
3191.00,0.0131
3190.00,0.0131
3189.00,0.0130
3188.00,0.0130
3187.00,0.0129
3186.00,0.0128
3185.00,0.0127
3184.00,0.0126
3183.00,0.0126
3182.00,0.0125
3181.00,0.0125
3180.00,0.0124
3179.00,0.0123
3178.00,0.0123
3177.00,0.0122
3176.00,0.0121
3175.00,0.0121
3174.00,0.0120
3173.00,0.0119
3172.00,0.0119
3171.00,0.0118
3170.00,0.0117
3169.00,0.0117
3168.00,0.0116
3167.00,0.0115
3166.00,0.0115
3165.00,0.0114
3164.00,0.0113
3163.00,0.0112
3162.00,0.0111
3161.00,0.0111
3160.00,0.0110
3159.00,0.0109
3158.00,0.0108
3157.00,0.0108
3156.00,0.0107
3155.00,0.0106
3154.00,0.0106
3153.00,0.0105
3152.00,0.0105
3151.00,0.0104
3150.00,0.0103
3149.00,0.0103
3148.00,0.0102
3147.00,0.0101
3146.00,0.0100
3145.00,0.0100
3144.00,0.0099
3143.00,0.0099
3142.00,0.0098
3141.00,0.0097
3140.00,0.0097
3139.00,0.0096
3138.00,0.0096
3137.00,0.0096
3136.00,0.0095
3135.00,0.0095
3134.00,0.0095
3133.00,0.0094
3132.00,0.0094
3131.00,0.0093
3130.00,0.0093
3129.00,0.0092
3128.00,0.0092
3127.00,0.0091
3126.00,0.0091
3125.00,0.0090
3124.00,0.0090
3123.00,0.0090
3122.00,0.0089
3121.00,0.0088
3120.00,0.0088
3119.00,0.0088
3118.00,0.0087
3117.00,0.0087
3116.00,0.0087
3115.00,0.0086
3114.00,0.0086
3113.00,0.0085
3112.00,0.0085
3111.00,0.0085
3110.00,0.0084
3109.00,0.0084
3108.00,0.0083
3107.00,0.0083
3106.00,0.0083
3105.00,0.0083
3104.00,0.0082
3103.00,0.0082
3102.00,0.0082
3101.00,0.0081
3100.00,0.0081
3099.00,0.0081
3098.00,0.0080
3097.00,0.0080
3096.00,0.0079
3095.00,0.0079
3094.00,0.0079
3093.00,0.0079
3092.00,0.0079
3091.00,0.0080
3090.00,0.0080
3089.00,0.0080
3088.00,0.0080
3087.00,0.0080
3086.00,0.0080
3085.00,0.0080
3084.00,0.0080
3083.00,0.0079
3082.00,0.0079
3081.00,0.0079
3080.00,0.0079
3079.00,0.0078
3078.00,0.0078
3077.00,0.0078
3076.00,0.0078
3075.00,0.0078
3074.00,0.0077
3073.00,0.0077
3072.00,0.0077
3071.00,0.0077
3070.00,0.0077
3069.00,0.0076
3068.00,0.0076
3067.00,0.0076
3066.00,0.0075
3065.00,0.0075
3064.00,0.0075
3063.00,0.0075
3062.00,0.0075
3061.00,0.0075
3060.00,0.0075
3059.00,0.0075
3058.00,0.0075
3057.00,0.0075
3056.00,0.0075
3055.00,0.0075
3054.00,0.0075
3053.00,0.0075
3052.00,0.0075
3051.00,0.0075
3050.00,0.0075
3049.00,0.0075
3048.00,0.0074
3047.00,0.0074
3046.00,0.0074
3045.00,0.0074
3044.00,0.0074
3043.00,0.0074
3042.00,0.0074
3041.00,0.0075
3040.00,0.0075
3039.00,0.0075
3038.00,0.0075
3037.00,0.0076
3036.00,0.0076
3035.00,0.0076
3034.00,0.0076
3033.00,0.0077
3032.00,0.0077
3031.00,0.0077
3030.00,0.0076
3029.00,0.0076
3028.00,0.0076
3027.00,0.0075
3026.00,0.0075
3025.00,0.0074
3024.00,0.0074
3023.00,0.0074
3022.00,0.0074
3021.00,0.0074
3020.00,0.0073
3019.00,0.0073
3018.00,0.0073
3017.00,0.0073
3016.00,0.0074
3015.00,0.0074
3014.00,0.0074
3013.00,0.0075
3012.00,0.0075
3011.00,0.0075
3010.00,0.0076
3009.00,0.0077
3008.00,0.0078
3007.00,0.0079
3006.00,0.0081
3005.00,0.0082
3004.00,0.0083
3003.00,0.0085
3002.00,0.0087
3001.00,0.0089
3000.00,0.0091
2999.00,0.0093
2998.00,0.0096
2997.00,0.0098
2996.00,0.0101
2995.00,0.0104
2994.00,0.0106
2993.00,0.0109
2992.00,0.0111
2991.00,0.0114
2990.00,0.0116
2989.00,0.0119
2988.00,0.0121
2987.00,0.0124
2986.00,0.0126
2985.00,0.0129
2984.00,0.0132
2983.00,0.0135
2982.00,0.0139
2981.00,0.0143
2980.00,0.0146
2979.00,0.0150
2978.00,0.0153
2977.00,0.0156
2976.00,0.0158
2975.00,0.0161
2974.00,0.0164
2973.00,0.0168
2972.00,0.0173
2971.00,0.0177
2970.00,0.0181
2969.00,0.0184
2968.00,0.0186
2967.00,0.0189
2966.00,0.0191
2965.00,0.0194
2964.00,0.0197
2963.00,0.0200
2962.00,0.0202
2961.00,0.0204
2960.00,0.0205
2959.00,0.0205
2958.00,0.0204
2957.00,0.0202
2956.00,0.0200
2955.00,0.0197
2954.00,0.0194
2953.00,0.0192
2952.00,0.0189
2951.00,0.0187
2950.00,0.0186
2949.00,0.0185
2948.00,0.0184
2947.00,0.0184
2946.00,0.0185
2945.00,0.0186
2944.00,0.0188
2943.00,0.0191
2942.00,0.0193
2941.00,0.0196
2940.00,0.0200
2939.00,0.0204
2938.00,0.0209
2937.00,0.0214
2936.00,0.0220
2935.00,0.0227
2934.00,0.0234
2933.00,0.0242
2932.00,0.0249
2931.00,0.0256
2930.00,0.0262
2929.00,0.0267
2928.00,0.0271
2927.00,0.0272
2926.00,0.0272
2925.00,0.0270
2924.00,0.0267
2923.00,0.0263
2922.00,0.0258
2921.00,0.0252
2920.00,0.0246
2919.00,0.0240
2918.00,0.0233
2917.00,0.0227
2916.00,0.0221
2915.00,0.0215
2914.00,0.0210
2913.00,0.0205
2912.00,0.0200
2911.00,0.0196
2910.00,0.0192
2909.00,0.0189
2908.00,0.0186
2907.00,0.0182
2906.00,0.0179
2905.00,0.0177
2904.00,0.0174
2903.00,0.0172
2902.00,0.0170
2901.00,0.0168
2900.00,0.0166
2899.00,0.0164
2898.00,0.0163
2897.00,0.0161
2896.00,0.0160
2895.00,0.0159
2894.00,0.0158
2893.00,0.0157
2892.00,0.0157
2891.00,0.0156
2890.00,0.0155
2889.00,0.0154
2888.00,0.0153
2887.00,0.0153
2886.00,0.0152
2885.00,0.0151
2884.00,0.0151
2883.00,0.0151
2882.00,0.0151
2881.00,0.0152
2880.00,0.0153
2879.00,0.0154
2878.00,0.0156
2877.00,0.0158
2876.00,0.0161
2875.00,0.0163
2874.00,0.0165
2873.00,0.0166
2872.00,0.0167
2871.00,0.0167
2870.00,0.0167
2869.00,0.0166
2868.00,0.0165
2867.00,0.0165
2866.00,0.0165
2865.00,0.0167
2864.00,0.0169
2863.00,0.0172
2862.00,0.0176
2861.00,0.0181
2860.00,0.0186
2859.00,0.0190
2858.00,0.0194
2857.00,0.0196
2856.00,0.0197
2855.00,0.0196
2854.00,0.0195
2853.00,0.0192
2852.00,0.0187
2851.00,0.0182
2850.00,0.0175
2849.00,0.0168
2848.00,0.0160
2847.00,0.0153
2846.00,0.0146
2845.00,0.0140
2844.00,0.0134
2843.00,0.0129
2842.00,0.0124
2841.00,0.0120
2840.00,0.0116
2839.00,0.0113
2838.00,0.0110
2837.00,0.0108
2836.00,0.0106
2835.00,0.0103
2834.00,0.0101
2833.00,0.0100
2832.00,0.0098
2831.00,0.0096
2830.00,0.0095
2829.00,0.0094
2828.00,0.0092
2827.00,0.0091
2826.00,0.0090
2825.00,0.0088
2824.00,0.0087
2823.00,0.0086
2822.00,0.0085
2821.00,0.0084
2820.00,0.0083
2819.00,0.0082
2818.00,0.0082
2817.00,0.0081
2816.00,0.0080
2815.00,0.0080
2814.00,0.0079
2813.00,0.0079
2812.00,0.0078
2811.00,0.0077
2810.00,0.0077
2809.00,0.0076
2808.00,0.0076
2807.00,0.0076
2806.00,0.0075
2805.00,0.0075
2804.00,0.0075
2803.00,0.0075
2802.00,0.0075
2801.00,0.0074
2800.00,0.0073
2799.00,0.0073
2798.00,0.0073
2797.00,0.0072
2796.00,0.0072
2795.00,0.0072
2794.00,0.0072
2793.00,0.0071
2792.00,0.0071
2791.00,0.0070
2790.00,0.0070
2789.00,0.0070
2788.00,0.0070
2787.00,0.0069
2786.00,0.0069
2785.00,0.0069
2784.00,0.0069
2783.00,0.0069
2782.00,0.0068
2781.00,0.0068
2780.00,0.0068
2779.00,0.0068
2778.00,0.0068
2777.00,0.0068
2776.00,0.0067
2775.00,0.0067
2774.00,0.0067
2773.00,0.0067
2772.00,0.0067
2771.00,0.0066
2770.00,0.0066
2769.00,0.0066
2768.00,0.0066
2767.00,0.0066
2766.00,0.0066
2765.00,0.0066
2764.00,0.0066
2763.00,0.0066
2762.00,0.0066
2761.00,0.0066
2760.00,0.0066
2759.00,0.0066
2758.00,0.0066
2757.00,0.0066
2756.00,0.0066
2755.00,0.0066
2754.00,0.0066
2753.00,0.0066
2752.00,0.0066
2751.00,0.0066
2750.00,0.0066
2749.00,0.0066
2748.00,0.0066
2747.00,0.0066
2746.00,0.0066
2745.00,0.0066
2744.00,0.0066
2743.00,0.0066
2742.00,0.0066
2741.00,0.0066
2740.00,0.0066
2739.00,0.0066
2738.00,0.0066
2737.00,0.0066
2736.00,0.0067
2735.00,0.0067
2734.00,0.0068
2733.00,0.0068
2732.00,0.0068
2731.00,0.0068
2730.00,0.0068
2729.00,0.0068
2728.00,0.0068
2727.00,0.0067
2726.00,0.0067
2725.00,0.0067
2724.00,0.0067
2723.00,0.0067
2722.00,0.0067
2721.00,0.0067
2720.00,0.0067
2719.00,0.0067
2718.00,0.0066
2717.00,0.0066
2716.00,0.0066
2715.00,0.0066
2714.00,0.0066
2713.00,0.0065
2712.00,0.0065
2711.00,0.0065
2710.00,0.0065
2709.00,0.0065
2708.00,0.0065
2707.00,0.0065
2706.00,0.0065
2705.00,0.0065
2704.00,0.0065
2703.00,0.0064
2702.00,0.0064
2701.00,0.0064
2700.00,0.0064
2699.00,0.0064
2698.00,0.0064
2697.00,0.0064
2696.00,0.0064
2695.00,0.0064
2694.00,0.0064
2693.00,0.0064
2692.00,0.0063
2691.00,0.0063
2690.00,0.0063
2689.00,0.0063
2688.00,0.0063
2687.00,0.0063
2686.00,0.0063
2685.00,0.0063
2684.00,0.0063
2683.00,0.0062
2682.00,0.0062
2681.00,0.0062
2680.00,0.0062
2679.00,0.0062
2678.00,0.0062
2677.00,0.0062
2676.00,0.0062
2675.00,0.0062
2674.00,0.0062
2673.00,0.0062
2672.00,0.0063
2671.00,0.0063
2670.00,0.0063
2669.00,0.0063
2668.00,0.0063
2667.00,0.0064
2666.00,0.0064
2665.00,0.0065
2664.00,0.0065
2663.00,0.0066
2662.00,0.0066
2661.00,0.0067
2660.00,0.0067
2659.00,0.0067
2658.00,0.0068
2657.00,0.0068
2656.00,0.0068
2655.00,0.0068
2654.00,0.0068
2653.00,0.0068
2652.00,0.0068
2651.00,0.0068
2650.00,0.0068
2649.00,0.0068
2648.00,0.0068
2647.00,0.0068
2646.00,0.0068
2645.00,0.0068
2644.00,0.0068
2643.00,0.0068
2642.00,0.0067
2641.00,0.0068
2640.00,0.0068
2639.00,0.0068
2638.00,0.0068
2637.00,0.0068
2636.00,0.0067
2635.00,0.0067
2634.00,0.0067
2633.00,0.0067
2632.00,0.0067
2631.00,0.0066
2630.00,0.0066
2629.00,0.0066
2628.00,0.0066
2627.00,0.0066
2626.00,0.0066
2625.00,0.0066
2624.00,0.0066
2623.00,0.0066
2622.00,0.0065
2621.00,0.0065
2620.00,0.0065
2619.00,0.0065
2618.00,0.0065
2617.00,0.0065
2616.00,0.0065
2615.00,0.0065
2614.00,0.0064
2613.00,0.0064
2612.00,0.0064
2611.00,0.0064
2610.00,0.0064
2609.00,0.0064
2608.00,0.0064
2607.00,0.0064
2606.00,0.0064
2605.00,0.0064
2604.00,0.0064
2603.00,0.0064
2602.00,0.0064
2601.00,0.0064
2600.00,0.0064
2599.00,0.0064
2598.00,0.0064
2597.00,0.0064
2596.00,0.0064
2595.00,0.0064
2594.00,0.0064
2593.00,0.0064
2592.00,0.0064
2591.00,0.0064
2590.00,0.0064
2589.00,0.0064
2588.00,0.0065
2587.00,0.0065
2586.00,0.0065
2585.00,0.0065
2584.00,0.0065
2583.00,0.0064
2582.00,0.0064
2581.00,0.0064
2580.00,0.0064
2579.00,0.0064
2578.00,0.0064
2577.00,0.0064
2576.00,0.0063
2575.00,0.0063
2574.00,0.0063
2573.00,0.0063
2572.00,0.0063
2571.00,0.0063
2570.00,0.0063
2569.00,0.0063
2568.00,0.0063
2567.00,0.0063
2566.00,0.0063
2565.00,0.0063
2564.00,0.0063
2563.00,0.0063
2562.00,0.0062
2561.00,0.0062
2560.00,0.0062
2559.00,0.0062
2558.00,0.0062
2557.00,0.0062
2556.00,0.0062
2555.00,0.0062
2554.00,0.0061
2553.00,0.0061
2552.00,0.0061
2551.00,0.0061
2550.00,0.0060
2549.00,0.0060
2548.00,0.0060
2547.00,0.0060
2546.00,0.0061
2545.00,0.0061
2544.00,0.0061
2543.00,0.0061
2542.00,0.0060
2541.00,0.0060
2540.00,0.0060
2539.00,0.0060
2538.00,0.0060
2537.00,0.0060
2536.00,0.0060
2535.00,0.0061
2534.00,0.0060
2533.00,0.0060
2532.00,0.0060
2531.00,0.0060
2530.00,0.0060
2529.00,0.0060
2528.00,0.0059
2527.00,0.0059
2526.00,0.0059
2525.00,0.0059
2524.00,0.0059
2523.00,0.0058
2522.00,0.0058
2521.00,0.0058
2520.00,0.0058
2519.00,0.0058
2518.00,0.0058
2517.00,0.0057
2516.00,0.0057
2515.00,0.0057
2514.00,0.0057
2513.00,0.0057
2512.00,0.0057
2511.00,0.0057
2510.00,0.0057
2509.00,0.0057
2508.00,0.0057
2507.00,0.0057
2506.00,0.0057
2505.00,0.0057
2504.00,0.0057
2503.00,0.0057
2502.00,0.0057
2501.00,0.0056
2500.00,0.0056
2499.00,0.0056
2498.00,0.0056
2497.00,0.0056
2496.00,0.0056
2495.00,0.0056
2494.00,0.0056
2493.00,0.0056
2492.00,0.0056
2491.00,0.0056
2490.00,0.0056
2489.00,0.0056
2488.00,0.0056
2487.00,0.0056
2486.00,0.0056
2485.00,0.0056
2484.00,0.0056
2483.00,0.0056
2482.00,0.0056
2481.00,0.0056
2480.00,0.0056
2479.00,0.0056
2478.00,0.0055
2477.00,0.0055
2476.00,0.0055
2475.00,0.0055
2474.00,0.0055
2473.00,0.0056
2472.00,0.0056
2471.00,0.0056
2470.00,0.0056
2469.00,0.0056
2468.00,0.0055
2467.00,0.0055
2466.00,0.0055
2465.00,0.0055
2464.00,0.0056
2463.00,0.0056
2462.00,0.0056
2461.00,0.0057
2460.00,0.0057
2459.00,0.0057
2458.00,0.0057
2457.00,0.0057
2456.00,0.0057
2455.00,0.0057
2454.00,0.0057
2453.00,0.0057
2452.00,0.0057
2451.00,0.0057
2450.00,0.0057
2449.00,0.0057
2448.00,0.0056
2447.00,0.0056
2446.00,0.0056
2445.00,0.0056
2444.00,0.0056
2443.00,0.0056
2442.00,0.0056
2441.00,0.0056
2440.00,0.0056
2439.00,0.0056
2438.00,0.0055
2437.00,0.0055
2436.00,0.0055
2435.00,0.0055
2434.00,0.0055
2433.00,0.0054
2432.00,0.0055
2431.00,0.0055
2430.00,0.0054
2429.00,0.0054
2428.00,0.0054
2427.00,0.0054
2426.00,0.0054
2425.00,0.0054
2424.00,0.0054
2423.00,0.0054
2422.00,0.0054
2421.00,0.0054
2420.00,0.0053
2419.00,0.0053
2418.00,0.0053
2417.00,0.0054
2416.00,0.0054
2415.00,0.0054
2414.00,0.0054
2413.00,0.0054
2412.00,0.0054
2411.00,0.0055
2410.00,0.0055
2409.00,0.0054
2408.00,0.0054
2407.00,0.0054
2406.00,0.0053
2405.00,0.0053
2404.00,0.0053
2403.00,0.0053
2402.00,0.0053
2401.00,0.0053
2400.00,0.0053
2399.00,0.0053
2398.00,0.0053
2397.00,0.0053
2396.00,0.0053
2395.00,0.0053
2394.00,0.0053
2393.00,0.0053
2392.00,0.0053
2391.00,0.0053
2390.00,0.0053
2389.00,0.0052
2388.00,0.0052
2387.00,0.0052
2386.00,0.0051
2385.00,0.0051
2384.00,0.0050
2383.00,0.0050
2382.00,0.0050
2381.00,0.0050
2380.00,0.0050
2379.00,0.0050
2378.00,0.0050
2377.00,0.0050
2376.00,0.0050
2375.00,0.0050
2374.00,0.0051
2373.00,0.0050
2372.00,0.0050
2371.00,0.0049
2370.00,0.0049
2369.00,0.0048
2368.00,0.0048
2367.00,0.0048
2366.00,0.0049
2365.00,0.0049
2364.00,0.0049
2363.00,0.0050
2362.00,0.0049
2361.00,0.0050
2360.00,0.0050
2359.00,0.0050
2358.00,0.0050
2357.00,0.0050
2356.00,0.0050
2355.00,0.0049
2354.00,0.0049
2353.00,0.0049
2352.00,0.0049
2351.00,0.0049
2350.00,0.0049
2349.00,0.0050
2348.00,0.0051
2347.00,0.0052
2346.00,0.0053
2345.00,0.0054
2344.00,0.0054
2343.00,0.0053
2342.00,0.0053
2341.00,0.0053
2340.00,0.0054
2339.00,0.0054
2338.00,0.0054
2337.00,0.0054
2336.00,0.0054
2335.00,0.0054
2334.00,0.0054
2333.00,0.0054
2332.00,0.0054
2331.00,0.0054
2330.00,0.0054
2329.00,0.0056
2328.00,0.0059
2327.00,0.0062
2326.00,0.0065
2325.00,0.0066
2324.00,0.0065
2323.00,0.0063
2322.00,0.0061
2321.00,0.0059
2320.00,0.0058
2319.00,0.0057
2318.00,0.0057
2317.00,0.0056
2316.00,0.0056
2315.00,0.0056
2314.00,0.0056
2313.00,0.0056
2312.00,0.0055
2311.00,0.0054
2310.00,0.0054
2309.00,0.0053
2308.00,0.0054
2307.00,0.0054
2306.00,0.0055
2305.00,0.0055
2304.00,0.0055
2303.00,0.0056
2302.00,0.0056
2301.00,0.0056
2300.00,0.0057
2299.00,0.0057
2298.00,0.0058
2297.00,0.0059
2296.00,0.0060
2295.00,0.0060
2294.00,0.0060
2293.00,0.0061
2292.00,0.0062
2291.00,0.0063
2290.00,0.0064
2289.00,0.0066
2288.00,0.0066
2287.00,0.0066
2286.00,0.0065
2285.00,0.0065
2284.00,0.0064
2283.00,0.0064
2282.00,0.0063
2281.00,0.0063
2280.00,0.0063
2279.00,0.0063
2278.00,0.0063
2277.00,0.0063
2276.00,0.0062
2275.00,0.0062
2274.00,0.0061
2273.00,0.0060
2272.00,0.0060
2271.00,0.0059
2270.00,0.0058
2269.00,0.0058
2268.00,0.0057
2267.00,0.0057
2266.00,0.0056
2265.00,0.0056
2264.00,0.0056
2263.00,0.0057
2262.00,0.0058
2261.00,0.0059
2260.00,0.0059
2259.00,0.0059
2258.00,0.0057
2257.00,0.0056
2256.00,0.0055
2255.00,0.0054
2254.00,0.0054
2253.00,0.0055
2252.00,0.0055
2251.00,0.0056
2250.00,0.0056
2249.00,0.0056
2248.00,0.0057
2247.00,0.0057
2246.00,0.0057
2245.00,0.0057
2244.00,0.0058
2243.00,0.0058
2242.00,0.0057
2241.00,0.0057
2240.00,0.0057
2239.00,0.0057
2238.00,0.0057
2237.00,0.0057
2236.00,0.0057
2235.00,0.0057
2234.00,0.0057
2233.00,0.0057
2232.00,0.0057
2231.00,0.0057
2230.00,0.0057
2229.00,0.0057
2228.00,0.0057
2227.00,0.0057
2226.00,0.0057
2225.00,0.0057
2224.00,0.0058
2223.00,0.0058
2222.00,0.0058
2221.00,0.0059
2220.00,0.0059
2219.00,0.0058
2218.00,0.0057
2217.00,0.0056
2216.00,0.0055
2215.00,0.0055
2214.00,0.0056
2213.00,0.0056
2212.00,0.0057
2211.00,0.0057
2210.00,0.0057
2209.00,0.0058
2208.00,0.0058
2207.00,0.0057
2206.00,0.0057
2205.00,0.0057
2204.00,0.0057
2203.00,0.0057
2202.00,0.0057
2201.00,0.0056
2200.00,0.0056
2199.00,0.0056
2198.00,0.0056
2197.00,0.0057
2196.00,0.0057
2195.00,0.0057
2194.00,0.0056
2193.00,0.0057
2192.00,0.0059
2191.00,0.0061
2190.00,0.0062
2189.00,0.0063
2188.00,0.0063
2187.00,0.0063
2186.00,0.0061
2185.00,0.0059
2184.00,0.0057
2183.00,0.0054
2182.00,0.0053
2181.00,0.0053
2180.00,0.0053
2179.00,0.0054
2178.00,0.0054
2177.00,0.0053
2176.00,0.0052
2175.00,0.0053
2174.00,0.0054
2173.00,0.0056
2172.00,0.0058
2171.00,0.0060
2170.00,0.0061
2169.00,0.0063
2168.00,0.0064
2167.00,0.0066
2166.00,0.0067
2165.00,0.0069
2164.00,0.0071
2163.00,0.0071
2162.00,0.0066
2161.00,0.0055
2160.00,0.0040
2159.00,0.0029
2158.00,0.0024
2157.00,0.0024
2156.00,0.0027
2155.00,0.0029
2154.00,0.0031
2153.00,0.0035
2152.00,0.0038
2151.00,0.0041
2150.00,0.0042
2149.00,0.0042
2148.00,0.0041
2147.00,0.0040
2146.00,0.0039
2145.00,0.0038
2144.00,0.0038
2143.00,0.0037
2142.00,0.0038
2141.00,0.0039
2140.00,0.0039
2139.00,0.0039
2138.00,0.0038
2137.00,0.0037
2136.00,0.0036
2135.00,0.0036
2134.00,0.0036
2133.00,0.0037
2132.00,0.0038
2131.00,0.0040
2130.00,0.0041
2129.00,0.0043
2128.00,0.0044
2127.00,0.0045
2126.00,0.0046
2125.00,0.0047
2124.00,0.0047
2123.00,0.0048
2122.00,0.0049
2121.00,0.0049
2120.00,0.0050
2119.00,0.0051
2118.00,0.0052
2117.00,0.0053
2116.00,0.0055
2115.00,0.0056
2114.00,0.0057
2113.00,0.0056
2112.00,0.0056
2111.00,0.0055
2110.00,0.0053
2109.00,0.0052
2108.00,0.0052
2107.00,0.0052
2106.00,0.0052
2105.00,0.0052
2104.00,0.0053
2103.00,0.0053
2102.00,0.0053
2101.00,0.0053
2100.00,0.0052
2099.00,0.0052
2098.00,0.0051
2097.00,0.0049
2096.00,0.0048
2095.00,0.0048
2094.00,0.0048
2093.00,0.0049
2092.00,0.0050
2091.00,0.0051
2090.00,0.0051
2089.00,0.0051
2088.00,0.0051
2087.00,0.0051
2086.00,0.0052
2085.00,0.0052
2084.00,0.0053
2083.00,0.0053
2082.00,0.0053
2081.00,0.0054
2080.00,0.0055
2079.00,0.0055
2078.00,0.0055
2077.00,0.0054
2076.00,0.0053
2075.00,0.0053
2074.00,0.0053
2073.00,0.0054
2072.00,0.0054
2071.00,0.0054
2070.00,0.0054
2069.00,0.0055
2068.00,0.0055
2067.00,0.0055
2066.00,0.0054
2065.00,0.0053
2064.00,0.0053
2063.00,0.0054
2062.00,0.0053
2061.00,0.0053
2060.00,0.0052
2059.00,0.0052
2058.00,0.0052
2057.00,0.0052
2056.00,0.0052
2055.00,0.0052
2054.00,0.0054
2053.00,0.0057
2052.00,0.0061
2051.00,0.0063
2050.00,0.0062
2049.00,0.0059
2048.00,0.0055
2047.00,0.0052
2046.00,0.0051
2045.00,0.0051
2044.00,0.0052
2043.00,0.0053
2042.00,0.0052
2041.00,0.0052
2040.00,0.0053
2039.00,0.0053
2038.00,0.0053
2037.00,0.0052
2036.00,0.0051
2035.00,0.0049
2034.00,0.0047
2033.00,0.0047
2032.00,0.0047
2031.00,0.0047
2030.00,0.0047
2029.00,0.0047
2028.00,0.0047
2027.00,0.0047
2026.00,0.0046
2025.00,0.0045
2024.00,0.0043
2023.00,0.0042
2022.00,0.0042
2021.00,0.0042
2020.00,0.0042
2019.00,0.0043
2018.00,0.0043
2017.00,0.0044
2016.00,0.0044
2015.00,0.0045
2014.00,0.0045
2013.00,0.0044
2012.00,0.0042
2011.00,0.0041
2010.00,0.0041
2009.00,0.0040
2008.00,0.0040
2007.00,0.0039
2006.00,0.0037
2005.00,0.0037
2004.00,0.0038
2003.00,0.0039
2002.00,0.0040
2001.00,0.0042
2000.00,0.0045
1999.00,0.0047
1998.00,0.0049
1997.00,0.0049
1996.00,0.0048
1995.00,0.0047
1994.00,0.0047
1993.00,0.0047
1992.00,0.0048
1991.00,0.0049
1990.00,0.0048
1989.00,0.0047
1988.00,0.0047
1987.00,0.0047
1986.00,0.0047
1985.00,0.0049
1984.00,0.0052
1983.00,0.0054
1982.00,0.0056
1981.00,0.0056
1980.00,0.0055
1979.00,0.0050
1978.00,0.0044
1977.00,0.0039
1976.00,0.0037
1975.00,0.0037
1974.00,0.0038
1973.00,0.0038
1972.00,0.0038
1971.00,0.0037
1970.00,0.0035
1969.00,0.0034
1968.00,0.0034
1967.00,0.0035
1966.00,0.0036
1965.00,0.0036
1964.00,0.0037
1963.00,0.0036
1962.00,0.0035
1961.00,0.0033
1960.00,0.0033
1959.00,0.0032
1958.00,0.0033
1957.00,0.0034
1956.00,0.0035
1955.00,0.0037
1954.00,0.0038
1953.00,0.0039
1952.00,0.0040
1951.00,0.0041
1950.00,0.0041
1949.00,0.0040
1948.00,0.0039
1947.00,0.0039
1946.00,0.0039
1945.00,0.0040
1944.00,0.0040
1943.00,0.0041
1942.00,0.0040
1941.00,0.0040
1940.00,0.0040
1939.00,0.0040
1938.00,0.0039
1937.00,0.0039
1936.00,0.0039
1935.00,0.0039
1934.00,0.0038
1933.00,0.0039
1932.00,0.0039
1931.00,0.0040
1930.00,0.0040
1929.00,0.0041
1928.00,0.0041
1927.00,0.0042
1926.00,0.0042
1925.00,0.0042
1924.00,0.0042
1923.00,0.0042
1922.00,0.0042
1921.00,0.0042
1920.00,0.0042
1919.00,0.0042
1918.00,0.0042
1917.00,0.0043
1916.00,0.0043
1915.00,0.0044
1914.00,0.0045
1913.00,0.0046
1912.00,0.0047
1911.00,0.0048
1910.00,0.0048
1909.00,0.0048
1908.00,0.0048
1907.00,0.0047
1906.00,0.0046
1905.00,0.0045
1904.00,0.0044
1903.00,0.0045
1902.00,0.0045
1901.00,0.0045
1900.00,0.0045
1899.00,0.0045
1898.00,0.0045
1897.00,0.0045
1896.00,0.0046
1895.00,0.0047
1894.00,0.0047
1893.00,0.0047
1892.00,0.0046
1891.00,0.0045
1890.00,0.0044
1889.00,0.0045
1888.00,0.0045
1887.00,0.0045
1886.00,0.0045
1885.00,0.0045
1884.00,0.0045
1883.00,0.0044
1882.00,0.0044
1881.00,0.0044
1880.00,0.0045
1879.00,0.0045
1878.00,0.0045
1877.00,0.0045
1876.00,0.0045
1875.00,0.0044
1874.00,0.0044
1873.00,0.0044
1872.00,0.0044
1871.00,0.0044
1870.00,0.0044
1869.00,0.0045
1868.00,0.0045
1867.00,0.0045
1866.00,0.0044
1865.00,0.0044
1864.00,0.0044
1863.00,0.0045
1862.00,0.0045
1861.00,0.0045
1860.00,0.0045
1859.00,0.0045
1858.00,0.0045
1857.00,0.0045
1856.00,0.0045
1855.00,0.0046
1854.00,0.0046
1853.00,0.0045
1852.00,0.0045
1851.00,0.0045
1850.00,0.0045
1849.00,0.0045
1848.00,0.0045
1847.00,0.0046
1846.00,0.0046
1845.00,0.0046
1844.00,0.0046
1843.00,0.0046
1842.00,0.0045
1841.00,0.0045
1840.00,0.0045
1839.00,0.0045
1838.00,0.0045
1837.00,0.0045
1836.00,0.0045
1835.00,0.0045
1834.00,0.0045
1833.00,0.0045
1832.00,0.0045
1831.00,0.0045
1830.00,0.0044
1829.00,0.0044
1828.00,0.0044
1827.00,0.0044
1826.00,0.0044
1825.00,0.0044
1824.00,0.0044
1823.00,0.0045
1822.00,0.0044
1821.00,0.0044
1820.00,0.0044
1819.00,0.0043
1818.00,0.0042
1817.00,0.0042
1816.00,0.0042
1815.00,0.0043
1814.00,0.0043
1813.00,0.0044
1812.00,0.0044
1811.00,0.0045
1810.00,0.0045
1809.00,0.0045
1808.00,0.0045
1807.00,0.0045
1806.00,0.0045
1805.00,0.0045
1804.00,0.0045
1803.00,0.0045
1802.00,0.0045
1801.00,0.0045
1800.00,0.0045
1799.00,0.0045
1798.00,0.0045
1797.00,0.0045
1796.00,0.0046
1795.00,0.0046
1794.00,0.0046
1793.00,0.0046
1792.00,0.0046
1791.00,0.0045
1790.00,0.0045
1789.00,0.0045
1788.00,0.0045
1787.00,0.0046
1786.00,0.0046
1785.00,0.0047
1784.00,0.0047
1783.00,0.0047
1782.00,0.0046
1781.00,0.0046
1780.00,0.0046
1779.00,0.0047
1778.00,0.0047
1777.00,0.0047
1776.00,0.0047
1775.00,0.0048
1774.00,0.0048
1773.00,0.0047
1772.00,0.0047
1771.00,0.0047
1770.00,0.0047
1769.00,0.0046
1768.00,0.0046
1767.00,0.0047
1766.00,0.0048
1765.00,0.0048
1764.00,0.0048
1763.00,0.0049
1762.00,0.0049
1761.00,0.0049
1760.00,0.0049
1759.00,0.0049
1758.00,0.0049
1757.00,0.0049
1756.00,0.0050
1755.00,0.0050
1754.00,0.0050
1753.00,0.0050
1752.00,0.0050
1751.00,0.0050
1750.00,0.0050
1749.00,0.0050
1748.00,0.0050
1747.00,0.0050
1746.00,0.0050
1745.00,0.0051
1744.00,0.0051
1743.00,0.0052
1742.00,0.0052
1741.00,0.0052
1740.00,0.0052
1739.00,0.0052
1738.00,0.0053
1737.00,0.0053
1736.00,0.0053
1735.00,0.0053
1734.00,0.0053
1733.00,0.0054
1732.00,0.0055
1731.00,0.0055
1730.00,0.0056
1729.00,0.0057
1728.00,0.0059
1727.00,0.0060
1726.00,0.0061
1725.00,0.0062
1724.00,0.0063
1723.00,0.0064
1722.00,0.0065
1721.00,0.0066
1720.00,0.0066
1719.00,0.0067
1718.00,0.0067
1717.00,0.0068
1716.00,0.0070
1715.00,0.0071
1714.00,0.0072
1713.00,0.0074
1712.00,0.0077
1711.00,0.0080
1710.00,0.0083
1709.00,0.0086
1708.00,0.0090
1707.00,0.0093
1706.00,0.0097
1705.00,0.0101
1704.00,0.0106
1703.00,0.0112
1702.00,0.0117
1701.00,0.0125
1700.00,0.0135
1699.00,0.0144
1698.00,0.0153
1697.00,0.0164
1696.00,0.0180
1695.00,0.0198
1694.00,0.0213
1693.00,0.0228
1692.00,0.0243
1691.00,0.0260
1690.00,0.0279
1689.00,0.0298
1688.00,0.0317
1687.00,0.0335
1686.00,0.0352
1685.00,0.0373
1684.00,0.0394
1683.00,0.0414
1682.00,0.0431
1681.00,0.0447
1680.00,0.0466
1679.00,0.0485
1678.00,0.0503
1677.00,0.0520
1676.00,0.0537
1675.00,0.0553
1674.00,0.0568
1673.00,0.0583
1672.00,0.0598
1671.00,0.0614
1670.00,0.0628
1669.00,0.0640
1668.00,0.0653
1667.00,0.0666
1666.00,0.0679
1665.00,0.0693
1664.00,0.0707
1663.00,0.0718
1662.00,0.0727
1661.00,0.0735
1660.00,0.0745
1659.00,0.0754
1658.00,0.0764
1657.00,0.0773
1656.00,0.0783
1655.00,0.0792
1654.00,0.0791
1653.00,0.0777
1652.00,0.0765
1651.00,0.0762
1650.00,0.0765
1649.00,0.0768
1648.00,0.0765
1647.00,0.0752
1646.00,0.0734
1645.00,0.0718
1644.00,0.0707
1643.00,0.0698
1642.00,0.0687
1641.00,0.0675
1640.00,0.0661
1639.00,0.0648
1638.00,0.0634
1637.00,0.0615
1636.00,0.0590
1635.00,0.0563
1634.00,0.0543
1633.00,0.0531
1632.00,0.0524
1631.00,0.0521
1630.00,0.0519
1629.00,0.0519
1628.00,0.0521
1627.00,0.0525
1626.00,0.0530
1625.00,0.0534
1624.00,0.0535
1623.00,0.0533
1622.00,0.0528
1621.00,0.0521
1620.00,0.0513
1619.00,0.0502
1618.00,0.0485
1617.00,0.0461
1616.00,0.0437
1615.00,0.0419
1614.00,0.0409
1613.00,0.0404
1612.00,0.0400
1611.00,0.0395
1610.00,0.0388
1609.00,0.0376
1608.00,0.0362
1607.00,0.0346
1606.00,0.0329
1605.00,0.0313
1604.00,0.0297
1603.00,0.0282
1602.00,0.0269
1601.00,0.0257
1600.00,0.0247
1599.00,0.0239
1598.00,0.0232
1597.00,0.0227
1596.00,0.0223
1595.00,0.0221
1594.00,0.0221
1593.00,0.0224
1592.00,0.0229
1591.00,0.0237
1590.00,0.0247
1589.00,0.0258
1588.00,0.0269
1587.00,0.0278
1586.00,0.0285
1585.00,0.0289
1584.00,0.0289
1583.00,0.0287
1582.00,0.0283
1581.00,0.0276
1580.00,0.0269
1579.00,0.0262
1578.00,0.0254
1577.00,0.0243
1576.00,0.0230
1575.00,0.0219
1574.00,0.0211
1573.00,0.0205
1572.00,0.0200
1571.00,0.0196
1570.00,0.0192
1569.00,0.0187
1568.00,0.0183
1567.00,0.0179
1566.00,0.0174
1565.00,0.0168
1564.00,0.0162
1563.00,0.0157
1562.00,0.0152
1561.00,0.0147
1560.00,0.0141
1559.00,0.0133
1558.00,0.0127
1557.00,0.0123
1556.00,0.0121
1555.00,0.0120
1554.00,0.0120
1553.00,0.0120
1552.00,0.0120
1551.00,0.0118
1550.00,0.0118
1549.00,0.0117
1548.00,0.0117
1547.00,0.0116
1546.00,0.0115
1545.00,0.0113
1544.00,0.0111
1543.00,0.0109
1542.00,0.0107
1541.00,0.0105
1540.00,0.0103
1539.00,0.0102
1538.00,0.0102
1537.00,0.0103
1536.00,0.0103
1535.00,0.0103
1534.00,0.0102
1533.00,0.0102
1532.00,0.0101
1531.00,0.0101
1530.00,0.0101
1529.00,0.0101
1528.00,0.0101
1527.00,0.0101
1526.00,0.0101
1525.00,0.0102
1524.00,0.0102
1523.00,0.0102
1522.00,0.0103
1521.00,0.0104
1520.00,0.0105
1519.00,0.0106
1518.00,0.0107
1517.00,0.0110
1516.00,0.0113
1515.00,0.0116
1514.00,0.0118
1513.00,0.0121
1512.00,0.0124
1511.00,0.0126
1510.00,0.0129
1509.00,0.0130
1508.00,0.0133
1507.00,0.0136
1506.00,0.0141
1505.00,0.0147
1504.00,0.0153
1503.00,0.0162
1502.00,0.0172
1501.00,0.0185
1500.00,0.0199
1499.00,0.0216
1498.00,0.0233
1497.00,0.0249
1496.00,0.0259
1495.00,0.0263
1494.00,0.0262
1493.00,0.0256
1492.00,0.0248
1491.00,0.0236
1490.00,0.0223
1489.00,0.0209
1488.00,0.0196
1487.00,0.0184
1486.00,0.0175
1485.00,0.0167
1484.00,0.0160
1483.00,0.0154
1482.00,0.0150
1481.00,0.0146
1480.00,0.0145
1479.00,0.0144
1478.00,0.0145
1477.00,0.0147
1476.00,0.0150
1475.00,0.0155
1474.00,0.0162
1473.00,0.0173
1472.00,0.0189
1471.00,0.0208
1470.00,0.0229
1469.00,0.0253
1468.00,0.0278
1467.00,0.0303
1466.00,0.0326
1465.00,0.0347
1464.00,0.0362
1463.00,0.0373
1462.00,0.0381
1461.00,0.0387
1460.00,0.0389
1459.00,0.0386
1458.00,0.0374
1457.00,0.0355
1456.00,0.0335
1455.00,0.0320
1454.00,0.0310
1453.00,0.0304
1452.00,0.0301
1451.00,0.0300
1450.00,0.0302
1449.00,0.0308
1448.00,0.0317
1447.00,0.0328
1446.00,0.0342
1445.00,0.0359
1444.00,0.0377
1443.00,0.0395
1442.00,0.0413
1441.00,0.0430
1440.00,0.0445
1439.00,0.0458
1438.00,0.0469
1437.00,0.0476
1436.00,0.0482
1435.00,0.0487
1434.00,0.0492
1433.00,0.0498
1432.00,0.0504
1431.00,0.0509
1430.00,0.0514
1429.00,0.0521
1428.00,0.0529
1427.00,0.0539
1426.00,0.0550
1425.00,0.0560
1424.00,0.0568
1423.00,0.0573
1422.00,0.0573
1421.00,0.0568
1420.00,0.0555
1419.00,0.0531
1418.00,0.0502
1417.00,0.0475
1416.00,0.0451
1415.00,0.0426
1414.00,0.0404
1413.00,0.0383
1412.00,0.0364
1411.00,0.0349
1410.00,0.0338
1409.00,0.0331
1408.00,0.0327
1407.00,0.0326
1406.00,0.0328
1405.00,0.0331
1404.00,0.0336
1403.00,0.0340
1402.00,0.0342
1401.00,0.0343
1400.00,0.0340
1399.00,0.0333
1398.00,0.0323
1397.00,0.0312
1396.00,0.0299
1395.00,0.0284
1394.00,0.0271
1393.00,0.0259
1392.00,0.0251
1391.00,0.0246
1390.00,0.0245
1389.00,0.0248
1388.00,0.0253
1387.00,0.0260
1386.00,0.0264
1385.00,0.0264
1384.00,0.0263
1383.00,0.0263
1382.00,0.0265
1381.00,0.0269
1380.00,0.0274
1379.00,0.0277
1378.00,0.0280
1377.00,0.0281
1376.00,0.0279
1375.00,0.0275
1374.00,0.0269
1373.00,0.0264
1372.00,0.0260
1371.00,0.0258
1370.00,0.0259
1369.00,0.0263
1368.00,0.0269
1367.00,0.0275
1366.00,0.0281
1365.00,0.0284
1364.00,0.0284
1363.00,0.0284
1362.00,0.0286
1361.00,0.0290
1360.00,0.0291
1359.00,0.0287
1358.00,0.0277
1357.00,0.0264
1356.00,0.0252
1355.00,0.0242
1354.00,0.0234
1353.00,0.0229
1352.00,0.0225
1351.00,0.0223
1350.00,0.0221
1349.00,0.0221
1348.00,0.0220
1347.00,0.0219
1346.00,0.0216
1345.00,0.0213
1344.00,0.0210
1343.00,0.0206
1342.00,0.0201
1341.00,0.0197
1340.00,0.0193
1339.00,0.0190
1338.00,0.0188
1337.00,0.0187
1336.00,0.0188
1335.00,0.0190
1334.00,0.0194
1333.00,0.0198
1332.00,0.0202
1331.00,0.0207
1330.00,0.0211
1329.00,0.0216
1328.00,0.0220
1327.00,0.0224
1326.00,0.0228
1325.00,0.0234
1324.00,0.0239
1323.00,0.0245
1322.00,0.0252
1321.00,0.0257
1320.00,0.0262
1319.00,0.0266
1318.00,0.0268
1317.00,0.0268
1316.00,0.0266
1315.00,0.0263
1314.00,0.0260
1313.00,0.0256
1312.00,0.0252
1311.00,0.0249
1310.00,0.0247
1309.00,0.0247
1308.00,0.0249
1307.00,0.0254
1306.00,0.0261
1305.00,0.0271
1304.00,0.0283
1303.00,0.0298
1302.00,0.0314
1301.00,0.0329
1300.00,0.0343
1299.00,0.0358
1298.00,0.0376
1297.00,0.0396
1296.00,0.0421
1295.00,0.0448
1294.00,0.0477
1293.00,0.0505
1292.00,0.0532
1291.00,0.0555
1290.00,0.0576
1289.00,0.0594
1288.00,0.0609
1287.00,0.0620
1286.00,0.0626
1285.00,0.0629
1284.00,0.0626
1283.00,0.0619
1282.00,0.0608
1281.00,0.0595
1280.00,0.0582
1279.00,0.0570
1278.00,0.0562
1277.00,0.0556
1276.00,0.0553
1275.00,0.0552
1274.00,0.0552
1273.00,0.0551
1272.00,0.0548
1271.00,0.0543
1270.00,0.0536
1269.00,0.0525
1268.00,0.0513
1267.00,0.0498
1266.00,0.0482
1265.00,0.0465
1264.00,0.0447
1263.00,0.0429
1262.00,0.0412
1261.00,0.0395
1260.00,0.0379
1259.00,0.0364
1258.00,0.0350
1257.00,0.0338
1256.00,0.0327
1255.00,0.0318
1254.00,0.0310
1253.00,0.0303
1252.00,0.0298
1251.00,0.0295
1250.00,0.0293
1249.00,0.0294
1248.00,0.0297
1247.00,0.0300
1246.00,0.0305
1245.00,0.0310
1244.00,0.0315
1243.00,0.0319
1242.00,0.0322
1241.00,0.0326
1240.00,0.0331
1239.00,0.0337
1238.00,0.0345
1237.00,0.0354
1236.00,0.0364
1235.00,0.0372
1234.00,0.0379
1233.00,0.0382
1232.00,0.0382
1231.00,0.0378
1230.00,0.0373
1229.00,0.0367
1228.00,0.0360
1227.00,0.0354
1226.00,0.0349
1225.00,0.0344
1224.00,0.0340
1223.00,0.0337
1222.00,0.0335
1221.00,0.0335
1220.00,0.0335
1219.00,0.0337
1218.00,0.0339
1217.00,0.0341
1216.00,0.0343
1215.00,0.0344
1214.00,0.0342
1213.00,0.0338
1212.00,0.0331
1211.00,0.0322
1210.00,0.0312
1209.00,0.0303
1208.00,0.0294
1207.00,0.0287
1206.00,0.0282
1205.00,0.0280
1204.00,0.0279
1203.00,0.0281
1202.00,0.0285
1201.00,0.0292
1200.00,0.0299
1199.00,0.0308
1198.00,0.0318
1197.00,0.0328
1196.00,0.0336
1195.00,0.0340
1194.00,0.0341
1193.00,0.0337
1192.00,0.0328
1191.00,0.0317
1190.00,0.0305
1189.00,0.0293
1188.00,0.0281
1187.00,0.0269
1186.00,0.0259
1185.00,0.0251
1184.00,0.0244
1183.00,0.0238
1182.00,0.0234
1181.00,0.0232
1180.00,0.0230
1179.00,0.0229
1178.00,0.0229
1177.00,0.0230
1176.00,0.0230
1175.00,0.0232
1174.00,0.0234
1173.00,0.0235
1172.00,0.0237
1171.00,0.0238
1170.00,0.0239
1169.00,0.0240
1168.00,0.0239
1167.00,0.0239
1166.00,0.0239
1165.00,0.0239
1164.00,0.0239
1163.00,0.0240
1162.00,0.0244
1161.00,0.0250
1160.00,0.0258
1159.00,0.0271
1158.00,0.0287
1157.00,0.0304
1156.00,0.0319
1155.00,0.0328
1154.00,0.0328
1153.00,0.0317
1152.00,0.0299
1151.00,0.0276
1150.00,0.0255
1149.00,0.0237
1148.00,0.0223
1147.00,0.0213
1146.00,0.0206
1145.00,0.0200
1144.00,0.0196
1143.00,0.0193
1142.00,0.0191
1141.00,0.0190
1140.00,0.0189
1139.00,0.0190
1138.00,0.0193
1137.00,0.0197
1136.00,0.0204
1135.00,0.0214
1134.00,0.0229
1133.00,0.0249
1132.00,0.0272
1131.00,0.0295
1130.00,0.0315
1129.00,0.0327
1128.00,0.0331
1127.00,0.0326
1126.00,0.0316
1125.00,0.0301
1124.00,0.0285
1123.00,0.0268
1122.00,0.0252
1121.00,0.0238
1120.00,0.0227
1119.00,0.0218
1118.00,0.0213
1117.00,0.0210
1116.00,0.0208
1115.00,0.0207
1114.00,0.0206
1113.00,0.0205
1112.00,0.0202
1111.00,0.0199
1110.00,0.0197
1109.00,0.0195
1108.00,0.0194
1107.00,0.0195
1106.00,0.0198
1105.00,0.0203
1104.00,0.0211
1103.00,0.0221
1102.00,0.0233
1101.00,0.0245
1100.00,0.0252
1099.00,0.0253
1098.00,0.0249
1097.00,0.0240
1096.00,0.0228
1095.00,0.0215
1094.00,0.0204
1093.00,0.0195
1092.00,0.0188
1091.00,0.0183
1090.00,0.0179
1089.00,0.0177
1088.00,0.0175
1087.00,0.0173
1086.00,0.0172
1085.00,0.0171
1084.00,0.0170
1083.00,0.0170
1082.00,0.0171
1081.00,0.0172
1080.00,0.0173
1079.00,0.0174
1078.00,0.0175
1077.00,0.0177
1076.00,0.0178
1075.00,0.0179
1074.00,0.0180
1073.00,0.0181
1072.00,0.0182
1071.00,0.0183
1070.00,0.0185
1069.00,0.0188
1068.00,0.0190
1067.00,0.0193
1066.00,0.0198
1065.00,0.0203
1064.00,0.0209
1063.00,0.0217
1062.00,0.0229
1061.00,0.0243
1060.00,0.0261
1059.00,0.0283
1058.00,0.0309
1057.00,0.0337
1056.00,0.0362
1055.00,0.0382
1054.00,0.0396
1053.00,0.0403
1052.00,0.0406
1051.00,0.0405
1050.00,0.0403
1049.00,0.0397
1048.00,0.0386
1047.00,0.0371
1046.00,0.0353
1045.00,0.0332
1044.00,0.0311
1043.00,0.0292
1042.00,0.0275
1041.00,0.0261
1040.00,0.0250
1039.00,0.0242
1038.00,0.0239
1037.00,0.0238
1036.00,0.0239
1035.00,0.0242
1034.00,0.0246
1033.00,0.0253
1032.00,0.0263
1031.00,0.0278
1030.00,0.0299
1029.00,0.0323
1028.00,0.0344
1027.00,0.0358
1026.00,0.0360
1025.00,0.0351
1024.00,0.0333
1023.00,0.0312
1022.00,0.0293
1021.00,0.0276
1020.00,0.0261
1019.00,0.0250
1018.00,0.0241
1017.00,0.0232
1016.00,0.0225
1015.00,0.0218
1014.00,0.0211
1013.00,0.0206
1012.00,0.0201
1011.00,0.0198
1010.00,0.0198
1009.00,0.0201
1008.00,0.0206
1007.00,0.0214
1006.00,0.0223
1005.00,0.0231
1004.00,0.0237
1003.00,0.0240
1002.00,0.0240
1001.00,0.0237
1000.00,0.0232
999.00,0.0226
998.00,0.0220
997.00,0.0215
996.00,0.0209
995.00,0.0205
994.00,0.0201
993.00,0.0198
992.00,0.0193
991.00,0.0188
990.00,0.0183
989.00,0.0178
988.00,0.0173
987.00,0.0169
986.00,0.0165
985.00,0.0162
984.00,0.0160
983.00,0.0158
982.00,0.0157
981.00,0.0155
980.00,0.0154
979.00,0.0153
978.00,0.0153
977.00,0.0152
976.00,0.0152
975.00,0.0151
974.00,0.0151
973.00,0.0150
972.00,0.0148
971.00,0.0147
970.00,0.0147
969.00,0.0147
968.00,0.0146
967.00,0.0146
966.00,0.0147
965.00,0.0147
964.00,0.0147
963.00,0.0148
962.00,0.0149
961.00,0.0148
960.00,0.0146
959.00,0.0144
958.00,0.0141
957.00,0.0138
956.00,0.0135
955.00,0.0133
954.00,0.0132
953.00,0.0131
952.00,0.0130
951.00,0.0130
950.00,0.0131
949.00,0.0132
948.00,0.0133
947.00,0.0134
946.00,0.0134
945.00,0.0135
944.00,0.0137
943.00,0.0139
942.00,0.0142
941.00,0.0146
940.00,0.0150
939.00,0.0154
938.00,0.0159
937.00,0.0163
936.00,0.0167
935.00,0.0170
934.00,0.0173
933.00,0.0175
932.00,0.0175
931.00,0.0173
930.00,0.0171
929.00,0.0169
928.00,0.0166
927.00,0.0165
926.00,0.0165
925.00,0.0166
924.00,0.0168
923.00,0.0169
922.00,0.0170
921.00,0.0170
920.00,0.0167
919.00,0.0162
918.00,0.0158
917.00,0.0153
916.00,0.0149
915.00,0.0145
914.00,0.0143
913.00,0.0142
912.00,0.0140
911.00,0.0140
910.00,0.0140
909.00,0.0140
908.00,0.0141
907.00,0.0142
906.00,0.0144
905.00,0.0148
904.00,0.0152
903.00,0.0158
902.00,0.0166
901.00,0.0173
900.00,0.0179
899.00,0.0183
898.00,0.0183
897.00,0.0181
896.00,0.0176
895.00,0.0172
894.00,0.0170
893.00,0.0171
892.00,0.0174
891.00,0.0178
890.00,0.0181
889.00,0.0178
888.00,0.0171
887.00,0.0162
886.00,0.0155
885.00,0.0151
884.00,0.0148
883.00,0.0146
882.00,0.0147
881.00,0.0148
880.00,0.0150
879.00,0.0155
878.00,0.0162
877.00,0.0172
876.00,0.0185
875.00,0.0200
874.00,0.0217
873.00,0.0235
872.00,0.0251
871.00,0.0264
870.00,0.0272
869.00,0.0272
868.00,0.0264
867.00,0.0254
866.00,0.0243
865.00,0.0233
864.00,0.0224
863.00,0.0215
862.00,0.0208
861.00,0.0203
860.00,0.0199
859.00,0.0198
858.00,0.0202
857.00,0.0209
856.00,0.0218
855.00,0.0229
854.00,0.0240
853.00,0.0251
852.00,0.0261
851.00,0.0271
850.00,0.0281
849.00,0.0287
848.00,0.0288
847.00,0.0284
846.00,0.0278
845.00,0.0271
844.00,0.0264
843.00,0.0258
842.00,0.0254
841.00,0.0252
840.00,0.0251
839.00,0.0254
838.00,0.0259
837.00,0.0267
836.00,0.0276
835.00,0.0282
834.00,0.0286
833.00,0.0286
832.00,0.0280
831.00,0.0270
830.00,0.0258
829.00,0.0244
828.00,0.0230
827.00,0.0217
826.00,0.0209
825.00,0.0206
824.00,0.0210
823.00,0.0224
822.00,0.0249
821.00,0.0274
820.00,0.0292
819.00,0.0301
818.00,0.0307
817.00,0.0315
816.00,0.0319
815.00,0.0311
814.00,0.0290
813.00,0.0260
812.00,0.0231
811.00,0.0210
810.00,0.0196
809.00,0.0187
808.00,0.0180
807.00,0.0174
806.00,0.0170
805.00,0.0166
804.00,0.0163
803.00,0.0161
802.00,0.0161
801.00,0.0160
800.00,0.0160
799.00,0.0159
798.00,0.0159
797.00,0.0159
796.00,0.0159
795.00,0.0158
794.00,0.0159
793.00,0.0159
792.00,0.0159
791.00,0.0159
790.00,0.0160
789.00,0.0160
788.00,0.0160
787.00,0.0161
786.00,0.0162
785.00,0.0163
784.00,0.0164
783.00,0.0165
782.00,0.0166
781.00,0.0168
780.00,0.0169
779.00,0.0171
778.00,0.0175
777.00,0.0180
776.00,0.0185
775.00,0.0189
774.00,0.0193
773.00,0.0193
772.00,0.0191
771.00,0.0188
770.00,0.0187
769.00,0.0186
768.00,0.0187
767.00,0.0187
766.00,0.0190
765.00,0.0192
764.00,0.0195
763.00,0.0198
762.00,0.0203
761.00,0.0208
760.00,0.0212
759.00,0.0215
758.00,0.0218
757.00,0.0220
756.00,0.0220
755.00,0.0221
754.00,0.0224
753.00,0.0226
752.00,0.0229
751.00,0.0232
750.00,0.0235
749.00,0.0238
748.00,0.0242
747.00,0.0245
746.00,0.0249
745.00,0.0253
744.00,0.0257
743.00,0.0261
742.00,0.0267
741.00,0.0274
740.00,0.0281
739.00,0.0291
738.00,0.0303
737.00,0.0317
736.00,0.0329
735.00,0.0338
734.00,0.0342
733.00,0.0339
732.00,0.0334
731.00,0.0329
730.00,0.0327
729.00,0.0325
728.00,0.0321
727.00,0.0314
726.00,0.0305
725.00,0.0295
724.00,0.0284
723.00,0.0277
722.00,0.0272
721.00,0.0269
720.00,0.0266
719.00,0.0267
718.00,0.0269
717.00,0.0273
716.00,0.0277
715.00,0.0278
714.00,0.0279
713.00,0.0277
712.00,0.0275
711.00,0.0272
710.00,0.0271
709.00,0.0269
708.00,0.0268
707.00,0.0269
706.00,0.0271
705.00,0.0273
704.00,0.0275
703.00,0.0277
702.00,0.0280
701.00,0.0283
700.00,0.0286
699.00,0.0289
698.00,0.0292
697.00,0.0294
696.00,0.0293
695.00,0.0293
694.00,0.0293
693.00,0.0295
692.00,0.0297
691.00,0.0302
690.00,0.0309
689.00,0.0316
688.00,0.0320
687.00,0.0321
686.00,0.0321
685.00,0.0321
684.00,0.0320
683.00,0.0320
682.00,0.0322
681.00,0.0325
680.00,0.0327
679.00,0.0330
678.00,0.0335
677.00,0.0341
676.00,0.0347
675.00,0.0354
674.00,0.0361
673.00,0.0368
672.00,0.0374
671.00,0.0378
670.00,0.0383
669.00,0.0387
668.00,0.0388
667.00,0.0390
666.00,0.0394
665.00,0.0398
664.00,0.0403
663.00,0.0409
662.00,0.0416
661.00,0.0422
660.00,0.0425
659.00,0.0428
658.00,0.0431
657.00,0.0434
656.00,0.0436
655.00,0.0440
654.00,0.0444
653.00,0.0448
652.00,0.0452
651.00,0.0456
650.00,0.0459
649.00,0.0461
648.00,0.0462
647.00,0.0462
646.00,0.0462
645.00,0.0461
644.00,0.0458
643.00,0.0455
642.00,0.0452
641.00,0.0450
640.00,0.0446
639.00,0.0443
638.00,0.0439
637.00,0.0435
636.00,0.0431
635.00,0.0428
634.00,0.0426
633.00,0.0425
632.00,0.0422
631.00,0.0420
630.00,0.0419
629.00,0.0419
628.00,0.0417
627.00,0.0417
626.00,0.0417
625.00,0.0418
624.00,0.0419
623.00,0.0422
622.00,0.0425
621.00,0.0428
620.00,0.0429
619.00,0.0428
618.00,0.0427
617.00,0.0424
616.00,0.0419
615.00,0.0415
614.00,0.0413
613.00,0.0411
612.00,0.0410
611.00,0.0411
610.00,0.0415
609.00,0.0419
608.00,0.0425
607.00,0.0432
606.00,0.0441
605.00,0.0450
604.00,0.0457
603.00,0.0462
602.00,0.0467
601.00,0.0469
600.00,0.0470
599.00,0.0472
598.00,0.0474
597.00,0.0476
596.00,0.0476
595.00,0.0477
594.00,0.0479
593.00,0.0481
592.00,0.0482
591.00,0.0483
590.00,0.0485
589.00,0.0487
588.00,0.0488
587.00,0.0491
586.00,0.0496
585.00,0.0502
584.00,0.0507
583.00,0.0513
582.00,0.0521
581.00,0.0528
580.00,0.0536
579.00,0.0544
578.00,0.0554
577.00,0.0562
576.00,0.0566
575.00,0.0566
574.00,0.0563
573.00,0.0560
572.00,0.0555
571.00,0.0550
570.00,0.0546
569.00,0.0542
568.00,0.0537
567.00,0.0535
566.00,0.0536
565.00,0.0536
564.00,0.0536
563.00,0.0537
562.00,0.0541
561.00,0.0545
560.00,0.0546
559.00,0.0544
558.00,0.0540
557.00,0.0535
556.00,0.0529
555.00,0.0522
554.00,0.0518
553.00,0.0515
552.00,0.0512
551.00,0.0513
550.00,0.0518
549.00,0.0523
548.00,0.0526
547.00,0.0528
546.00,0.0530
545.00,0.0529
544.00,0.0525
543.00,0.0519
542.00,0.0515
541.00,0.0510
540.00,0.0504
539.00,0.0499
538.00,0.0497
537.00,0.0497
536.00,0.0496
535.00,0.0498
534.00,0.0504
533.00,0.0510
532.00,0.0513
531.00,0.0514
530.00,0.0514
529.00,0.0512
528.00,0.0508
527.00,0.0503
526.00,0.0499
525.00,0.0495
524.00,0.0490
523.00,0.0485
522.00,0.0484
521.00,0.0482
520.00,0.0479
519.00,0.0475
518.00,0.0473
517.00,0.0472
516.00,0.0469
515.00,0.0468
514.00,0.0470
513.00,0.0471
512.00,0.0470
511.00,0.0469
510.00,0.0471
509.00,0.0474
508.00,0.0476
507.00,0.0479
506.00,0.0482
505.00,0.0483
504.00,0.0480
503.00,0.0477
502.00,0.0476
501.00,0.0475
500.00,0.0473
499.00,0.0472
498.00,0.0473
497.00,0.0474
496.00,0.0473
495.00,0.0472
494.00,0.0475
493.00,0.0477
492.00,0.0476
491.00,0.0475
490.00,0.0477
489.00,0.0478
488.00,0.0475
487.00,0.0474
486.00,0.0477
485.00,0.0480
484.00,0.0478
483.00,0.0474
482.00,0.0473
481.00,0.0473
480.00,0.0471
479.00,0.0471
478.00,0.0474
477.00,0.0477
476.00,0.0475
475.00,0.0473
474.00,0.0474
473.00,0.0474
472.00,0.0469
471.00,0.0465
470.00,0.0467
469.00,0.0469
468.00,0.0467
467.00,0.0466
466.00,0.0468
465.00,0.0468
464.00,0.0463
463.00,0.0459
462.00,0.0462
461.00,0.0464
460.00,0.0461
459.00,0.0456
458.00,0.0455
457.00,0.0456
456.00,0.0454
455.00,0.0454
454.00,0.0459
453.00,0.0460
452.00,0.0453
451.00,0.0447
450.00,0.0447
449.00,0.0447
448.00,0.0443
447.00,0.0440
446.00,0.0443
445.00,0.0445
444.00,0.0442
443.00,0.0439
442.00,0.0441
441.00,0.0443
440.00,0.0438
439.00,0.0434
438.00,0.0435
437.00,0.0436
436.00,0.0432
435.00,0.0428
434.00,0.0430
433.00,0.0430
432.00,0.0423
431.00,0.0416
430.00,0.0416
429.00,0.0417
428.00,0.0413
427.00,0.0410
426.00,0.0415
425.00,0.0419
424.00,0.0416
423.00,0.0413
422.00,0.0417
421.00,0.0422
420.00,0.0420
419.00,0.0416
418.00,0.0417
417.00,0.0413
416.00,0.0399
415.00,0.0389
414.00,0.0394
413.00,0.0401
412.00,0.0401
411.00,0.0403
410.00,0.0415
409.00,0.0424
408.00,0.0418
407.00,0.0409
406.00,0.0409
405.00,0.0409
404.00,0.0400
403.00,0.0396
402.00,0.0408
401.00,0.0420
400.00,0.0415
