Created as New Dataset,Sample 965 By YargerLab Date Wednesday, July 30 2025
cm-1,A
4000.00,0.0086
3999.00,0.0086
3998.00,0.0086
3997.00,0.0086
3996.00,0.0086
3995.00,0.0086
3994.00,0.0086
3993.00,0.0086
3992.00,0.0086
3991.00,0.0086
3990.00,0.0086
3989.00,0.0086
3988.00,0.0086
3987.00,0.0086
3986.00,0.0086
3985.00,0.0086
3984.00,0.0086
3983.00,0.0086
3982.00,0.0085
3981.00,0.0085
3980.00,0.0086
3979.00,0.0086
3978.00,0.0086
3977.00,0.0086
3976.00,0.0086
3975.00,0.0086
3974.00,0.0085
3973.00,0.0085
3972.00,0.0085
3971.00,0.0085
3970.00,0.0086
3969.00,0.0086
3968.00,0.0086
3967.00,0.0086
3966.00,0.0086
3965.00,0.0086
3964.00,0.0085
3963.00,0.0085
3962.00,0.0085
3961.00,0.0085
3960.00,0.0085
3959.00,0.0085
3958.00,0.0085
3957.00,0.0085
3956.00,0.0085
3955.00,0.0085
3954.00,0.0086
3953.00,0.0086
3952.00,0.0086
3951.00,0.0086
3950.00,0.0086
3949.00,0.0085
3948.00,0.0085
3947.00,0.0085
3946.00,0.0085
3945.00,0.0085
3944.00,0.0085
3943.00,0.0085
3942.00,0.0085
3941.00,0.0085
3940.00,0.0085
3939.00,0.0085
3938.00,0.0084
3937.00,0.0084
3936.00,0.0084
3935.00,0.0084
3934.00,0.0084
3933.00,0.0084
3932.00,0.0084
3931.00,0.0084
3930.00,0.0084
3929.00,0.0084
3928.00,0.0084
3927.00,0.0084
3926.00,0.0084
3925.00,0.0084
3924.00,0.0084
3923.00,0.0084
3922.00,0.0085
3921.00,0.0085
3920.00,0.0085
3919.00,0.0085
3918.00,0.0084
3917.00,0.0084
3916.00,0.0084
3915.00,0.0084
3914.00,0.0084
3913.00,0.0084
3912.00,0.0084
3911.00,0.0084
3910.00,0.0084
3909.00,0.0084
3908.00,0.0084
3907.00,0.0084
3906.00,0.0083
3905.00,0.0083
3904.00,0.0082
3903.00,0.0082
3902.00,0.0081
3901.00,0.0081
3900.00,0.0081
3899.00,0.0082
3898.00,0.0082
3897.00,0.0083
3896.00,0.0083
3895.00,0.0083
3894.00,0.0083
3893.00,0.0083
3892.00,0.0083
3891.00,0.0083
3890.00,0.0083
3889.00,0.0083
3888.00,0.0082
3887.00,0.0082
3886.00,0.0082
3885.00,0.0083
3884.00,0.0083
3883.00,0.0082
3882.00,0.0082
3881.00,0.0082
3880.00,0.0082
3879.00,0.0082
3878.00,0.0082
3877.00,0.0082
3876.00,0.0082
3875.00,0.0082
3874.00,0.0083
3873.00,0.0082
3872.00,0.0082
3871.00,0.0082
3870.00,0.0082
3869.00,0.0082
3868.00,0.0082
3867.00,0.0082
3866.00,0.0082
3865.00,0.0082
3864.00,0.0082
3863.00,0.0082
3862.00,0.0082
3861.00,0.0082
3860.00,0.0082
3859.00,0.0082
3858.00,0.0082
3857.00,0.0082
3856.00,0.0082
3855.00,0.0082
3854.00,0.0082
3853.00,0.0082
3852.00,0.0081
3851.00,0.0081
3850.00,0.0081
3849.00,0.0081
3848.00,0.0082
3847.00,0.0083
3846.00,0.0083
3845.00,0.0083
3844.00,0.0083
3843.00,0.0083
3842.00,0.0082
3841.00,0.0082
3840.00,0.0082
3839.00,0.0081
3838.00,0.0081
3837.00,0.0081
3836.00,0.0080
3835.00,0.0080
3834.00,0.0080
3833.00,0.0081
3832.00,0.0081
3831.00,0.0082
3830.00,0.0082
3829.00,0.0082
3828.00,0.0082
3827.00,0.0082
3826.00,0.0082
3825.00,0.0082
3824.00,0.0082
3823.00,0.0081
3822.00,0.0081
3821.00,0.0081
3820.00,0.0081
3819.00,0.0081
3818.00,0.0080
3817.00,0.0080
3816.00,0.0081
3815.00,0.0081
3814.00,0.0081
3813.00,0.0081
3812.00,0.0081
3811.00,0.0082
3810.00,0.0082
3809.00,0.0082
3808.00,0.0082
3807.00,0.0082
3806.00,0.0082
3805.00,0.0082
3804.00,0.0081
3803.00,0.0081
3802.00,0.0081
3801.00,0.0082
3800.00,0.0082
3799.00,0.0081
3798.00,0.0080
3797.00,0.0080
3796.00,0.0081
3795.00,0.0081
3794.00,0.0081
3793.00,0.0082
3792.00,0.0082
3791.00,0.0082
3790.00,0.0082
3789.00,0.0082
3788.00,0.0082
3787.00,0.0082
3786.00,0.0082
3785.00,0.0082
3784.00,0.0082
3783.00,0.0082
3782.00,0.0081
3781.00,0.0081
3780.00,0.0081
3779.00,0.0081
3778.00,0.0081
3777.00,0.0081
3776.00,0.0081
3775.00,0.0081
3774.00,0.0082
3773.00,0.0082
3772.00,0.0082
3771.00,0.0081
3770.00,0.0081
3769.00,0.0081
3768.00,0.0081
3767.00,0.0080
3766.00,0.0080
3765.00,0.0081
3764.00,0.0081
3763.00,0.0081
3762.00,0.0081
3761.00,0.0081
3760.00,0.0081
3759.00,0.0081
3758.00,0.0080
3757.00,0.0080
3756.00,0.0080
3755.00,0.0080
3754.00,0.0080
3753.00,0.0080
3752.00,0.0081
3751.00,0.0081
3750.00,0.0080
3749.00,0.0080
3748.00,0.0079
3747.00,0.0078
3746.00,0.0078
3745.00,0.0078
3744.00,0.0078
3743.00,0.0079
3742.00,0.0078
3741.00,0.0078
3740.00,0.0078
3739.00,0.0078
3738.00,0.0078
3737.00,0.0078
3736.00,0.0078
3735.00,0.0077
3734.00,0.0077
3733.00,0.0077
3732.00,0.0077
3731.00,0.0078
3730.00,0.0078
3729.00,0.0078
3728.00,0.0078
3727.00,0.0078
3726.00,0.0078
3725.00,0.0078
3724.00,0.0078
3723.00,0.0078
3722.00,0.0078
3721.00,0.0078
3720.00,0.0078
3719.00,0.0079
3718.00,0.0079
3717.00,0.0079
3716.00,0.0079
3715.00,0.0079
3714.00,0.0079
3713.00,0.0079
3712.00,0.0078
3711.00,0.0078
3710.00,0.0078
3709.00,0.0077
3708.00,0.0078
3707.00,0.0078
3706.00,0.0078
3705.00,0.0079
3704.00,0.0079
3703.00,0.0079
3702.00,0.0079
3701.00,0.0078
3700.00,0.0078
3699.00,0.0078
3698.00,0.0078
3697.00,0.0078
3696.00,0.0079
3695.00,0.0079
3694.00,0.0079
3693.00,0.0078
3692.00,0.0078
3691.00,0.0078
3690.00,0.0078
3689.00,0.0077
3688.00,0.0078
3687.00,0.0078
3686.00,0.0078
3685.00,0.0078
3684.00,0.0079
3683.00,0.0079
3682.00,0.0080
3681.00,0.0080
3680.00,0.0080
3679.00,0.0080
3678.00,0.0079
3677.00,0.0078
3676.00,0.0078
3675.00,0.0078
3674.00,0.0078
3673.00,0.0077
3672.00,0.0077
3671.00,0.0077
3670.00,0.0078
3669.00,0.0078
3668.00,0.0078
3667.00,0.0078
3666.00,0.0079
3665.00,0.0079
3664.00,0.0080
3663.00,0.0080
3662.00,0.0081
3661.00,0.0082
3660.00,0.0082
3659.00,0.0082
3658.00,0.0082
3657.00,0.0082
3656.00,0.0082
3655.00,0.0082
3654.00,0.0081
3653.00,0.0080
3652.00,0.0080
3651.00,0.0080
3650.00,0.0080
3649.00,0.0080
3648.00,0.0079
3647.00,0.0080
3646.00,0.0080
3645.00,0.0081
3644.00,0.0082
3643.00,0.0083
3642.00,0.0084
3641.00,0.0084
3640.00,0.0085
3639.00,0.0085
3638.00,0.0085
3637.00,0.0085
3636.00,0.0085
3635.00,0.0086
3634.00,0.0086
3633.00,0.0086
3632.00,0.0086
3631.00,0.0086
3630.00,0.0085
3629.00,0.0086
3628.00,0.0085
3627.00,0.0085
3626.00,0.0085
3625.00,0.0086
3624.00,0.0087
3623.00,0.0087
3622.00,0.0088
3621.00,0.0088
3620.00,0.0088
3619.00,0.0088
3618.00,0.0089
3617.00,0.0089
3616.00,0.0089
3615.00,0.0090
3614.00,0.0090
3613.00,0.0090
3612.00,0.0090
3611.00,0.0090
3610.00,0.0091
3609.00,0.0091
3608.00,0.0092
3607.00,0.0093
3606.00,0.0093
3605.00,0.0094
3604.00,0.0095
3603.00,0.0095
3602.00,0.0096
3601.00,0.0096
3600.00,0.0096
3599.00,0.0096
3598.00,0.0096
3597.00,0.0096
3596.00,0.0097
3595.00,0.0097
3594.00,0.0097
3593.00,0.0098
3592.00,0.0098
3591.00,0.0099
3590.00,0.0099
3589.00,0.0099
3588.00,0.0099
3587.00,0.0099
3586.00,0.0099
3585.00,0.0099
3584.00,0.0100
3583.00,0.0101
3582.00,0.0101
3581.00,0.0102
3580.00,0.0103
3579.00,0.0103
3578.00,0.0104
3577.00,0.0104
3576.00,0.0105
3575.00,0.0105
3574.00,0.0106
3573.00,0.0106
3572.00,0.0106
3571.00,0.0107
3570.00,0.0107
3569.00,0.0108
3568.00,0.0108
3567.00,0.0108
3566.00,0.0108
3565.00,0.0108
3564.00,0.0108
3563.00,0.0109
3562.00,0.0110
3561.00,0.0111
3560.00,0.0112
3559.00,0.0112
3558.00,0.0113
3557.00,0.0113
3556.00,0.0114
3555.00,0.0114
3554.00,0.0115
3553.00,0.0115
3552.00,0.0115
3551.00,0.0115
3550.00,0.0116
3549.00,0.0116
3548.00,0.0117
3547.00,0.0117
3546.00,0.0117
3545.00,0.0118
3544.00,0.0119
3543.00,0.0119
3542.00,0.0120
3541.00,0.0120
3540.00,0.0121
3539.00,0.0122
3538.00,0.0122
3537.00,0.0123
3536.00,0.0123
3535.00,0.0124
3534.00,0.0124
3533.00,0.0124
3532.00,0.0125
3531.00,0.0125
3530.00,0.0125
3529.00,0.0125
3528.00,0.0126
3527.00,0.0126
3526.00,0.0126
3525.00,0.0127
3524.00,0.0127
3523.00,0.0128
3522.00,0.0129
3521.00,0.0129
3520.00,0.0130
3519.00,0.0131
3518.00,0.0131
3517.00,0.0132
3516.00,0.0132
3515.00,0.0132
3514.00,0.0133
3513.00,0.0133
3512.00,0.0133
3511.00,0.0134
3510.00,0.0134
3509.00,0.0134
3508.00,0.0135
3507.00,0.0136
3506.00,0.0136
3505.00,0.0137
3504.00,0.0137
3503.00,0.0137
3502.00,0.0137
3501.00,0.0138
3500.00,0.0138
3499.00,0.0139
3498.00,0.0140
3497.00,0.0140
3496.00,0.0141
3495.00,0.0141
3494.00,0.0142
3493.00,0.0142
3492.00,0.0142
3491.00,0.0143
3490.00,0.0143
3489.00,0.0144
3488.00,0.0144
3487.00,0.0145
3486.00,0.0145
3485.00,0.0146
3484.00,0.0146
3483.00,0.0147
3482.00,0.0147
3481.00,0.0147
3480.00,0.0147
3479.00,0.0148
3478.00,0.0148
3477.00,0.0149
3476.00,0.0150
3475.00,0.0150
3474.00,0.0151
3473.00,0.0151
3472.00,0.0152
3471.00,0.0152
3470.00,0.0153
3469.00,0.0153
3468.00,0.0154
3467.00,0.0154
3466.00,0.0155
3465.00,0.0155
3464.00,0.0156
3463.00,0.0156
3462.00,0.0157
3461.00,0.0157
3460.00,0.0157
3459.00,0.0157
3458.00,0.0157
3457.00,0.0158
3456.00,0.0158
3455.00,0.0159
3454.00,0.0159
3453.00,0.0160
3452.00,0.0160
3451.00,0.0161
3450.00,0.0162
3449.00,0.0162
3448.00,0.0162
3447.00,0.0162
3446.00,0.0163
3445.00,0.0163
3444.00,0.0164
3443.00,0.0164
3442.00,0.0165
3441.00,0.0166
3440.00,0.0166
3439.00,0.0167
3438.00,0.0167
3437.00,0.0168
3436.00,0.0168
3435.00,0.0168
3434.00,0.0169
3433.00,0.0169
3432.00,0.0170
3431.00,0.0170
3430.00,0.0171
3429.00,0.0172
3428.00,0.0172
3427.00,0.0172
3426.00,0.0173
3425.00,0.0173
3424.00,0.0174
3423.00,0.0175
3422.00,0.0175
3421.00,0.0176
3420.00,0.0176
3419.00,0.0177
3418.00,0.0177
3417.00,0.0178
3416.00,0.0179
3415.00,0.0179
3414.00,0.0180
3413.00,0.0180
3412.00,0.0181
3411.00,0.0181
3410.00,0.0182
3409.00,0.0182
3408.00,0.0182
3407.00,0.0183
3406.00,0.0183
3405.00,0.0184
3404.00,0.0184
3403.00,0.0185
3402.00,0.0185
3401.00,0.0186
3400.00,0.0187
3399.00,0.0187
3398.00,0.0188
3397.00,0.0189
3396.00,0.0189
3395.00,0.0190
3394.00,0.0190
3393.00,0.0191
3392.00,0.0191
3391.00,0.0192
3390.00,0.0193
3389.00,0.0193
3388.00,0.0194
3387.00,0.0195
3386.00,0.0195
3385.00,0.0196
3384.00,0.0196
3383.00,0.0197
3382.00,0.0198
3381.00,0.0198
3380.00,0.0199
3379.00,0.0200
3378.00,0.0200
3377.00,0.0201
3376.00,0.0202
3375.00,0.0203
3374.00,0.0204
3373.00,0.0205
3372.00,0.0206
3371.00,0.0207
3370.00,0.0207
3369.00,0.0208
3368.00,0.0209
3367.00,0.0210
3366.00,0.0211
3365.00,0.0212
3364.00,0.0212
3363.00,0.0213
3362.00,0.0214
3361.00,0.0215
3360.00,0.0216
3359.00,0.0217
3358.00,0.0218
3357.00,0.0219
3356.00,0.0220
3355.00,0.0221
3354.00,0.0222
3353.00,0.0223
3352.00,0.0223
3351.00,0.0224
3350.00,0.0225
3349.00,0.0226
3348.00,0.0227
3347.00,0.0228
3346.00,0.0229
3345.00,0.0230
3344.00,0.0231
3343.00,0.0232
3342.00,0.0233
3341.00,0.0234
3340.00,0.0234
3339.00,0.0235
3338.00,0.0236
3337.00,0.0237
3336.00,0.0238
3335.00,0.0239
3334.00,0.0240
3333.00,0.0241
3332.00,0.0242
3331.00,0.0243
3330.00,0.0244
3329.00,0.0245
3328.00,0.0246
3327.00,0.0248
3326.00,0.0249
3325.00,0.0250
3324.00,0.0251
3323.00,0.0252
3322.00,0.0253
3321.00,0.0254
3320.00,0.0255
3319.00,0.0256
3318.00,0.0257
3317.00,0.0259
3316.00,0.0260
3315.00,0.0261
3314.00,0.0262
3313.00,0.0263
3312.00,0.0264
3311.00,0.0265
3310.00,0.0265
3309.00,0.0266
3308.00,0.0267
3307.00,0.0268
3306.00,0.0269
3305.00,0.0270
3304.00,0.0271
3303.00,0.0272
3302.00,0.0274
3301.00,0.0275
3300.00,0.0276
3299.00,0.0277
3298.00,0.0278
3297.00,0.0278
3296.00,0.0279
3295.00,0.0279
3294.00,0.0280
3293.00,0.0280
3292.00,0.0281
3291.00,0.0282
3290.00,0.0283
3289.00,0.0283
3288.00,0.0284
3287.00,0.0284
3286.00,0.0285
3285.00,0.0285
3284.00,0.0285
3283.00,0.0285
3282.00,0.0285
3281.00,0.0285
3280.00,0.0285
3279.00,0.0285
3278.00,0.0285
3277.00,0.0285
3276.00,0.0285
3275.00,0.0285
3274.00,0.0284
3273.00,0.0283
3272.00,0.0282
3271.00,0.0281
3270.00,0.0281
3269.00,0.0281
3268.00,0.0280
3267.00,0.0279
3266.00,0.0278
3265.00,0.0277
3264.00,0.0276
3263.00,0.0275
3262.00,0.0275
3261.00,0.0274
3260.00,0.0273
3259.00,0.0271
3258.00,0.0270
3257.00,0.0269
3256.00,0.0268
3255.00,0.0267
3254.00,0.0266
3253.00,0.0264
3252.00,0.0263
3251.00,0.0262
3250.00,0.0261
3249.00,0.0260
3248.00,0.0258
3247.00,0.0257
3246.00,0.0257
3245.00,0.0256
3244.00,0.0255
3243.00,0.0253
3242.00,0.0252
3241.00,0.0252
3240.00,0.0251
3239.00,0.0250
3238.00,0.0249
3237.00,0.0249
3236.00,0.0248
3235.00,0.0247
3234.00,0.0246
3233.00,0.0245
3232.00,0.0244
3231.00,0.0244
3230.00,0.0243
3229.00,0.0243
3228.00,0.0242
3227.00,0.0242
3226.00,0.0242
3225.00,0.0241
3224.00,0.0241
3223.00,0.0240
3222.00,0.0240
3221.00,0.0240
3220.00,0.0239
3219.00,0.0238
3218.00,0.0238
3217.00,0.0237
3216.00,0.0237
3215.00,0.0236
3214.00,0.0236
3213.00,0.0235
3212.00,0.0235
3211.00,0.0235
3210.00,0.0235
3209.00,0.0234
3208.00,0.0234
3207.00,0.0234
3206.00,0.0233
3205.00,0.0233
3204.00,0.0233
3203.00,0.0232
3202.00,0.0232
3201.00,0.0231
3200.00,0.0231
3199.00,0.0230
3198.00,0.0230
3197.00,0.0229
3196.00,0.0229
3195.00,0.0228
3194.00,0.0228
3193.00,0.0228
3192.00,0.0227
3191.00,0.0227
3190.00,0.0227
3189.00,0.0226
3188.00,0.0226
3187.00,0.0225
3186.00,0.0225
3185.00,0.0224
3184.00,0.0223
3183.00,0.0223
3182.00,0.0222
3181.00,0.0222
3180.00,0.0221
3179.00,0.0221
3178.00,0.0220
3177.00,0.0220
3176.00,0.0219
3175.00,0.0218
3174.00,0.0218
3173.00,0.0217
3172.00,0.0216
3171.00,0.0216
3170.00,0.0215
3169.00,0.0215
3168.00,0.0214
3167.00,0.0214
3166.00,0.0213
3165.00,0.0213
3164.00,0.0213
3163.00,0.0212
3162.00,0.0212
3161.00,0.0211
3160.00,0.0210
3159.00,0.0210
3158.00,0.0209
3157.00,0.0209
3156.00,0.0208
3155.00,0.0208
3154.00,0.0207
3153.00,0.0206
3152.00,0.0205
3151.00,0.0205
3150.00,0.0204
3149.00,0.0204
3148.00,0.0204
3147.00,0.0203
3146.00,0.0203
3145.00,0.0203
3144.00,0.0202
3143.00,0.0201
3142.00,0.0201
3141.00,0.0200
3140.00,0.0199
3139.00,0.0199
3138.00,0.0199
3137.00,0.0199
3136.00,0.0199
3135.00,0.0198
3134.00,0.0198
3133.00,0.0197
3132.00,0.0197
3131.00,0.0196
3130.00,0.0196
3129.00,0.0196
3128.00,0.0195
3127.00,0.0195
3126.00,0.0195
3125.00,0.0194
3124.00,0.0194
3123.00,0.0193
3122.00,0.0193
3121.00,0.0193
3120.00,0.0193
3119.00,0.0193
3118.00,0.0192
3117.00,0.0192
3116.00,0.0192
3115.00,0.0192
3114.00,0.0192
3113.00,0.0192
3112.00,0.0192
3111.00,0.0192
3110.00,0.0191
3109.00,0.0191
3108.00,0.0191
3107.00,0.0191
3106.00,0.0191
3105.00,0.0191
3104.00,0.0191
3103.00,0.0191
3102.00,0.0191
3101.00,0.0191
3100.00,0.0191
3099.00,0.0191
3098.00,0.0191
3097.00,0.0191
3096.00,0.0191
3095.00,0.0191
3094.00,0.0191
3093.00,0.0191
3092.00,0.0191
3091.00,0.0191
3090.00,0.0191
3089.00,0.0191
3088.00,0.0191
3087.00,0.0191
3086.00,0.0191
3085.00,0.0191
3084.00,0.0192
3083.00,0.0192
3082.00,0.0192
3081.00,0.0192
3080.00,0.0192
3079.00,0.0192
3078.00,0.0192
3077.00,0.0192
3076.00,0.0193
3075.00,0.0193
3074.00,0.0193
3073.00,0.0193
3072.00,0.0193
3071.00,0.0193
3070.00,0.0193
3069.00,0.0193
3068.00,0.0193
3067.00,0.0193
3066.00,0.0193
3065.00,0.0193
3064.00,0.0193
3063.00,0.0193
3062.00,0.0193
3061.00,0.0193
3060.00,0.0193
3059.00,0.0193
3058.00,0.0192
3057.00,0.0192
3056.00,0.0192
3055.00,0.0191
3054.00,0.0191
3053.00,0.0190
3052.00,0.0190
3051.00,0.0190
3050.00,0.0189
3049.00,0.0189
3048.00,0.0189
3047.00,0.0188
3046.00,0.0188
3045.00,0.0187
3044.00,0.0187
3043.00,0.0186
3042.00,0.0186
3041.00,0.0186
3040.00,0.0186
3039.00,0.0186
3038.00,0.0185
3037.00,0.0185
3036.00,0.0184
3035.00,0.0184
3034.00,0.0183
3033.00,0.0183
3032.00,0.0183
3031.00,0.0182
3030.00,0.0182
3029.00,0.0182
3028.00,0.0182
3027.00,0.0181
3026.00,0.0181
3025.00,0.0180
3024.00,0.0180
3023.00,0.0179
3022.00,0.0179
3021.00,0.0178
3020.00,0.0178
3019.00,0.0177
3018.00,0.0177
3017.00,0.0176
3016.00,0.0176
3015.00,0.0175
3014.00,0.0175
3013.00,0.0174
3012.00,0.0174
3011.00,0.0174
3010.00,0.0174
3009.00,0.0174
3008.00,0.0174
3007.00,0.0174
3006.00,0.0174
3005.00,0.0173
3004.00,0.0173
3003.00,0.0173
3002.00,0.0172
3001.00,0.0172
3000.00,0.0172
2999.00,0.0172
2998.00,0.0172
2997.00,0.0172
2996.00,0.0172
2995.00,0.0173
2994.00,0.0173
2993.00,0.0173
2992.00,0.0174
2991.00,0.0174
2990.00,0.0175
2989.00,0.0176
2988.00,0.0176
2987.00,0.0177
2986.00,0.0178
2985.00,0.0179
2984.00,0.0180
2983.00,0.0181
2982.00,0.0182
2981.00,0.0183
2980.00,0.0184
2979.00,0.0186
2978.00,0.0187
2977.00,0.0189
2976.00,0.0191
2975.00,0.0192
2974.00,0.0194
2973.00,0.0195
2972.00,0.0197
2971.00,0.0199
2970.00,0.0201
2969.00,0.0203
2968.00,0.0205
2967.00,0.0206
2966.00,0.0208
2965.00,0.0210
2964.00,0.0211
2963.00,0.0213
2962.00,0.0214
2961.00,0.0216
2960.00,0.0217
2959.00,0.0218
2958.00,0.0219
2957.00,0.0219
2956.00,0.0220
2955.00,0.0220
2954.00,0.0220
2953.00,0.0220
2952.00,0.0220
2951.00,0.0220
2950.00,0.0220
2949.00,0.0220
2948.00,0.0220
2947.00,0.0220
2946.00,0.0221
2945.00,0.0221
2944.00,0.0222
2943.00,0.0222
2942.00,0.0223
2941.00,0.0224
2940.00,0.0225
2939.00,0.0226
2938.00,0.0227
2937.00,0.0229
2936.00,0.0230
2935.00,0.0231
2934.00,0.0233
2933.00,0.0234
2932.00,0.0235
2931.00,0.0236
2930.00,0.0238
2929.00,0.0239
2928.00,0.0240
2927.00,0.0241
2926.00,0.0242
2925.00,0.0243
2924.00,0.0244
2923.00,0.0245
2922.00,0.0245
2921.00,0.0245
2920.00,0.0245
2919.00,0.0245
2918.00,0.0245
2917.00,0.0244
2916.00,0.0244
2915.00,0.0244
2914.00,0.0244
2913.00,0.0243
2912.00,0.0244
2911.00,0.0244
2910.00,0.0244
2909.00,0.0245
2908.00,0.0246
2907.00,0.0247
2906.00,0.0248
2905.00,0.0249
2904.00,0.0250
2903.00,0.0252
2902.00,0.0253
2901.00,0.0255
2900.00,0.0257
2899.00,0.0259
2898.00,0.0261
2897.00,0.0264
2896.00,0.0266
2895.00,0.0268
2894.00,0.0271
2893.00,0.0273
2892.00,0.0275
2891.00,0.0276
2890.00,0.0278
2889.00,0.0279
2888.00,0.0279
2887.00,0.0280
2886.00,0.0280
2885.00,0.0281
2884.00,0.0281
2883.00,0.0281
2882.00,0.0281
2881.00,0.0281
2880.00,0.0281
2879.00,0.0282
2878.00,0.0282
2877.00,0.0282
2876.00,0.0282
2875.00,0.0281
2874.00,0.0280
2873.00,0.0279
2872.00,0.0277
2871.00,0.0275
2870.00,0.0274
2869.00,0.0272
2868.00,0.0270
2867.00,0.0268
2866.00,0.0267
2865.00,0.0266
2864.00,0.0265
2863.00,0.0265
2862.00,0.0264
2861.00,0.0264
2860.00,0.0264
2859.00,0.0263
2858.00,0.0262
2857.00,0.0261
2856.00,0.0259
2855.00,0.0256
2854.00,0.0254
2853.00,0.0250
2852.00,0.0247
2851.00,0.0243
2850.00,0.0240
2849.00,0.0236
2848.00,0.0232
2847.00,0.0228
2846.00,0.0225
2845.00,0.0221
2844.00,0.0218
2843.00,0.0215
2842.00,0.0213
2841.00,0.0210
2840.00,0.0208
2839.00,0.0206
2838.00,0.0205
2837.00,0.0203
2836.00,0.0202
2835.00,0.0201
2834.00,0.0200
2833.00,0.0200
2832.00,0.0199
2831.00,0.0198
2830.00,0.0197
2829.00,0.0197
2828.00,0.0196
2827.00,0.0195
2826.00,0.0195
2825.00,0.0194
2824.00,0.0194
2823.00,0.0193
2822.00,0.0192
2821.00,0.0192
2820.00,0.0191
2819.00,0.0191
2818.00,0.0190
2817.00,0.0190
2816.00,0.0189
2815.00,0.0189
2814.00,0.0188
2813.00,0.0188
2812.00,0.0187
2811.00,0.0187
2810.00,0.0186
2809.00,0.0186
2808.00,0.0186
2807.00,0.0186
2806.00,0.0186
2805.00,0.0185
2804.00,0.0185
2803.00,0.0184
2802.00,0.0184
2801.00,0.0183
2800.00,0.0182
2799.00,0.0180
2798.00,0.0179
2797.00,0.0178
2796.00,0.0177
2795.00,0.0175
2794.00,0.0175
2793.00,0.0174
2792.00,0.0173
2791.00,0.0172
2790.00,0.0171
2789.00,0.0170
2788.00,0.0169
2787.00,0.0169
2786.00,0.0168
2785.00,0.0167
2784.00,0.0167
2783.00,0.0166
2782.00,0.0165
2781.00,0.0165
2780.00,0.0164
2779.00,0.0163
2778.00,0.0163
2777.00,0.0162
2776.00,0.0162
2775.00,0.0161
2774.00,0.0160
2773.00,0.0160
2772.00,0.0160
2771.00,0.0159
2770.00,0.0159
2769.00,0.0159
2768.00,0.0158
2767.00,0.0158
2766.00,0.0158
2765.00,0.0157
2764.00,0.0157
2763.00,0.0157
2762.00,0.0156
2761.00,0.0156
2760.00,0.0155
2759.00,0.0155
2758.00,0.0155
2757.00,0.0154
2756.00,0.0154
2755.00,0.0154
2754.00,0.0154
2753.00,0.0154
2752.00,0.0154
2751.00,0.0154
2750.00,0.0154
2749.00,0.0154
2748.00,0.0154
2747.00,0.0154
2746.00,0.0154
2745.00,0.0155
2744.00,0.0155
2743.00,0.0155
2742.00,0.0155
2741.00,0.0155
2740.00,0.0154
2739.00,0.0154
2738.00,0.0154
2737.00,0.0154
2736.00,0.0153
2735.00,0.0153
2734.00,0.0152
2733.00,0.0152
2732.00,0.0151
2731.00,0.0150
2730.00,0.0149
2729.00,0.0149
2728.00,0.0148
2727.00,0.0148
2726.00,0.0147
2725.00,0.0147
2724.00,0.0147
2723.00,0.0146
2722.00,0.0146
2721.00,0.0146
2720.00,0.0146
2719.00,0.0146
2718.00,0.0145
2717.00,0.0145
2716.00,0.0145
2715.00,0.0145
2714.00,0.0145
2713.00,0.0144
2712.00,0.0144
2711.00,0.0144
2710.00,0.0144
2709.00,0.0143
2708.00,0.0143
2707.00,0.0143
2706.00,0.0143
2705.00,0.0143
2704.00,0.0143
2703.00,0.0142
2702.00,0.0142
2701.00,0.0142
2700.00,0.0142
2699.00,0.0143
2698.00,0.0143
2697.00,0.0143
2696.00,0.0144
2695.00,0.0144
2694.00,0.0144
2693.00,0.0144
2692.00,0.0143
2691.00,0.0142
2690.00,0.0142
2689.00,0.0141
2688.00,0.0140
2687.00,0.0140
2686.00,0.0139
2685.00,0.0139
2684.00,0.0138
2683.00,0.0138
2682.00,0.0138
2681.00,0.0137
2680.00,0.0137
2679.00,0.0137
2678.00,0.0137
2677.00,0.0137
2676.00,0.0137
2675.00,0.0137
2674.00,0.0136
2673.00,0.0136
2672.00,0.0136
2671.00,0.0136
2670.00,0.0136
2669.00,0.0136
2668.00,0.0136
2667.00,0.0136
2666.00,0.0136
2665.00,0.0136
2664.00,0.0136
2663.00,0.0137
2662.00,0.0137
2661.00,0.0137
2660.00,0.0137
2659.00,0.0137
2658.00,0.0137
2657.00,0.0137
2656.00,0.0137
2655.00,0.0137
2654.00,0.0137
2653.00,0.0137
2652.00,0.0137
2651.00,0.0137
2650.00,0.0137
2649.00,0.0137
2648.00,0.0137
2647.00,0.0137
2646.00,0.0137
2645.00,0.0137
2644.00,0.0136
2643.00,0.0136
2642.00,0.0136
2641.00,0.0136
2640.00,0.0136
2639.00,0.0136
2638.00,0.0136
2637.00,0.0136
2636.00,0.0135
2635.00,0.0135
2634.00,0.0135
2633.00,0.0135
2632.00,0.0135
2631.00,0.0135
2630.00,0.0135
2629.00,0.0135
2628.00,0.0135
2627.00,0.0134
2626.00,0.0134
2625.00,0.0134
2624.00,0.0133
2623.00,0.0133
2622.00,0.0133
2621.00,0.0133
2620.00,0.0133
2619.00,0.0133
2618.00,0.0132
2617.00,0.0132
2616.00,0.0132
2615.00,0.0132
2614.00,0.0132
2613.00,0.0132
2612.00,0.0132
2611.00,0.0132
2610.00,0.0131
2609.00,0.0131
2608.00,0.0131
2607.00,0.0131
2606.00,0.0131
2605.00,0.0131
2604.00,0.0130
2603.00,0.0130
2602.00,0.0130
2601.00,0.0130
2600.00,0.0130
2599.00,0.0129
2598.00,0.0129
2597.00,0.0129
2596.00,0.0128
2595.00,0.0128
2594.00,0.0128
2593.00,0.0128
2592.00,0.0128
2591.00,0.0128
2590.00,0.0128
2589.00,0.0128
2588.00,0.0128
2587.00,0.0128
2586.00,0.0128
2585.00,0.0127
2584.00,0.0127
2583.00,0.0127
2582.00,0.0127
2581.00,0.0127
2580.00,0.0127
2579.00,0.0127
2578.00,0.0127
2577.00,0.0127
2576.00,0.0126
2575.00,0.0126
2574.00,0.0126
2573.00,0.0126
2572.00,0.0126
2571.00,0.0126
2570.00,0.0125
2569.00,0.0125
2568.00,0.0125
2567.00,0.0124
2566.00,0.0124
2565.00,0.0124
2564.00,0.0124
2563.00,0.0124
2562.00,0.0124
2561.00,0.0124
2560.00,0.0124
2559.00,0.0123
2558.00,0.0123
2557.00,0.0124
2556.00,0.0124
2555.00,0.0124
2554.00,0.0124
2553.00,0.0124
2552.00,0.0124
2551.00,0.0124
2550.00,0.0123
2549.00,0.0123
2548.00,0.0123
2547.00,0.0123
2546.00,0.0123
2545.00,0.0123
2544.00,0.0122
2543.00,0.0122
2542.00,0.0122
2541.00,0.0122
2540.00,0.0122
2539.00,0.0122
2538.00,0.0121
2537.00,0.0121
2536.00,0.0121
2535.00,0.0121
2534.00,0.0121
2533.00,0.0121
2532.00,0.0121
2531.00,0.0121
2530.00,0.0120
2529.00,0.0120
2528.00,0.0121
2527.00,0.0121
2526.00,0.0121
2525.00,0.0120
2524.00,0.0120
2523.00,0.0120
2522.00,0.0120
2521.00,0.0120
2520.00,0.0120
2519.00,0.0120
2518.00,0.0120
2517.00,0.0120
2516.00,0.0120
2515.00,0.0120
2514.00,0.0120
2513.00,0.0120
2512.00,0.0119
2511.00,0.0119
2510.00,0.0119
2509.00,0.0119
2508.00,0.0119
2507.00,0.0118
2506.00,0.0118
2505.00,0.0118
2504.00,0.0118
2503.00,0.0118
2502.00,0.0118
2501.00,0.0118
2500.00,0.0118
2499.00,0.0117
2498.00,0.0117
2497.00,0.0117
2496.00,0.0118
2495.00,0.0118
2494.00,0.0118
2493.00,0.0118
2492.00,0.0118
2491.00,0.0118
2490.00,0.0118
2489.00,0.0117
2488.00,0.0117
2487.00,0.0117
2486.00,0.0117
2485.00,0.0117
2484.00,0.0117
2483.00,0.0117
2482.00,0.0117
2481.00,0.0117
2480.00,0.0117
2479.00,0.0116
2478.00,0.0116
2477.00,0.0115
2476.00,0.0115
2475.00,0.0115
2474.00,0.0115
2473.00,0.0115
2472.00,0.0115
2471.00,0.0115
2470.00,0.0115
2469.00,0.0115
2468.00,0.0115
2467.00,0.0115
2466.00,0.0114
2465.00,0.0114
2464.00,0.0114
2463.00,0.0114
2462.00,0.0114
2461.00,0.0114
2460.00,0.0114
2459.00,0.0115
2458.00,0.0115
2457.00,0.0115
2456.00,0.0115
2455.00,0.0115
2454.00,0.0115
2453.00,0.0115
2452.00,0.0115
2451.00,0.0114
2450.00,0.0114
2449.00,0.0114
2448.00,0.0114
2447.00,0.0113
2446.00,0.0113
2445.00,0.0113
2444.00,0.0113
2443.00,0.0113
2442.00,0.0112
2441.00,0.0112
2440.00,0.0112
2439.00,0.0112
2438.00,0.0112
2437.00,0.0112
2436.00,0.0112
2435.00,0.0112
2434.00,0.0112
2433.00,0.0112
2432.00,0.0111
2431.00,0.0111
2430.00,0.0111
2429.00,0.0111
2428.00,0.0111
2427.00,0.0111
2426.00,0.0111
2425.00,0.0111
2424.00,0.0111
2423.00,0.0110
2422.00,0.0110
2421.00,0.0110
2420.00,0.0110
2419.00,0.0110
2418.00,0.0110
2417.00,0.0110
2416.00,0.0110
2415.00,0.0110
2414.00,0.0109
2413.00,0.0109
2412.00,0.0109
2411.00,0.0109
2410.00,0.0108
2409.00,0.0108
2408.00,0.0108
2407.00,0.0108
2406.00,0.0108
2405.00,0.0108
2404.00,0.0108
2403.00,0.0108
2402.00,0.0108
2401.00,0.0107
2400.00,0.0107
2399.00,0.0107
2398.00,0.0106
2397.00,0.0106
2396.00,0.0106
2395.00,0.0106
2394.00,0.0106
2393.00,0.0106
2392.00,0.0106
2391.00,0.0106
2390.00,0.0106
2389.00,0.0106
2388.00,0.0105
2387.00,0.0105
2386.00,0.0104
2385.00,0.0104
2384.00,0.0104
2383.00,0.0104
2382.00,0.0103
2381.00,0.0103
2380.00,0.0102
2379.00,0.0102
2378.00,0.0103
2377.00,0.0103
2376.00,0.0104
2375.00,0.0104
2374.00,0.0104
2373.00,0.0103
2372.00,0.0103
2371.00,0.0102
2370.00,0.0102
2369.00,0.0101
2368.00,0.0101
2367.00,0.0101
2366.00,0.0101
2365.00,0.0102
2364.00,0.0102
2363.00,0.0103
2362.00,0.0103
2361.00,0.0103
2360.00,0.0104
2359.00,0.0104
2358.00,0.0104
2357.00,0.0103
2356.00,0.0103
2355.00,0.0103
2354.00,0.0103
2353.00,0.0103
2352.00,0.0103
2351.00,0.0103
2350.00,0.0103
2349.00,0.0104
2348.00,0.0105
2347.00,0.0105
2346.00,0.0105
2345.00,0.0105
2344.00,0.0105
2343.00,0.0105
2342.00,0.0105
2341.00,0.0106
2340.00,0.0106
2339.00,0.0106
2338.00,0.0106
2337.00,0.0106
2336.00,0.0106
2335.00,0.0105
2334.00,0.0105
2333.00,0.0105
2332.00,0.0104
2331.00,0.0104
2330.00,0.0104
2329.00,0.0106
2328.00,0.0108
2327.00,0.0112
2326.00,0.0114
2325.00,0.0115
2324.00,0.0115
2323.00,0.0113
2322.00,0.0112
2321.00,0.0111
2320.00,0.0110
2319.00,0.0109
2318.00,0.0108
2317.00,0.0108
2316.00,0.0108
2315.00,0.0107
2314.00,0.0107
2313.00,0.0107
2312.00,0.0107
2311.00,0.0106
2310.00,0.0106
2309.00,0.0106
2308.00,0.0105
2307.00,0.0106
2306.00,0.0106
2305.00,0.0106
2304.00,0.0106
2303.00,0.0106
2302.00,0.0106
2301.00,0.0106
2300.00,0.0107
2299.00,0.0107
2298.00,0.0108
2297.00,0.0108
2296.00,0.0108
2295.00,0.0108
2294.00,0.0109
2293.00,0.0109
2292.00,0.0110
2291.00,0.0111
2290.00,0.0112
2289.00,0.0112
2288.00,0.0112
2287.00,0.0111
2286.00,0.0111
2285.00,0.0111
2284.00,0.0110
2283.00,0.0110
2282.00,0.0110
2281.00,0.0109
2280.00,0.0109
2279.00,0.0108
2278.00,0.0107
2277.00,0.0107
2276.00,0.0107
2275.00,0.0107
2274.00,0.0107
2273.00,0.0107
2272.00,0.0107
2271.00,0.0107
2270.00,0.0107
2269.00,0.0106
2268.00,0.0105
2267.00,0.0104
2266.00,0.0104
2265.00,0.0104
2264.00,0.0104
2263.00,0.0104
2262.00,0.0104
2261.00,0.0104
2260.00,0.0104
2259.00,0.0105
2258.00,0.0104
2257.00,0.0103
2256.00,0.0102
2255.00,0.0100
2254.00,0.0100
2253.00,0.0100
2252.00,0.0101
2251.00,0.0102
2250.00,0.0103
2249.00,0.0104
2248.00,0.0105
2247.00,0.0105
2246.00,0.0105
2245.00,0.0104
2244.00,0.0104
2243.00,0.0103
2242.00,0.0103
2241.00,0.0103
2240.00,0.0104
2239.00,0.0104
2238.00,0.0104
2237.00,0.0104
2236.00,0.0103
2235.00,0.0103
2234.00,0.0103
2233.00,0.0103
2232.00,0.0103
2231.00,0.0103
2230.00,0.0102
2229.00,0.0102
2228.00,0.0102
2227.00,0.0102
2226.00,0.0102
2225.00,0.0102
2224.00,0.0103
2223.00,0.0103
2222.00,0.0104
2221.00,0.0104
2220.00,0.0103
2219.00,0.0101
2218.00,0.0100
2217.00,0.0099
2216.00,0.0098
2215.00,0.0098
2214.00,0.0098
2213.00,0.0098
2212.00,0.0099
2211.00,0.0099
2210.00,0.0099
2209.00,0.0100
2208.00,0.0100
2207.00,0.0100
2206.00,0.0100
2205.00,0.0100
2204.00,0.0100
2203.00,0.0099
2202.00,0.0099
2201.00,0.0098
2200.00,0.0098
2199.00,0.0098
2198.00,0.0099
2197.00,0.0100
2196.00,0.0100
2195.00,0.0101
2194.00,0.0101
2193.00,0.0102
2192.00,0.0104
2191.00,0.0104
2190.00,0.0105
2189.00,0.0104
2188.00,0.0103
2187.00,0.0102
2186.00,0.0100
2185.00,0.0098
2184.00,0.0096
2183.00,0.0095
2182.00,0.0093
2181.00,0.0092
2180.00,0.0093
2179.00,0.0094
2178.00,0.0094
2177.00,0.0094
2176.00,0.0094
2175.00,0.0094
2174.00,0.0095
2173.00,0.0096
2172.00,0.0099
2171.00,0.0101
2170.00,0.0104
2169.00,0.0106
2168.00,0.0108
2167.00,0.0109
2166.00,0.0110
2165.00,0.0112
2164.00,0.0113
2163.00,0.0113
2162.00,0.0110
2161.00,0.0101
2160.00,0.0090
2159.00,0.0079
2158.00,0.0073
2157.00,0.0071
2156.00,0.0073
2155.00,0.0075
2154.00,0.0077
2153.00,0.0078
2152.00,0.0078
2151.00,0.0078
2150.00,0.0078
2149.00,0.0079
2148.00,0.0079
2147.00,0.0080
2146.00,0.0080
2145.00,0.0081
2144.00,0.0082
2143.00,0.0083
2142.00,0.0083
2141.00,0.0084
2140.00,0.0084
2139.00,0.0084
2138.00,0.0083
2137.00,0.0081
2136.00,0.0080
2135.00,0.0078
2134.00,0.0077
2133.00,0.0078
2132.00,0.0079
2131.00,0.0082
2130.00,0.0083
2129.00,0.0084
2128.00,0.0085
2127.00,0.0086
2126.00,0.0088
2125.00,0.0089
2124.00,0.0090
2123.00,0.0090
2122.00,0.0090
2121.00,0.0090
2120.00,0.0091
2119.00,0.0092
2118.00,0.0093
2117.00,0.0094
2116.00,0.0095
2115.00,0.0095
2114.00,0.0094
2113.00,0.0094
2112.00,0.0094
2111.00,0.0095
2110.00,0.0095
2109.00,0.0095
2108.00,0.0094
2107.00,0.0094
2106.00,0.0094
2105.00,0.0094
2104.00,0.0094
2103.00,0.0094
2102.00,0.0094
2101.00,0.0093
2100.00,0.0093
2099.00,0.0093
2098.00,0.0092
2097.00,0.0091
2096.00,0.0090
2095.00,0.0089
2094.00,0.0090
2093.00,0.0091
2092.00,0.0092
2091.00,0.0092
2090.00,0.0093
2089.00,0.0093
2088.00,0.0093
2087.00,0.0094
2086.00,0.0094
2085.00,0.0095
2084.00,0.0095
2083.00,0.0096
2082.00,0.0096
2081.00,0.0097
2080.00,0.0097
2079.00,0.0097
2078.00,0.0097
2077.00,0.0096
2076.00,0.0095
2075.00,0.0094
2074.00,0.0094
2073.00,0.0093
2072.00,0.0093
2071.00,0.0093
2070.00,0.0093
2069.00,0.0093
2068.00,0.0093
2067.00,0.0092
2066.00,0.0092
2065.00,0.0092
2064.00,0.0092
2063.00,0.0092
2062.00,0.0091
2061.00,0.0091
2060.00,0.0091
2059.00,0.0091
2058.00,0.0092
2057.00,0.0092
2056.00,0.0092
2055.00,0.0093
2054.00,0.0095
2053.00,0.0098
2052.00,0.0102
2051.00,0.0103
2050.00,0.0102
2049.00,0.0099
2048.00,0.0097
2047.00,0.0095
2046.00,0.0093
2045.00,0.0091
2044.00,0.0091
2043.00,0.0091
2042.00,0.0092
2041.00,0.0092
2040.00,0.0092
2039.00,0.0092
2038.00,0.0093
2037.00,0.0094
2036.00,0.0093
2035.00,0.0090
2034.00,0.0087
2033.00,0.0086
2032.00,0.0086
2031.00,0.0087
2030.00,0.0086
2029.00,0.0085
2028.00,0.0084
2027.00,0.0083
2026.00,0.0084
2025.00,0.0084
2024.00,0.0084
2023.00,0.0084
2022.00,0.0082
2021.00,0.0082
2020.00,0.0082
2019.00,0.0082
2018.00,0.0083
2017.00,0.0084
2016.00,0.0084
2015.00,0.0084
2014.00,0.0083
2013.00,0.0082
2012.00,0.0082
2011.00,0.0083
2010.00,0.0083
2009.00,0.0082
2008.00,0.0080
2007.00,0.0078
2006.00,0.0077
2005.00,0.0077
2004.00,0.0079
2003.00,0.0080
2002.00,0.0080
2001.00,0.0081
2000.00,0.0082
1999.00,0.0084
1998.00,0.0087
1997.00,0.0089
1996.00,0.0090
1995.00,0.0091
1994.00,0.0091
1993.00,0.0090
1992.00,0.0090
1991.00,0.0089
1990.00,0.0089
1989.00,0.0089
1988.00,0.0090
1987.00,0.0091
1986.00,0.0093
1985.00,0.0094
1984.00,0.0095
1983.00,0.0096
1982.00,0.0096
1981.00,0.0097
1980.00,0.0096
1979.00,0.0094
1978.00,0.0090
1977.00,0.0086
1976.00,0.0084
1975.00,0.0082
1974.00,0.0081
1973.00,0.0081
1972.00,0.0082
1971.00,0.0082
1970.00,0.0082
1969.00,0.0081
1968.00,0.0081
1967.00,0.0081
1966.00,0.0082
1965.00,0.0083
1964.00,0.0084
1963.00,0.0084
1962.00,0.0083
1961.00,0.0082
1960.00,0.0080
1959.00,0.0080
1958.00,0.0080
1957.00,0.0081
1956.00,0.0082
1955.00,0.0082
1954.00,0.0082
1953.00,0.0081
1952.00,0.0081
1951.00,0.0081
1950.00,0.0081
1949.00,0.0081
1948.00,0.0081
1947.00,0.0080
1946.00,0.0080
1945.00,0.0080
1944.00,0.0080
1943.00,0.0081
1942.00,0.0081
1941.00,0.0081
1940.00,0.0081
1939.00,0.0080
1938.00,0.0079
1937.00,0.0079
1936.00,0.0078
1935.00,0.0078
1934.00,0.0079
1933.00,0.0079
1932.00,0.0079
1931.00,0.0080
1930.00,0.0080
1929.00,0.0079
1928.00,0.0079
1927.00,0.0079
1926.00,0.0078
1925.00,0.0078
1924.00,0.0078
1923.00,0.0079
1922.00,0.0079
1921.00,0.0079
1920.00,0.0079
1919.00,0.0079
1918.00,0.0079
1917.00,0.0080
1916.00,0.0080
1915.00,0.0080
1914.00,0.0079
1913.00,0.0079
1912.00,0.0079
1911.00,0.0079
1910.00,0.0078
1909.00,0.0078
1908.00,0.0078
1907.00,0.0078
1906.00,0.0078
1905.00,0.0079
1904.00,0.0079
1903.00,0.0079
1902.00,0.0079
1901.00,0.0079
1900.00,0.0079
1899.00,0.0078
1898.00,0.0078
1897.00,0.0077
1896.00,0.0077
1895.00,0.0077
1894.00,0.0077
1893.00,0.0077
1892.00,0.0077
1891.00,0.0077
1890.00,0.0077
1889.00,0.0077
1888.00,0.0078
1887.00,0.0078
1886.00,0.0077
1885.00,0.0077
1884.00,0.0077
1883.00,0.0077
1882.00,0.0077
1881.00,0.0078
1880.00,0.0078
1879.00,0.0077
1878.00,0.0077
1877.00,0.0077
1876.00,0.0077
1875.00,0.0077
1874.00,0.0077
1873.00,0.0077
1872.00,0.0075
1871.00,0.0073
1870.00,0.0072
1869.00,0.0072
1868.00,0.0073
1867.00,0.0075
1866.00,0.0076
1865.00,0.0076
1864.00,0.0076
1863.00,0.0076
1862.00,0.0075
1861.00,0.0075
1860.00,0.0075
1859.00,0.0075
1858.00,0.0075
1857.00,0.0075
1856.00,0.0075
1855.00,0.0074
1854.00,0.0074
1853.00,0.0074
1852.00,0.0074
1851.00,0.0074
1850.00,0.0074
1849.00,0.0075
1848.00,0.0075
1847.00,0.0075
1846.00,0.0075
1845.00,0.0075
1844.00,0.0074
1843.00,0.0074
1842.00,0.0073
1841.00,0.0073
1840.00,0.0074
1839.00,0.0074
1838.00,0.0074
1837.00,0.0073
1836.00,0.0073
1835.00,0.0074
1834.00,0.0074
1833.00,0.0074
1832.00,0.0075
1831.00,0.0067
1830.00,0.0067
1829.00,0.0070
1828.00,0.0071
1827.00,0.0071
1826.00,0.0071
1825.00,0.0072
1824.00,0.0074
1823.00,0.0074
1822.00,0.0074
1821.00,0.0074
1820.00,0.0073
1819.00,0.0073
1818.00,0.0072
1817.00,0.0071
1816.00,0.0071
1815.00,0.0071
1814.00,0.0071
1813.00,0.0071
1812.00,0.0071
1811.00,0.0071
1810.00,0.0071
1809.00,0.0072
1808.00,0.0073
1807.00,0.0073
1806.00,0.0073
1805.00,0.0073
1804.00,0.0073
1803.00,0.0073
1802.00,0.0072
1801.00,0.0071
1800.00,0.0071
1799.00,0.0072
1798.00,0.0072
1797.00,0.0072
1796.00,0.0072
1795.00,0.0070
1794.00,0.0069
1793.00,0.0069
1792.00,0.0071
1791.00,0.0073
1790.00,0.0074
1789.00,0.0074
1788.00,0.0073
1787.00,0.0073
1786.00,0.0074
1785.00,0.0074
1784.00,0.0074
1783.00,0.0072
1782.00,0.0071
1781.00,0.0071
1780.00,0.0071
1779.00,0.0072
1778.00,0.0071
1777.00,0.0072
1776.00,0.0072
1775.00,0.0074
1774.00,0.0065
1773.00,0.0063
1772.00,0.0065
1771.00,0.0069
1770.00,0.0071
1769.00,0.0073
1768.00,0.0074
1767.00,0.0074
1766.00,0.0074
1765.00,0.0073
1764.00,0.0071
1763.00,0.0071
1762.00,0.0072
1761.00,0.0074
1760.00,0.0076
1759.00,0.0076
1758.00,0.0075
1757.00,0.0077
1756.00,0.0079
1755.00,0.0081
1754.00,0.0082
1753.00,0.0082
1752.00,0.0083
1751.00,0.0083
1750.00,0.0082
1749.00,0.0083
1748.00,0.0085
1747.00,0.0087
1746.00,0.0090
1745.00,0.0092
1744.00,0.0093
1743.00,0.0094
1742.00,0.0094
1741.00,0.0095
1740.00,0.0098
1739.00,0.0102
1738.00,0.0106
1737.00,0.0108
1736.00,0.0109
1735.00,0.0112
1734.00,0.0117
1733.00,0.0122
1732.00,0.0123
1731.00,0.0123
1730.00,0.0124
1729.00,0.0126
1728.00,0.0129
1727.00,0.0131
1726.00,0.0132
1725.00,0.0133
1724.00,0.0134
1723.00,0.0136
1722.00,0.0137
1721.00,0.0137
1720.00,0.0136
1719.00,0.0136
1718.00,0.0137
1717.00,0.0139
1716.00,0.0140
1715.00,0.0141
1714.00,0.0143
1713.00,0.0145
1712.00,0.0147
1711.00,0.0148
1710.00,0.0149
1709.00,0.0150
1708.00,0.0150
1707.00,0.0151
1706.00,0.0154
1705.00,0.0160
1704.00,0.0167
1703.00,0.0173
1702.00,0.0176
1701.00,0.0182
1700.00,0.0193
1699.00,0.0203
1698.00,0.0211
1697.00,0.0218
1696.00,0.0228
1695.00,0.0238
1694.00,0.0246
1693.00,0.0252
1692.00,0.0259
1691.00,0.0267
1690.00,0.0277
1689.00,0.0287
1688.00,0.0298
1687.00,0.0308
1686.00,0.0314
1685.00,0.0321
1684.00,0.0330
1683.00,0.0340
1682.00,0.0349
1681.00,0.0360
1680.00,0.0371
1679.00,0.0382
1678.00,0.0392
1677.00,0.0401
1676.00,0.0410
1675.00,0.0419
1674.00,0.0428
1673.00,0.0438
1672.00,0.0448
1671.00,0.0458
1670.00,0.0469
1669.00,0.0482
1668.00,0.0496
1667.00,0.0510
1666.00,0.0525
1665.00,0.0539
1664.00,0.0553
1663.00,0.0568
1662.00,0.0583
1661.00,0.0598
1660.00,0.0615
1659.00,0.0633
1658.00,0.0651
1657.00,0.0670
1656.00,0.0691
1655.00,0.0707
1654.00,0.0715
1653.00,0.0713
1652.00,0.0709
1651.00,0.0712
1650.00,0.0721
1649.00,0.0731
1648.00,0.0737
1647.00,0.0735
1646.00,0.0727
1645.00,0.0722
1644.00,0.0721
1643.00,0.0723
1642.00,0.0724
1641.00,0.0722
1640.00,0.0720
1639.00,0.0719
1638.00,0.0716
1637.00,0.0709
1636.00,0.0695
1635.00,0.0681
1634.00,0.0671
1633.00,0.0669
1632.00,0.0670
1631.00,0.0671
1630.00,0.0667
1629.00,0.0661
1628.00,0.0652
1627.00,0.0645
1626.00,0.0638
1625.00,0.0631
1624.00,0.0621
1623.00,0.0608
1622.00,0.0596
1621.00,0.0588
1620.00,0.0583
1619.00,0.0578
1618.00,0.0567
1617.00,0.0550
1616.00,0.0531
1615.00,0.0515
1614.00,0.0505
1613.00,0.0497
1612.00,0.0488
1611.00,0.0478
1610.00,0.0466
1609.00,0.0455
1608.00,0.0445
1607.00,0.0435
1606.00,0.0427
1605.00,0.0419
1604.00,0.0412
1603.00,0.0405
1602.00,0.0399
1601.00,0.0393
1600.00,0.0388
1599.00,0.0383
1598.00,0.0379
1597.00,0.0374
1596.00,0.0370
1595.00,0.0366
1594.00,0.0362
1593.00,0.0359
1592.00,0.0356
1591.00,0.0353
1590.00,0.0350
1589.00,0.0348
1588.00,0.0346
1587.00,0.0343
1586.00,0.0342
1585.00,0.0340
1584.00,0.0339
1583.00,0.0338
1582.00,0.0337
1581.00,0.0336
1580.00,0.0337
1579.00,0.0337
1578.00,0.0338
1577.00,0.0337
1576.00,0.0337
1575.00,0.0337
1574.00,0.0338
1573.00,0.0339
1572.00,0.0341
1571.00,0.0341
1570.00,0.0342
1569.00,0.0345
1568.00,0.0350
1567.00,0.0354
1566.00,0.0358
1565.00,0.0364
1564.00,0.0372
1563.00,0.0381
1562.00,0.0390
1561.00,0.0395
1560.00,0.0397
1559.00,0.0402
1558.00,0.0411
1557.00,0.0424
1556.00,0.0438
1555.00,0.0452
1554.00,0.0466
1553.00,0.0479
1552.00,0.0492
1551.00,0.0504
1550.00,0.0516
1549.00,0.0527
1548.00,0.0539
1547.00,0.0550
1546.00,0.0561
1545.00,0.0569
1544.00,0.0575
1543.00,0.0579
1542.00,0.0582
1541.00,0.0583
1540.00,0.0583
1539.00,0.0584
1538.00,0.0587
1537.00,0.0594
1536.00,0.0600
1535.00,0.0605
1534.00,0.0604
1533.00,0.0602
1532.00,0.0600
1531.00,0.0601
1530.00,0.0603
1529.00,0.0605
1528.00,0.0605
1527.00,0.0602
1526.00,0.0598
1525.00,0.0594
1524.00,0.0593
1523.00,0.0592
1522.00,0.0590
1521.00,0.0585
1520.00,0.0581
1519.00,0.0580
1518.00,0.0581
1517.00,0.0580
1516.00,0.0579
1515.00,0.0577
1514.00,0.0575
1513.00,0.0572
1512.00,0.0566
1511.00,0.0561
1510.00,0.0556
1509.00,0.0549
1508.00,0.0536
1507.00,0.0516
1506.00,0.0497
1505.00,0.0486
1504.00,0.0480
1503.00,0.0477
1502.00,0.0473
1501.00,0.0468
1500.00,0.0461
1499.00,0.0453
1498.00,0.0445
1497.00,0.0435
1496.00,0.0425
1495.00,0.0415
1494.00,0.0407
1493.00,0.0400
1492.00,0.0393
1491.00,0.0384
1490.00,0.0373
1489.00,0.0363
1488.00,0.0355
1487.00,0.0350
1486.00,0.0346
1485.00,0.0343
1484.00,0.0339
1483.00,0.0336
1482.00,0.0333
1481.00,0.0331
1480.00,0.0330
1479.00,0.0331
1478.00,0.0333
1477.00,0.0337
1476.00,0.0342
1475.00,0.0347
1474.00,0.0351
1473.00,0.0355
1472.00,0.0361
1471.00,0.0368
1470.00,0.0376
1469.00,0.0385
1468.00,0.0392
1467.00,0.0397
1466.00,0.0397
1465.00,0.0393
1464.00,0.0388
1463.00,0.0384
1462.00,0.0382
1461.00,0.0380
1460.00,0.0380
1459.00,0.0380
1458.00,0.0382
1457.00,0.0386
1456.00,0.0389
1455.00,0.0390
1454.00,0.0390
1453.00,0.0390
1452.00,0.0389
1451.00,0.0387
1450.00,0.0385
1449.00,0.0382
1448.00,0.0379
1447.00,0.0375
1446.00,0.0372
1445.00,0.0370
1444.00,0.0367
1443.00,0.0364
1442.00,0.0361
1441.00,0.0359
1440.00,0.0358
1439.00,0.0357
1438.00,0.0354
1437.00,0.0349
1436.00,0.0343
1435.00,0.0337
1434.00,0.0332
1433.00,0.0328
1432.00,0.0325
1431.00,0.0321
1430.00,0.0318
1429.00,0.0316
1428.00,0.0315
1427.00,0.0314
1426.00,0.0313
1425.00,0.0313
1424.00,0.0313
1423.00,0.0314
1422.00,0.0317
1421.00,0.0319
1420.00,0.0321
1419.00,0.0322
1418.00,0.0323
1417.00,0.0324
1416.00,0.0325
1415.00,0.0327
1414.00,0.0329
1413.00,0.0330
1412.00,0.0331
1411.00,0.0332
1410.00,0.0333
1409.00,0.0333
1408.00,0.0334
1407.00,0.0334
1406.00,0.0335
1405.00,0.0336
1404.00,0.0336
1403.00,0.0338
1402.00,0.0339
1401.00,0.0341
1400.00,0.0342
1399.00,0.0343
1398.00,0.0345
1397.00,0.0346
1396.00,0.0348
1395.00,0.0349
1394.00,0.0350
1393.00,0.0351
1392.00,0.0352
1391.00,0.0354
1390.00,0.0356
1389.00,0.0358
1388.00,0.0358
1387.00,0.0357
1386.00,0.0355
1385.00,0.0354
1384.00,0.0352
1383.00,0.0351
1382.00,0.0349
1381.00,0.0347
1380.00,0.0345
1379.00,0.0343
1378.00,0.0341
1377.00,0.0339
1376.00,0.0337
1375.00,0.0335
1374.00,0.0334
1373.00,0.0333
1372.00,0.0333
1371.00,0.0332
1370.00,0.0331
1369.00,0.0330
1368.00,0.0329
1367.00,0.0329
1366.00,0.0329
1365.00,0.0330
1364.00,0.0332
1363.00,0.0336
1362.00,0.0343
1361.00,0.0348
1360.00,0.0351
1359.00,0.0350
1358.00,0.0344
1357.00,0.0336
1356.00,0.0329
1355.00,0.0324
1354.00,0.0321
1353.00,0.0321
1352.00,0.0322
1351.00,0.0324
1350.00,0.0326
1349.00,0.0329
1348.00,0.0334
1347.00,0.0342
1346.00,0.0355
1345.00,0.0376
1344.00,0.0401
1343.00,0.0425
1342.00,0.0442
1341.00,0.0443
1340.00,0.0428
1339.00,0.0403
1338.00,0.0377
1337.00,0.0356
1336.00,0.0341
1335.00,0.0332
1334.00,0.0326
1333.00,0.0322
1332.00,0.0319
1331.00,0.0318
1330.00,0.0316
1329.00,0.0316
1328.00,0.0315
1327.00,0.0315
1326.00,0.0315
1325.00,0.0315
1324.00,0.0315
1323.00,0.0315
1322.00,0.0315
1321.00,0.0316
1320.00,0.0316
1319.00,0.0317
1318.00,0.0318
1317.00,0.0319
1316.00,0.0320
1315.00,0.0321
1314.00,0.0322
1313.00,0.0323
1312.00,0.0324
1311.00,0.0325
1310.00,0.0326
1309.00,0.0327
1308.00,0.0329
1307.00,0.0330
1306.00,0.0331
1305.00,0.0332
1304.00,0.0333
1303.00,0.0334
1302.00,0.0335
1301.00,0.0336
1300.00,0.0337
1299.00,0.0338
1298.00,0.0339
1297.00,0.0341
1296.00,0.0342
1295.00,0.0344
1294.00,0.0346
1293.00,0.0348
1292.00,0.0351
1291.00,0.0355
1290.00,0.0359
1289.00,0.0364
1288.00,0.0369
1287.00,0.0376
1286.00,0.0382
1285.00,0.0389
1284.00,0.0396
1283.00,0.0403
1282.00,0.0409
1281.00,0.0414
1280.00,0.0417
1279.00,0.0418
1278.00,0.0416
1277.00,0.0412
1276.00,0.0407
1275.00,0.0400
1274.00,0.0393
1273.00,0.0386
1272.00,0.0380
1271.00,0.0375
1270.00,0.0371
1269.00,0.0369
1268.00,0.0367
1267.00,0.0366
1266.00,0.0366
1265.00,0.0366
1264.00,0.0367
1263.00,0.0368
1262.00,0.0369
1261.00,0.0370
1260.00,0.0370
1259.00,0.0371
1258.00,0.0372
1257.00,0.0373
1256.00,0.0374
1255.00,0.0375
1254.00,0.0377
1253.00,0.0379
1252.00,0.0381
1251.00,0.0383
1250.00,0.0386
1249.00,0.0390
1248.00,0.0394
1247.00,0.0400
1246.00,0.0406
1245.00,0.0414
1244.00,0.0424
1243.00,0.0434
1242.00,0.0441
1241.00,0.0445
1240.00,0.0444
1239.00,0.0441
1238.00,0.0438
1237.00,0.0435
1236.00,0.0433
1235.00,0.0431
1234.00,0.0429
1233.00,0.0426
1232.00,0.0422
1231.00,0.0417
1230.00,0.0412
1229.00,0.0408
1228.00,0.0404
1227.00,0.0401
1226.00,0.0399
1225.00,0.0397
1224.00,0.0395
1223.00,0.0393
1222.00,0.0392
1221.00,0.0390
1220.00,0.0387
1219.00,0.0385
1218.00,0.0384
1217.00,0.0382
1216.00,0.0380
1215.00,0.0378
1214.00,0.0376
1213.00,0.0374
1212.00,0.0372
1211.00,0.0370
1210.00,0.0368
1209.00,0.0366
1208.00,0.0364
1207.00,0.0363
1206.00,0.0362
1205.00,0.0360
1204.00,0.0359
1203.00,0.0357
1202.00,0.0355
1201.00,0.0354
1200.00,0.0352
1199.00,0.0351
1198.00,0.0350
1197.00,0.0349
1196.00,0.0348
1195.00,0.0347
1194.00,0.0346
1193.00,0.0345
1192.00,0.0344
1191.00,0.0344
1190.00,0.0343
1189.00,0.0343
1188.00,0.0342
1187.00,0.0342
1186.00,0.0342
1185.00,0.0341
1184.00,0.0342
1183.00,0.0342
1182.00,0.0342
1181.00,0.0343
1180.00,0.0343
1179.00,0.0344
1178.00,0.0345
1177.00,0.0347
1176.00,0.0348
1175.00,0.0350
1174.00,0.0351
1173.00,0.0353
1172.00,0.0354
1171.00,0.0355
1170.00,0.0356
1169.00,0.0357
1168.00,0.0358
1167.00,0.0359
1166.00,0.0360
1165.00,0.0362
1164.00,0.0364
1163.00,0.0366
1162.00,0.0369
1161.00,0.0373
1160.00,0.0376
1159.00,0.0380
1158.00,0.0385
1157.00,0.0390
1156.00,0.0397
1155.00,0.0404
1154.00,0.0413
1153.00,0.0422
1152.00,0.0432
1151.00,0.0441
1150.00,0.0447
1149.00,0.0451
1148.00,0.0452
1147.00,0.0451
1146.00,0.0450
1145.00,0.0447
1144.00,0.0444
1143.00,0.0439
1142.00,0.0433
1141.00,0.0426
1140.00,0.0419
1139.00,0.0413
1138.00,0.0408
1137.00,0.0404
1136.00,0.0403
1135.00,0.0402
1134.00,0.0403
1133.00,0.0405
1132.00,0.0408
1131.00,0.0412
1130.00,0.0417
1129.00,0.0425
1128.00,0.0434
1127.00,0.0445
1126.00,0.0457
1125.00,0.0469
1124.00,0.0482
1123.00,0.0494
1122.00,0.0504
1121.00,0.0515
1120.00,0.0526
1119.00,0.0538
1118.00,0.0551
1117.00,0.0564
1116.00,0.0578
1115.00,0.0590
1114.00,0.0601
1113.00,0.0610
1112.00,0.0619
1111.00,0.0627
1110.00,0.0634
1109.00,0.0642
1108.00,0.0650
1107.00,0.0657
1106.00,0.0664
1105.00,0.0671
1104.00,0.0677
1103.00,0.0683
1102.00,0.0689
1101.00,0.0695
1100.00,0.0699
1099.00,0.0703
1098.00,0.0703
1097.00,0.0702
1096.00,0.0698
1095.00,0.0693
1094.00,0.0687
1093.00,0.0680
1092.00,0.0674
1091.00,0.0667
1090.00,0.0661
1089.00,0.0655
1088.00,0.0650
1087.00,0.0645
1086.00,0.0641
1085.00,0.0637
1084.00,0.0634
1083.00,0.0630
1082.00,0.0627
1081.00,0.0623
1080.00,0.0619
1079.00,0.0615
1078.00,0.0611
1077.00,0.0606
1076.00,0.0601
1075.00,0.0596
1074.00,0.0592
1073.00,0.0588
1072.00,0.0584
1071.00,0.0580
1070.00,0.0577
1069.00,0.0575
1068.00,0.0575
1067.00,0.0577
1066.00,0.0581
1065.00,0.0588
1064.00,0.0599
1063.00,0.0611
1062.00,0.0624
1061.00,0.0633
1060.00,0.0637
1059.00,0.0636
1058.00,0.0631
1057.00,0.0623
1056.00,0.0614
1055.00,0.0606
1054.00,0.0598
1053.00,0.0591
1052.00,0.0584
1051.00,0.0577
1050.00,0.0571
1049.00,0.0565
1048.00,0.0561
1047.00,0.0556
1046.00,0.0552
1045.00,0.0549
1044.00,0.0546
1043.00,0.0543
1042.00,0.0540
1041.00,0.0537
1040.00,0.0535
1039.00,0.0533
1038.00,0.0531
1037.00,0.0529
1036.00,0.0528
1035.00,0.0527
1034.00,0.0525
1033.00,0.0524
1032.00,0.0523
1031.00,0.0521
1030.00,0.0520
1029.00,0.0519
1028.00,0.0518
1027.00,0.0517
1026.00,0.0515
1025.00,0.0512
1024.00,0.0510
1023.00,0.0507
1022.00,0.0504
1021.00,0.0500
1020.00,0.0497
1019.00,0.0493
1018.00,0.0488
1017.00,0.0483
1016.00,0.0478
1015.00,0.0472
1014.00,0.0467
1013.00,0.0462
1012.00,0.0456
1011.00,0.0451
1010.00,0.0446
1009.00,0.0440
1008.00,0.0434
1007.00,0.0429
1006.00,0.0423
1005.00,0.0418
1004.00,0.0413
1003.00,0.0408
1002.00,0.0404
1001.00,0.0399
1000.00,0.0395
999.00,0.0390
998.00,0.0386
997.00,0.0382
996.00,0.0377
995.00,0.0372
994.00,0.0368
993.00,0.0363
992.00,0.0357
991.00,0.0352
990.00,0.0347
989.00,0.0342
988.00,0.0338
987.00,0.0333
986.00,0.0329
985.00,0.0325
984.00,0.0322
983.00,0.0319
982.00,0.0316
981.00,0.0314
980.00,0.0313
979.00,0.0312
978.00,0.0312
977.00,0.0312
976.00,0.0313
975.00,0.0314
974.00,0.0316
973.00,0.0319
972.00,0.0323
971.00,0.0328
970.00,0.0335
969.00,0.0344
968.00,0.0356
967.00,0.0372
966.00,0.0389
965.00,0.0408
964.00,0.0424
963.00,0.0437
962.00,0.0443
961.00,0.0443
960.00,0.0438
959.00,0.0431
958.00,0.0422
957.00,0.0413
956.00,0.0405
955.00,0.0397
954.00,0.0391
953.00,0.0387
952.00,0.0384
951.00,0.0383
950.00,0.0383
949.00,0.0384
948.00,0.0385
947.00,0.0385
946.00,0.0384
945.00,0.0381
944.00,0.0377
943.00,0.0372
942.00,0.0367
941.00,0.0361
940.00,0.0357
939.00,0.0352
938.00,0.0349
937.00,0.0345
936.00,0.0343
935.00,0.0341
934.00,0.0340
933.00,0.0338
932.00,0.0336
931.00,0.0333
930.00,0.0330
929.00,0.0328
928.00,0.0325
927.00,0.0322
926.00,0.0320
925.00,0.0317
924.00,0.0314
923.00,0.0310
922.00,0.0308
921.00,0.0305
920.00,0.0303
919.00,0.0301
918.00,0.0299
917.00,0.0297
916.00,0.0295
915.00,0.0293
914.00,0.0291
913.00,0.0289
912.00,0.0287
911.00,0.0286
910.00,0.0284
909.00,0.0283
908.00,0.0281
907.00,0.0280
906.00,0.0280
905.00,0.0279
904.00,0.0278
903.00,0.0278
902.00,0.0277
901.00,0.0277
900.00,0.0277
899.00,0.0276
898.00,0.0276
897.00,0.0276
896.00,0.0275
895.00,0.0275
894.00,0.0275
893.00,0.0275
892.00,0.0275
891.00,0.0275
890.00,0.0275
889.00,0.0275
888.00,0.0274
887.00,0.0274
886.00,0.0274
885.00,0.0274
884.00,0.0273
883.00,0.0273
882.00,0.0272
881.00,0.0271
880.00,0.0271
879.00,0.0270
878.00,0.0270
877.00,0.0270
876.00,0.0270
875.00,0.0271
874.00,0.0271
873.00,0.0271
872.00,0.0270
871.00,0.0270
870.00,0.0271
869.00,0.0271
868.00,0.0272
867.00,0.0273
866.00,0.0274
865.00,0.0275
864.00,0.0276
863.00,0.0278
862.00,0.0279
861.00,0.0282
860.00,0.0285
859.00,0.0288
858.00,0.0291
857.00,0.0293
856.00,0.0295
855.00,0.0297
854.00,0.0300
853.00,0.0303
852.00,0.0307
851.00,0.0312
850.00,0.0319
849.00,0.0329
848.00,0.0340
847.00,0.0353
846.00,0.0367
845.00,0.0382
844.00,0.0395
843.00,0.0406
842.00,0.0411
841.00,0.0409
840.00,0.0400
839.00,0.0387
838.00,0.0373
837.00,0.0360
836.00,0.0350
835.00,0.0343
834.00,0.0338
833.00,0.0334
832.00,0.0332
831.00,0.0330
830.00,0.0329
829.00,0.0328
828.00,0.0327
827.00,0.0326
826.00,0.0325
825.00,0.0324
824.00,0.0324
823.00,0.0323
822.00,0.0322
821.00,0.0322
820.00,0.0321
819.00,0.0321
818.00,0.0321
817.00,0.0321
816.00,0.0321
815.00,0.0321
814.00,0.0321
813.00,0.0322
812.00,0.0324
811.00,0.0325
810.00,0.0327
809.00,0.0329
808.00,0.0330
807.00,0.0331
806.00,0.0331
805.00,0.0332
804.00,0.0333
803.00,0.0334
802.00,0.0335
801.00,0.0336
800.00,0.0337
799.00,0.0337
798.00,0.0337
797.00,0.0337
796.00,0.0337
795.00,0.0337
794.00,0.0337
793.00,0.0338
792.00,0.0339
791.00,0.0340
790.00,0.0340
789.00,0.0341
788.00,0.0343
787.00,0.0345
786.00,0.0346
785.00,0.0347
784.00,0.0348
783.00,0.0348
782.00,0.0348
781.00,0.0348
780.00,0.0348
779.00,0.0348
778.00,0.0347
777.00,0.0347
776.00,0.0347
775.00,0.0348
774.00,0.0349
773.00,0.0350
772.00,0.0351
771.00,0.0352
770.00,0.0352
769.00,0.0353
768.00,0.0355
767.00,0.0356
766.00,0.0358
765.00,0.0360
764.00,0.0362
763.00,0.0363
762.00,0.0365
761.00,0.0366
760.00,0.0367
759.00,0.0368
758.00,0.0370
757.00,0.0371
756.00,0.0373
755.00,0.0375
754.00,0.0376
753.00,0.0377
752.00,0.0378
751.00,0.0379
750.00,0.0380
749.00,0.0382
748.00,0.0384
747.00,0.0386
746.00,0.0387
745.00,0.0389
744.00,0.0390
743.00,0.0391
742.00,0.0392
741.00,0.0392
740.00,0.0392
739.00,0.0392
738.00,0.0392
737.00,0.0392
736.00,0.0392
735.00,0.0393
734.00,0.0394
733.00,0.0395
732.00,0.0397
731.00,0.0399
730.00,0.0401
729.00,0.0403
728.00,0.0405
727.00,0.0407
726.00,0.0409
725.00,0.0411
724.00,0.0414
723.00,0.0416
722.00,0.0419
721.00,0.0421
720.00,0.0423
719.00,0.0425
718.00,0.0427
717.00,0.0430
716.00,0.0432
715.00,0.0435
714.00,0.0438
713.00,0.0441
712.00,0.0444
711.00,0.0448
710.00,0.0451
709.00,0.0456
708.00,0.0460
707.00,0.0464
706.00,0.0469
705.00,0.0473
704.00,0.0477
703.00,0.0480
702.00,0.0483
701.00,0.0486
700.00,0.0488
699.00,0.0489
698.00,0.0490
697.00,0.0490
696.00,0.0489
695.00,0.0488
694.00,0.0488
693.00,0.0488
692.00,0.0489
691.00,0.0490
690.00,0.0492
689.00,0.0493
688.00,0.0495
687.00,0.0496
686.00,0.0498
685.00,0.0500
684.00,0.0501
683.00,0.0502
682.00,0.0503
681.00,0.0504
680.00,0.0506
679.00,0.0509
678.00,0.0511
677.00,0.0513
676.00,0.0515
675.00,0.0517
674.00,0.0519
673.00,0.0521
672.00,0.0524
671.00,0.0527
670.00,0.0531
669.00,0.0532
668.00,0.0532
667.00,0.0532
666.00,0.0534
665.00,0.0538
664.00,0.0541
663.00,0.0544
662.00,0.0545
661.00,0.0546
660.00,0.0548
659.00,0.0549
658.00,0.0550
657.00,0.0551
656.00,0.0552
655.00,0.0554
654.00,0.0555
653.00,0.0556
652.00,0.0557
651.00,0.0559
650.00,0.0560
649.00,0.0562
648.00,0.0564
647.00,0.0565
646.00,0.0565
645.00,0.0567
644.00,0.0568
643.00,0.0570
642.00,0.0572
641.00,0.0574
640.00,0.0575
639.00,0.0576
638.00,0.0578
637.00,0.0579
636.00,0.0581
635.00,0.0583
634.00,0.0585
633.00,0.0587
632.00,0.0589
631.00,0.0591
630.00,0.0592
629.00,0.0594
628.00,0.0596
627.00,0.0599
626.00,0.0601
625.00,0.0603
624.00,0.0605
623.00,0.0608
622.00,0.0609
621.00,0.0611
620.00,0.0612
619.00,0.0613
618.00,0.0614
617.00,0.0616
616.00,0.0618
615.00,0.0619
614.00,0.0619
613.00,0.0619
612.00,0.0620
611.00,0.0620
610.00,0.0621
609.00,0.0621
608.00,0.0622
607.00,0.0623
606.00,0.0624
605.00,0.0625
604.00,0.0627
603.00,0.0628
602.00,0.0630
601.00,0.0630
600.00,0.0630
599.00,0.0630
598.00,0.0630
597.00,0.0631
596.00,0.0633
595.00,0.0635
594.00,0.0637
593.00,0.0638
592.00,0.0638
591.00,0.0639
590.00,0.0639
589.00,0.0639
588.00,0.0641
587.00,0.0643
586.00,0.0644
585.00,0.0646
584.00,0.0648
583.00,0.0650
582.00,0.0652
581.00,0.0654
580.00,0.0656
579.00,0.0658
578.00,0.0660
577.00,0.0662
576.00,0.0664
575.00,0.0667
574.00,0.0669
573.00,0.0670
572.00,0.0671
571.00,0.0670
570.00,0.0670
569.00,0.0670
568.00,0.0671
567.00,0.0673
566.00,0.0673
565.00,0.0674
564.00,0.0675
563.00,0.0676
562.00,0.0677
561.00,0.0678
560.00,0.0679
559.00,0.0681
558.00,0.0682
557.00,0.0683
556.00,0.0685
555.00,0.0686
554.00,0.0687
553.00,0.0688
552.00,0.0689
551.00,0.0691
550.00,0.0693
549.00,0.0695
548.00,0.0698
547.00,0.0699
546.00,0.0700
545.00,0.0700
544.00,0.0701
543.00,0.0703
542.00,0.0706
541.00,0.0708
540.00,0.0711
539.00,0.0713
538.00,0.0715
537.00,0.0717
536.00,0.0720
535.00,0.0723
534.00,0.0726
533.00,0.0730
532.00,0.0732
531.00,0.0735
530.00,0.0738
529.00,0.0742
528.00,0.0746
527.00,0.0748
526.00,0.0748
525.00,0.0746
524.00,0.0744
523.00,0.0743
522.00,0.0743
521.00,0.0743
520.00,0.0743
519.00,0.0741
518.00,0.0739
517.00,0.0738
516.00,0.0739
515.00,0.0739
514.00,0.0738
513.00,0.0736
512.00,0.0735
511.00,0.0733
510.00,0.0731
509.00,0.0728
508.00,0.0726
507.00,0.0725
506.00,0.0723
505.00,0.0722
504.00,0.0720
503.00,0.0717
502.00,0.0712
501.00,0.0708
500.00,0.0705
499.00,0.0704
498.00,0.0704
497.00,0.0703
496.00,0.0702
495.00,0.0701
494.00,0.0700
493.00,0.0700
492.00,0.0700
491.00,0.0700
490.00,0.0700
489.00,0.0700
488.00,0.0701
487.00,0.0701
486.00,0.0700
485.00,0.0699
484.00,0.0699
483.00,0.0700
482.00,0.0701
481.00,0.0700
480.00,0.0700
479.00,0.0698
478.00,0.0697
477.00,0.0696
476.00,0.0696
475.00,0.0696
474.00,0.0696
473.00,0.0697
472.00,0.0699
471.00,0.0701
470.00,0.0701
469.00,0.0700
468.00,0.0698
467.00,0.0697
466.00,0.0696
465.00,0.0696
464.00,0.0695
463.00,0.0694
462.00,0.0693
461.00,0.0693
460.00,0.0695
459.00,0.0695
458.00,0.0691
457.00,0.0686
456.00,0.0683
455.00,0.0681
454.00,0.0679
453.00,0.0676
452.00,0.0672
451.00,0.0669
450.00,0.0669
449.00,0.0670
448.00,0.0669
447.00,0.0665
446.00,0.0661
445.00,0.0657
444.00,0.0655
443.00,0.0650
442.00,0.0642
441.00,0.0635
440.00,0.0631
439.00,0.0629
438.00,0.0628
437.00,0.0626
436.00,0.0624
435.00,0.0622
434.00,0.0620
433.00,0.0621
432.00,0.0623
431.00,0.0627
430.00,0.0629
429.00,0.0630
428.00,0.0629
427.00,0.0626
426.00,0.0625
425.00,0.0626
424.00,0.0628
423.00,0.0630
422.00,0.0633
421.00,0.0638
420.00,0.0642
419.00,0.0641
418.00,0.0636
417.00,0.0633
416.00,0.0631
415.00,0.0628
414.00,0.0624
413.00,0.0623
412.00,0.0627
411.00,0.0632
410.00,0.0633
409.00,0.0631
408.00,0.0628
407.00,0.0625
406.00,0.0621
405.00,0.0619
404.00,0.0616
403.00,0.0612
402.00,0.0610
401.00,0.0616
400.00,0.0632
