Created as New Dataset,Sample 931 By YargerLab Date Saturday, July 26 2025
cm-1,A
4000.00,0.0083
3999.00,0.0083
3998.00,0.0082
3997.00,0.0082
3996.00,0.0082
3995.00,0.0082
3994.00,0.0082
3993.00,0.0082
3992.00,0.0082
3991.00,0.0082
3990.00,0.0082
3989.00,0.0082
3988.00,0.0082
3987.00,0.0082
3986.00,0.0082
3985.00,0.0082
3984.00,0.0082
3983.00,0.0083
3982.00,0.0083
3981.00,0.0083
3980.00,0.0083
3979.00,0.0083
3978.00,0.0082
3977.00,0.0082
3976.00,0.0082
3975.00,0.0083
3974.00,0.0083
3973.00,0.0083
3972.00,0.0083
3971.00,0.0083
3970.00,0.0083
3969.00,0.0083
3968.00,0.0083
3967.00,0.0083
3966.00,0.0083
3965.00,0.0083
3964.00,0.0083
3963.00,0.0082
3962.00,0.0082
3961.00,0.0082
3960.00,0.0082
3959.00,0.0082
3958.00,0.0082
3957.00,0.0082
3956.00,0.0082
3955.00,0.0082
3954.00,0.0082
3953.00,0.0082
3952.00,0.0082
3951.00,0.0082
3950.00,0.0082
3949.00,0.0082
3948.00,0.0082
3947.00,0.0082
3946.00,0.0082
3945.00,0.0082
3944.00,0.0082
3943.00,0.0082
3942.00,0.0082
3941.00,0.0082
3940.00,0.0082
3939.00,0.0082
3938.00,0.0082
3937.00,0.0082
3936.00,0.0082
3935.00,0.0082
3934.00,0.0082
3933.00,0.0082
3932.00,0.0082
3931.00,0.0082
3930.00,0.0082
3929.00,0.0082
3928.00,0.0082
3927.00,0.0082
3926.00,0.0082
3925.00,0.0082
3924.00,0.0082
3923.00,0.0082
3922.00,0.0082
3921.00,0.0082
3920.00,0.0082
3919.00,0.0082
3918.00,0.0082
3917.00,0.0082
3916.00,0.0082
3915.00,0.0082
3914.00,0.0082
3913.00,0.0082
3912.00,0.0082
3911.00,0.0082
3910.00,0.0082
3909.00,0.0082
3908.00,0.0082
3907.00,0.0082
3906.00,0.0082
3905.00,0.0082
3904.00,0.0082
3903.00,0.0082
3902.00,0.0082
3901.00,0.0082
3900.00,0.0081
3899.00,0.0081
3898.00,0.0081
3897.00,0.0081
3896.00,0.0081
3895.00,0.0081
3894.00,0.0081
3893.00,0.0081
3892.00,0.0081
3891.00,0.0081
3890.00,0.0081
3889.00,0.0081
3888.00,0.0081
3887.00,0.0081
3886.00,0.0081
3885.00,0.0081
3884.00,0.0081
3883.00,0.0081
3882.00,0.0081
3881.00,0.0081
3880.00,0.0081
3879.00,0.0081
3878.00,0.0081
3877.00,0.0081
3876.00,0.0081
3875.00,0.0081
3874.00,0.0081
3873.00,0.0081
3872.00,0.0081
3871.00,0.0081
3870.00,0.0081
3869.00,0.0081
3868.00,0.0081
3867.00,0.0081
3866.00,0.0081
3865.00,0.0081
3864.00,0.0081
3863.00,0.0081
3862.00,0.0081
3861.00,0.0081
3860.00,0.0081
3859.00,0.0081
3858.00,0.0081
3857.00,0.0081
3856.00,0.0081
3855.00,0.0081
3854.00,0.0080
3853.00,0.0080
3852.00,0.0080
3851.00,0.0081
3850.00,0.0081
3849.00,0.0081
3848.00,0.0081
3847.00,0.0081
3846.00,0.0081
3845.00,0.0081
3844.00,0.0081
3843.00,0.0081
3842.00,0.0081
3841.00,0.0081
3840.00,0.0081
3839.00,0.0081
3838.00,0.0081
3837.00,0.0081
3836.00,0.0081
3835.00,0.0081
3834.00,0.0080
3833.00,0.0080
3832.00,0.0080
3831.00,0.0080
3830.00,0.0080
3829.00,0.0080
3828.00,0.0080
3827.00,0.0080
3826.00,0.0080
3825.00,0.0080
3824.00,0.0080
3823.00,0.0080
3822.00,0.0080
3821.00,0.0080
3820.00,0.0080
3819.00,0.0080
3818.00,0.0080
3817.00,0.0080
3816.00,0.0080
3815.00,0.0080
3814.00,0.0080
3813.00,0.0080
3812.00,0.0080
3811.00,0.0080
3810.00,0.0080
3809.00,0.0080
3808.00,0.0080
3807.00,0.0080
3806.00,0.0080
3805.00,0.0080
3804.00,0.0079
3803.00,0.0079
3802.00,0.0079
3801.00,0.0079
3800.00,0.0079
3799.00,0.0080
3798.00,0.0080
3797.00,0.0080
3796.00,0.0080
3795.00,0.0080
3794.00,0.0079
3793.00,0.0079
3792.00,0.0079
3791.00,0.0079
3790.00,0.0079
3789.00,0.0079
3788.00,0.0079
3787.00,0.0079
3786.00,0.0079
3785.00,0.0079
3784.00,0.0079
3783.00,0.0079
3782.00,0.0079
3781.00,0.0080
3780.00,0.0080
3779.00,0.0080
3778.00,0.0080
3777.00,0.0079
3776.00,0.0079
3775.00,0.0079
3774.00,0.0079
3773.00,0.0079
3772.00,0.0079
3771.00,0.0079
3770.00,0.0079
3769.00,0.0079
3768.00,0.0079
3767.00,0.0079
3766.00,0.0079
3765.00,0.0079
3764.00,0.0079
3763.00,0.0079
3762.00,0.0079
3761.00,0.0080
3760.00,0.0080
3759.00,0.0080
3758.00,0.0079
3757.00,0.0079
3756.00,0.0079
3755.00,0.0079
3754.00,0.0079
3753.00,0.0079
3752.00,0.0079
3751.00,0.0079
3750.00,0.0079
3749.00,0.0079
3748.00,0.0079
3747.00,0.0079
3746.00,0.0079
3745.00,0.0079
3744.00,0.0079
3743.00,0.0079
3742.00,0.0079
3741.00,0.0079
3740.00,0.0079
3739.00,0.0078
3738.00,0.0078
3737.00,0.0078
3736.00,0.0078
3735.00,0.0078
3734.00,0.0078
3733.00,0.0078
3732.00,0.0078
3731.00,0.0078
3730.00,0.0077
3729.00,0.0077
3728.00,0.0077
3727.00,0.0077
3726.00,0.0077
3725.00,0.0076
3724.00,0.0076
3723.00,0.0076
3722.00,0.0076
3721.00,0.0077
3720.00,0.0077
3719.00,0.0077
3718.00,0.0077
3717.00,0.0077
3716.00,0.0078
3715.00,0.0078
3714.00,0.0078
3713.00,0.0077
3712.00,0.0077
3711.00,0.0077
3710.00,0.0077
3709.00,0.0077
3708.00,0.0077
3707.00,0.0077
3706.00,0.0077
3705.00,0.0077
3704.00,0.0077
3703.00,0.0076
3702.00,0.0076
3701.00,0.0075
3700.00,0.0075
3699.00,0.0075
3698.00,0.0075
3697.00,0.0075
3696.00,0.0076
3695.00,0.0076
3694.00,0.0076
3693.00,0.0076
3692.00,0.0076
3691.00,0.0075
3690.00,0.0075
3689.00,0.0075
3688.00,0.0075
3687.00,0.0075
3686.00,0.0076
3685.00,0.0076
3684.00,0.0076
3683.00,0.0077
3682.00,0.0077
3681.00,0.0077
3680.00,0.0077
3679.00,0.0078
3678.00,0.0078
3677.00,0.0078
3676.00,0.0078
3675.00,0.0078
3674.00,0.0077
3673.00,0.0077
3672.00,0.0077
3671.00,0.0077
3670.00,0.0077
3669.00,0.0077
3668.00,0.0077
3667.00,0.0077
3666.00,0.0078
3665.00,0.0078
3664.00,0.0078
3663.00,0.0078
3662.00,0.0078
3661.00,0.0078
3660.00,0.0079
3659.00,0.0079
3658.00,0.0079
3657.00,0.0079
3656.00,0.0079
3655.00,0.0079
3654.00,0.0079
3653.00,0.0079
3652.00,0.0079
3651.00,0.0080
3650.00,0.0080
3649.00,0.0081
3648.00,0.0081
3647.00,0.0080
3646.00,0.0080
3645.00,0.0080
3644.00,0.0081
3643.00,0.0081
3642.00,0.0081
3641.00,0.0081
3640.00,0.0082
3639.00,0.0082
3638.00,0.0081
3637.00,0.0081
3636.00,0.0082
3635.00,0.0082
3634.00,0.0083
3633.00,0.0083
3632.00,0.0083
3631.00,0.0084
3630.00,0.0084
3629.00,0.0084
3628.00,0.0084
3627.00,0.0084
3626.00,0.0084
3625.00,0.0085
3624.00,0.0085
3623.00,0.0086
3622.00,0.0086
3621.00,0.0086
3620.00,0.0087
3619.00,0.0087
3618.00,0.0087
3617.00,0.0088
3616.00,0.0088
3615.00,0.0088
3614.00,0.0089
3613.00,0.0089
3612.00,0.0090
3611.00,0.0090
3610.00,0.0090
3609.00,0.0091
3608.00,0.0091
3607.00,0.0091
3606.00,0.0091
3605.00,0.0091
3604.00,0.0091
3603.00,0.0091
3602.00,0.0091
3601.00,0.0092
3600.00,0.0092
3599.00,0.0092
3598.00,0.0092
3597.00,0.0093
3596.00,0.0093
3595.00,0.0093
3594.00,0.0094
3593.00,0.0094
3592.00,0.0094
3591.00,0.0095
3590.00,0.0095
3589.00,0.0096
3588.00,0.0096
3587.00,0.0096
3586.00,0.0096
3585.00,0.0097
3584.00,0.0097
3583.00,0.0097
3582.00,0.0098
3581.00,0.0098
3580.00,0.0099
3579.00,0.0100
3578.00,0.0100
3577.00,0.0101
3576.00,0.0101
3575.00,0.0101
3574.00,0.0101
3573.00,0.0102
3572.00,0.0103
3571.00,0.0103
3570.00,0.0104
3569.00,0.0105
3568.00,0.0105
3567.00,0.0106
3566.00,0.0106
3565.00,0.0107
3564.00,0.0107
3563.00,0.0108
3562.00,0.0108
3561.00,0.0109
3560.00,0.0110
3559.00,0.0110
3558.00,0.0111
3557.00,0.0111
3556.00,0.0112
3555.00,0.0112
3554.00,0.0112
3553.00,0.0113
3552.00,0.0114
3551.00,0.0114
3550.00,0.0115
3549.00,0.0116
3548.00,0.0116
3547.00,0.0117
3546.00,0.0117
3545.00,0.0118
3544.00,0.0119
3543.00,0.0120
3542.00,0.0121
3541.00,0.0121
3540.00,0.0122
3539.00,0.0123
3538.00,0.0124
3537.00,0.0124
3536.00,0.0125
3535.00,0.0126
3534.00,0.0127
3533.00,0.0128
3532.00,0.0128
3531.00,0.0129
3530.00,0.0130
3529.00,0.0131
3528.00,0.0132
3527.00,0.0133
3526.00,0.0134
3525.00,0.0135
3524.00,0.0136
3523.00,0.0137
3522.00,0.0138
3521.00,0.0139
3520.00,0.0140
3519.00,0.0141
3518.00,0.0142
3517.00,0.0142
3516.00,0.0143
3515.00,0.0144
3514.00,0.0146
3513.00,0.0147
3512.00,0.0148
3511.00,0.0150
3510.00,0.0151
3509.00,0.0152
3508.00,0.0153
3507.00,0.0155
3506.00,0.0156
3505.00,0.0157
3504.00,0.0158
3503.00,0.0160
3502.00,0.0161
3501.00,0.0163
3500.00,0.0164
3499.00,0.0166
3498.00,0.0167
3497.00,0.0169
3496.00,0.0170
3495.00,0.0172
3494.00,0.0173
3493.00,0.0175
3492.00,0.0176
3491.00,0.0178
3490.00,0.0180
3489.00,0.0182
3488.00,0.0183
3487.00,0.0185
3486.00,0.0187
3485.00,0.0188
3484.00,0.0190
3483.00,0.0192
3482.00,0.0194
3481.00,0.0195
3480.00,0.0197
3479.00,0.0199
3478.00,0.0201
3477.00,0.0203
3476.00,0.0205
3475.00,0.0207
3474.00,0.0209
3473.00,0.0211
3472.00,0.0213
3471.00,0.0215
3470.00,0.0217
3469.00,0.0219
3468.00,0.0221
3467.00,0.0223
3466.00,0.0225
3465.00,0.0227
3464.00,0.0229
3463.00,0.0231
3462.00,0.0234
3461.00,0.0236
3460.00,0.0237
3459.00,0.0239
3458.00,0.0241
3457.00,0.0243
3456.00,0.0245
3455.00,0.0247
3454.00,0.0249
3453.00,0.0252
3452.00,0.0254
3451.00,0.0257
3450.00,0.0259
3449.00,0.0261
3448.00,0.0264
3447.00,0.0266
3446.00,0.0268
3445.00,0.0270
3444.00,0.0273
3443.00,0.0275
3442.00,0.0278
3441.00,0.0280
3440.00,0.0283
3439.00,0.0286
3438.00,0.0288
3437.00,0.0291
3436.00,0.0294
3435.00,0.0296
3434.00,0.0299
3433.00,0.0302
3432.00,0.0305
3431.00,0.0308
3430.00,0.0311
3429.00,0.0314
3428.00,0.0317
3427.00,0.0321
3426.00,0.0324
3425.00,0.0327
3424.00,0.0331
3423.00,0.0334
3422.00,0.0338
3421.00,0.0341
3420.00,0.0344
3419.00,0.0348
3418.00,0.0351
3417.00,0.0355
3416.00,0.0358
3415.00,0.0362
3414.00,0.0365
3413.00,0.0368
3412.00,0.0371
3411.00,0.0374
3410.00,0.0377
3409.00,0.0379
3408.00,0.0381
3407.00,0.0384
3406.00,0.0386
3405.00,0.0388
3404.00,0.0389
3403.00,0.0391
3402.00,0.0393
3401.00,0.0394
3400.00,0.0395
3399.00,0.0396
3398.00,0.0396
3397.00,0.0397
3396.00,0.0397
3395.00,0.0397
3394.00,0.0397
3393.00,0.0397
3392.00,0.0397
3391.00,0.0397
3390.00,0.0396
3389.00,0.0396
3388.00,0.0395
3387.00,0.0394
3386.00,0.0394
3385.00,0.0393
3384.00,0.0392
3383.00,0.0391
3382.00,0.0390
3381.00,0.0389
3380.00,0.0388
3379.00,0.0387
3378.00,0.0386
3377.00,0.0385
3376.00,0.0384
3375.00,0.0383
3374.00,0.0382
3373.00,0.0381
3372.00,0.0380
3371.00,0.0379
3370.00,0.0378
3369.00,0.0378
3368.00,0.0377
3367.00,0.0376
3366.00,0.0376
3365.00,0.0375
3364.00,0.0375
3363.00,0.0375
3362.00,0.0374
3361.00,0.0374
3360.00,0.0374
3359.00,0.0374
3358.00,0.0374
3357.00,0.0373
3356.00,0.0373
3355.00,0.0373
3354.00,0.0373
3353.00,0.0372
3352.00,0.0372
3351.00,0.0372
3350.00,0.0372
3349.00,0.0372
3348.00,0.0373
3347.00,0.0373
3346.00,0.0373
3345.00,0.0373
3344.00,0.0374
3343.00,0.0374
3342.00,0.0374
3341.00,0.0374
3340.00,0.0375
3339.00,0.0375
3338.00,0.0375
3337.00,0.0376
3336.00,0.0377
3335.00,0.0377
3334.00,0.0378
3333.00,0.0379
3332.00,0.0379
3331.00,0.0380
3330.00,0.0381
3329.00,0.0381
3328.00,0.0382
3327.00,0.0383
3326.00,0.0384
3325.00,0.0385
3324.00,0.0386
3323.00,0.0387
3322.00,0.0388
3321.00,0.0389
3320.00,0.0391
3319.00,0.0392
3318.00,0.0393
3317.00,0.0395
3316.00,0.0396
3315.00,0.0397
3314.00,0.0398
3313.00,0.0400
3312.00,0.0401
3311.00,0.0402
3310.00,0.0403
3309.00,0.0405
3308.00,0.0406
3307.00,0.0407
3306.00,0.0409
3305.00,0.0411
3304.00,0.0413
3303.00,0.0414
3302.00,0.0416
3301.00,0.0418
3300.00,0.0420
3299.00,0.0422
3298.00,0.0423
3297.00,0.0425
3296.00,0.0426
3295.00,0.0428
3294.00,0.0429
3293.00,0.0431
3292.00,0.0433
3291.00,0.0434
3290.00,0.0436
3289.00,0.0438
3288.00,0.0440
3287.00,0.0442
3286.00,0.0443
3285.00,0.0445
3284.00,0.0446
3283.00,0.0448
3282.00,0.0449
3281.00,0.0451
3280.00,0.0452
3279.00,0.0453
3278.00,0.0454
3277.00,0.0455
3276.00,0.0457
3275.00,0.0458
3274.00,0.0459
3273.00,0.0460
3272.00,0.0460
3271.00,0.0461
3270.00,0.0462
3269.00,0.0463
3268.00,0.0464
3267.00,0.0465
3266.00,0.0466
3265.00,0.0466
3264.00,0.0467
3263.00,0.0467
3262.00,0.0468
3261.00,0.0468
3260.00,0.0469
3259.00,0.0469
3258.00,0.0469
3257.00,0.0470
3256.00,0.0470
3255.00,0.0471
3254.00,0.0471
3253.00,0.0472
3252.00,0.0472
3251.00,0.0472
3250.00,0.0472
3249.00,0.0472
3248.00,0.0472
3247.00,0.0472
3246.00,0.0473
3245.00,0.0474
3244.00,0.0475
3243.00,0.0475
3242.00,0.0475
3241.00,0.0475
3240.00,0.0475
3239.00,0.0475
3238.00,0.0474
3237.00,0.0474
3236.00,0.0473
3235.00,0.0472
3234.00,0.0471
3233.00,0.0471
3232.00,0.0471
3231.00,0.0472
3230.00,0.0472
3229.00,0.0473
3228.00,0.0472
3227.00,0.0472
3226.00,0.0472
3225.00,0.0471
3224.00,0.0470
3223.00,0.0470
3222.00,0.0469
3221.00,0.0468
3220.00,0.0467
3219.00,0.0466
3218.00,0.0465
3217.00,0.0464
3216.00,0.0464
3215.00,0.0463
3214.00,0.0462
3213.00,0.0460
3212.00,0.0459
3211.00,0.0458
3210.00,0.0456
3209.00,0.0455
3208.00,0.0453
3207.00,0.0451
3206.00,0.0450
3205.00,0.0448
3204.00,0.0447
3203.00,0.0445
3202.00,0.0443
3201.00,0.0441
3200.00,0.0440
3199.00,0.0438
3198.00,0.0436
3197.00,0.0434
3196.00,0.0432
3195.00,0.0430
3194.00,0.0428
3193.00,0.0426
3192.00,0.0424
3191.00,0.0422
3190.00,0.0419
3189.00,0.0417
3188.00,0.0414
3187.00,0.0412
3186.00,0.0410
3185.00,0.0408
3184.00,0.0405
3183.00,0.0403
3182.00,0.0400
3181.00,0.0398
3180.00,0.0396
3179.00,0.0394
3178.00,0.0391
3177.00,0.0389
3176.00,0.0386
3175.00,0.0384
3174.00,0.0381
3173.00,0.0379
3172.00,0.0376
3171.00,0.0374
3170.00,0.0371
3169.00,0.0369
3168.00,0.0366
3167.00,0.0364
3166.00,0.0361
3165.00,0.0359
3164.00,0.0356
3163.00,0.0354
3162.00,0.0351
3161.00,0.0349
3160.00,0.0346
3159.00,0.0344
3158.00,0.0341
3157.00,0.0339
3156.00,0.0336
3155.00,0.0333
3154.00,0.0331
3153.00,0.0328
3152.00,0.0326
3151.00,0.0324
3150.00,0.0322
3149.00,0.0320
3148.00,0.0318
3147.00,0.0316
3146.00,0.0314
3145.00,0.0312
3144.00,0.0310
3143.00,0.0308
3142.00,0.0306
3141.00,0.0303
3140.00,0.0301
3139.00,0.0299
3138.00,0.0298
3137.00,0.0296
3136.00,0.0295
3135.00,0.0294
3134.00,0.0292
3133.00,0.0291
3132.00,0.0289
3131.00,0.0288
3130.00,0.0286
3129.00,0.0284
3128.00,0.0283
3127.00,0.0282
3126.00,0.0281
3125.00,0.0280
3124.00,0.0278
3123.00,0.0277
3122.00,0.0275
3121.00,0.0274
3120.00,0.0273
3119.00,0.0272
3118.00,0.0271
3117.00,0.0269
3116.00,0.0268
3115.00,0.0267
3114.00,0.0266
3113.00,0.0265
3112.00,0.0264
3111.00,0.0262
3110.00,0.0260
3109.00,0.0259
3108.00,0.0258
3107.00,0.0257
3106.00,0.0256
3105.00,0.0255
3104.00,0.0254
3103.00,0.0253
3102.00,0.0252
3101.00,0.0251
3100.00,0.0251
3099.00,0.0251
3098.00,0.0250
3097.00,0.0250
3096.00,0.0250
3095.00,0.0250
3094.00,0.0250
3093.00,0.0250
3092.00,0.0250
3091.00,0.0250
3090.00,0.0251
3089.00,0.0251
3088.00,0.0252
3087.00,0.0252
3086.00,0.0252
3085.00,0.0251
3084.00,0.0251
3083.00,0.0251
3082.00,0.0251
3081.00,0.0250
3080.00,0.0250
3079.00,0.0250
3078.00,0.0250
3077.00,0.0250
3076.00,0.0249
3075.00,0.0249
3074.00,0.0249
3073.00,0.0248
3072.00,0.0248
3071.00,0.0247
3070.00,0.0246
3069.00,0.0246
3068.00,0.0245
3067.00,0.0245
3066.00,0.0244
3065.00,0.0244
3064.00,0.0244
3063.00,0.0244
3062.00,0.0244
3061.00,0.0244
3060.00,0.0244
3059.00,0.0244
3058.00,0.0244
3057.00,0.0244
3056.00,0.0244
3055.00,0.0243
3054.00,0.0243
3053.00,0.0242
3052.00,0.0241
3051.00,0.0241
3050.00,0.0240
3049.00,0.0239
3048.00,0.0238
3047.00,0.0237
3046.00,0.0236
3045.00,0.0235
3044.00,0.0234
3043.00,0.0234
3042.00,0.0234
3041.00,0.0235
3040.00,0.0235
3039.00,0.0236
3038.00,0.0237
3037.00,0.0238
3036.00,0.0239
3035.00,0.0240
3034.00,0.0240
3033.00,0.0240
3032.00,0.0240
3031.00,0.0239
3030.00,0.0238
3029.00,0.0236
3028.00,0.0235
3027.00,0.0232
3026.00,0.0230
3025.00,0.0228
3024.00,0.0226
3023.00,0.0224
3022.00,0.0222
3021.00,0.0220
3020.00,0.0218
3019.00,0.0216
3018.00,0.0215
3017.00,0.0213
3016.00,0.0212
3015.00,0.0211
3014.00,0.0210
3013.00,0.0210
3012.00,0.0210
3011.00,0.0210
3010.00,0.0210
3009.00,0.0211
3008.00,0.0212
3007.00,0.0213
3006.00,0.0215
3005.00,0.0216
3004.00,0.0218
3003.00,0.0220
3002.00,0.0223
3001.00,0.0225
3000.00,0.0229
2999.00,0.0233
2998.00,0.0238
2997.00,0.0243
2996.00,0.0249
2995.00,0.0254
2994.00,0.0259
2993.00,0.0263
2992.00,0.0268
2991.00,0.0271
2990.00,0.0275
2989.00,0.0278
2988.00,0.0283
2987.00,0.0287
2986.00,0.0293
2985.00,0.0299
2984.00,0.0307
2983.00,0.0317
2982.00,0.0328
2981.00,0.0340
2980.00,0.0352
2979.00,0.0361
2978.00,0.0368
2977.00,0.0373
2976.00,0.0377
2975.00,0.0383
2974.00,0.0393
2973.00,0.0406
2972.00,0.0421
2971.00,0.0435
2970.00,0.0448
2969.00,0.0457
2968.00,0.0464
2967.00,0.0469
2966.00,0.0475
2965.00,0.0481
2964.00,0.0488
2963.00,0.0495
2962.00,0.0502
2961.00,0.0507
2960.00,0.0509
2959.00,0.0508
2958.00,0.0502
2957.00,0.0492
2956.00,0.0479
2955.00,0.0465
2954.00,0.0451
2953.00,0.0438
2952.00,0.0426
2951.00,0.0416
2950.00,0.0409
2949.00,0.0405
2948.00,0.0403
2947.00,0.0405
2946.00,0.0409
2945.00,0.0415
2944.00,0.0423
2943.00,0.0432
2942.00,0.0443
2941.00,0.0456
2940.00,0.0470
2939.00,0.0485
2938.00,0.0504
2937.00,0.0525
2936.00,0.0548
2935.00,0.0574
2934.00,0.0601
2933.00,0.0629
2932.00,0.0656
2931.00,0.0682
2930.00,0.0706
2929.00,0.0726
2928.00,0.0740
2927.00,0.0748
2926.00,0.0749
2925.00,0.0745
2924.00,0.0735
2923.00,0.0721
2922.00,0.0704
2921.00,0.0685
2920.00,0.0666
2919.00,0.0645
2918.00,0.0625
2917.00,0.0604
2916.00,0.0585
2915.00,0.0566
2914.00,0.0549
2913.00,0.0534
2912.00,0.0520
2911.00,0.0507
2910.00,0.0494
2909.00,0.0483
2908.00,0.0472
2907.00,0.0462
2906.00,0.0452
2905.00,0.0443
2904.00,0.0434
2903.00,0.0425
2902.00,0.0416
2901.00,0.0408
2900.00,0.0400
2899.00,0.0393
2898.00,0.0385
2897.00,0.0378
2896.00,0.0372
2895.00,0.0366
2894.00,0.0361
2893.00,0.0356
2892.00,0.0352
2891.00,0.0347
2890.00,0.0343
2889.00,0.0339
2888.00,0.0336
2887.00,0.0333
2886.00,0.0330
2885.00,0.0328
2884.00,0.0327
2883.00,0.0326
2882.00,0.0327
2881.00,0.0330
2880.00,0.0334
2879.00,0.0340
2878.00,0.0348
2877.00,0.0356
2876.00,0.0366
2875.00,0.0375
2874.00,0.0383
2873.00,0.0389
2872.00,0.0392
2871.00,0.0393
2870.00,0.0391
2869.00,0.0389
2868.00,0.0386
2867.00,0.0386
2866.00,0.0387
2865.00,0.0393
2864.00,0.0402
2863.00,0.0416
2862.00,0.0433
2861.00,0.0454
2860.00,0.0476
2859.00,0.0497
2858.00,0.0515
2857.00,0.0529
2856.00,0.0538
2855.00,0.0541
2854.00,0.0540
2853.00,0.0536
2852.00,0.0527
2851.00,0.0514
2850.00,0.0496
2849.00,0.0475
2848.00,0.0452
2847.00,0.0428
2846.00,0.0405
2845.00,0.0384
2844.00,0.0365
2843.00,0.0347
2842.00,0.0332
2841.00,0.0318
2840.00,0.0305
2839.00,0.0295
2838.00,0.0286
2837.00,0.0278
2836.00,0.0271
2835.00,0.0265
2834.00,0.0260
2833.00,0.0255
2832.00,0.0251
2831.00,0.0247
2830.00,0.0243
2829.00,0.0240
2828.00,0.0236
2827.00,0.0233
2826.00,0.0230
2825.00,0.0228
2824.00,0.0225
2823.00,0.0223
2822.00,0.0221
2821.00,0.0219
2820.00,0.0217
2819.00,0.0215
2818.00,0.0213
2817.00,0.0212
2816.00,0.0210
2815.00,0.0209
2814.00,0.0208
2813.00,0.0206
2812.00,0.0205
2811.00,0.0203
2810.00,0.0202
2809.00,0.0201
2808.00,0.0201
2807.00,0.0200
2806.00,0.0199
2805.00,0.0198
2804.00,0.0197
2803.00,0.0196
2802.00,0.0195
2801.00,0.0194
2800.00,0.0193
2799.00,0.0192
2798.00,0.0191
2797.00,0.0190
2796.00,0.0189
2795.00,0.0188
2794.00,0.0187
2793.00,0.0186
2792.00,0.0185
2791.00,0.0184
2790.00,0.0183
2789.00,0.0183
2788.00,0.0182
2787.00,0.0182
2786.00,0.0181
2785.00,0.0180
2784.00,0.0179
2783.00,0.0178
2782.00,0.0178
2781.00,0.0177
2780.00,0.0176
2779.00,0.0176
2778.00,0.0175
2777.00,0.0174
2776.00,0.0174
2775.00,0.0173
2774.00,0.0173
2773.00,0.0172
2772.00,0.0172
2771.00,0.0172
2770.00,0.0172
2769.00,0.0171
2768.00,0.0171
2767.00,0.0171
2766.00,0.0170
2765.00,0.0170
2764.00,0.0170
2763.00,0.0169
2762.00,0.0169
2761.00,0.0169
2760.00,0.0169
2759.00,0.0169
2758.00,0.0168
2757.00,0.0168
2756.00,0.0168
2755.00,0.0168
2754.00,0.0168
2753.00,0.0168
2752.00,0.0168
2751.00,0.0168
2750.00,0.0168
2749.00,0.0168
2748.00,0.0168
2747.00,0.0168
2746.00,0.0168
2745.00,0.0168
2744.00,0.0168
2743.00,0.0168
2742.00,0.0168
2741.00,0.0168
2740.00,0.0169
2739.00,0.0169
2738.00,0.0169
2737.00,0.0170
2736.00,0.0171
2735.00,0.0171
2734.00,0.0172
2733.00,0.0173
2732.00,0.0173
2731.00,0.0173
2730.00,0.0173
2729.00,0.0173
2728.00,0.0173
2727.00,0.0172
2726.00,0.0172
2725.00,0.0171
2724.00,0.0170
2723.00,0.0169
2722.00,0.0169
2721.00,0.0168
2720.00,0.0167
2719.00,0.0167
2718.00,0.0166
2717.00,0.0165
2716.00,0.0165
2715.00,0.0164
2714.00,0.0163
2713.00,0.0163
2712.00,0.0163
2711.00,0.0163
2710.00,0.0163
2709.00,0.0163
2708.00,0.0162
2707.00,0.0162
2706.00,0.0162
2705.00,0.0161
2704.00,0.0161
2703.00,0.0161
2702.00,0.0160
2701.00,0.0160
2700.00,0.0160
2699.00,0.0160
2698.00,0.0159
2697.00,0.0159
2696.00,0.0159
2695.00,0.0158
2694.00,0.0158
2693.00,0.0157
2692.00,0.0157
2691.00,0.0156
2690.00,0.0156
2689.00,0.0155
2688.00,0.0155
2687.00,0.0154
2686.00,0.0154
2685.00,0.0154
2684.00,0.0153
2683.00,0.0153
2682.00,0.0153
2681.00,0.0153
2680.00,0.0152
2679.00,0.0152
2678.00,0.0152
2677.00,0.0152
2676.00,0.0152
2675.00,0.0152
2674.00,0.0152
2673.00,0.0152
2672.00,0.0152
2671.00,0.0152
2670.00,0.0153
2669.00,0.0153
2668.00,0.0153
2667.00,0.0154
2666.00,0.0154
2665.00,0.0155
2664.00,0.0156
2663.00,0.0156
2662.00,0.0157
2661.00,0.0157
2660.00,0.0157
2659.00,0.0157
2658.00,0.0157
2657.00,0.0157
2656.00,0.0157
2655.00,0.0157
2654.00,0.0157
2653.00,0.0157
2652.00,0.0157
2651.00,0.0157
2650.00,0.0157
2649.00,0.0157
2648.00,0.0156
2647.00,0.0156
2646.00,0.0156
2645.00,0.0156
2644.00,0.0155
2643.00,0.0155
2642.00,0.0155
2641.00,0.0155
2640.00,0.0154
2639.00,0.0154
2638.00,0.0153
2637.00,0.0153
2636.00,0.0152
2635.00,0.0151
2634.00,0.0150
2633.00,0.0150
2632.00,0.0149
2631.00,0.0149
2630.00,0.0148
2629.00,0.0148
2628.00,0.0147
2627.00,0.0147
2626.00,0.0146
2625.00,0.0146
2624.00,0.0145
2623.00,0.0145
2622.00,0.0144
2621.00,0.0144
2620.00,0.0144
2619.00,0.0144
2618.00,0.0144
2617.00,0.0144
2616.00,0.0143
2615.00,0.0143
2614.00,0.0143
2613.00,0.0143
2612.00,0.0142
2611.00,0.0142
2610.00,0.0142
2609.00,0.0142
2608.00,0.0142
2607.00,0.0142
2606.00,0.0142
2605.00,0.0142
2604.00,0.0142
2603.00,0.0142
2602.00,0.0142
2601.00,0.0142
2600.00,0.0142
2599.00,0.0143
2598.00,0.0143
2597.00,0.0143
2596.00,0.0143
2595.00,0.0143
2594.00,0.0143
2593.00,0.0144
2592.00,0.0144
2591.00,0.0144
2590.00,0.0143
2589.00,0.0143
2588.00,0.0142
2587.00,0.0142
2586.00,0.0141
2585.00,0.0141
2584.00,0.0141
2583.00,0.0141
2582.00,0.0141
2581.00,0.0141
2580.00,0.0140
2579.00,0.0140
2578.00,0.0140
2577.00,0.0139
2576.00,0.0138
2575.00,0.0138
2574.00,0.0137
2573.00,0.0137
2572.00,0.0136
2571.00,0.0136
2570.00,0.0136
2569.00,0.0137
2568.00,0.0137
2567.00,0.0137
2566.00,0.0137
2565.00,0.0137
2564.00,0.0137
2563.00,0.0136
2562.00,0.0135
2561.00,0.0135
2560.00,0.0134
2559.00,0.0134
2558.00,0.0133
2557.00,0.0133
2556.00,0.0132
2555.00,0.0132
2554.00,0.0132
2553.00,0.0132
2552.00,0.0131
2551.00,0.0131
2550.00,0.0131
2549.00,0.0130
2548.00,0.0130
2547.00,0.0130
2546.00,0.0130
2545.00,0.0129
2544.00,0.0129
2543.00,0.0129
2542.00,0.0129
2541.00,0.0129
2540.00,0.0129
2539.00,0.0130
2538.00,0.0130
2537.00,0.0129
2536.00,0.0129
2535.00,0.0129
2534.00,0.0129
2533.00,0.0129
2532.00,0.0130
2531.00,0.0129
2530.00,0.0129
2529.00,0.0129
2528.00,0.0128
2527.00,0.0128
2526.00,0.0128
2525.00,0.0127
2524.00,0.0127
2523.00,0.0127
2522.00,0.0127
2521.00,0.0127
2520.00,0.0127
2519.00,0.0126
2518.00,0.0126
2517.00,0.0126
2516.00,0.0125
2515.00,0.0125
2514.00,0.0124
2513.00,0.0124
2512.00,0.0124
2511.00,0.0123
2510.00,0.0123
2509.00,0.0123
2508.00,0.0122
2507.00,0.0122
2506.00,0.0122
2505.00,0.0122
2504.00,0.0122
2503.00,0.0122
2502.00,0.0121
2501.00,0.0121
2500.00,0.0121
2499.00,0.0120
2498.00,0.0120
2497.00,0.0120
2496.00,0.0120
2495.00,0.0120
2494.00,0.0120
2493.00,0.0120
2492.00,0.0120
2491.00,0.0119
2490.00,0.0119
2489.00,0.0119
2488.00,0.0118
2487.00,0.0118
2486.00,0.0118
2485.00,0.0118
2484.00,0.0118
2483.00,0.0118
2482.00,0.0118
2481.00,0.0118
2480.00,0.0117
2479.00,0.0117
2478.00,0.0116
2477.00,0.0116
2476.00,0.0116
2475.00,0.0116
2474.00,0.0116
2473.00,0.0116
2472.00,0.0116
2471.00,0.0116
2470.00,0.0116
2469.00,0.0115
2468.00,0.0115
2467.00,0.0115
2466.00,0.0114
2465.00,0.0114
2464.00,0.0114
2463.00,0.0114
2462.00,0.0114
2461.00,0.0114
2460.00,0.0114
2459.00,0.0114
2458.00,0.0115
2457.00,0.0115
2456.00,0.0115
2455.00,0.0115
2454.00,0.0115
2453.00,0.0115
2452.00,0.0115
2451.00,0.0115
2450.00,0.0115
2449.00,0.0114
2448.00,0.0114
2447.00,0.0114
2446.00,0.0113
2445.00,0.0113
2444.00,0.0113
2443.00,0.0112
2442.00,0.0112
2441.00,0.0111
2440.00,0.0111
2439.00,0.0110
2438.00,0.0110
2437.00,0.0110
2436.00,0.0110
2435.00,0.0110
2434.00,0.0110
2433.00,0.0110
2432.00,0.0110
2431.00,0.0110
2430.00,0.0110
2429.00,0.0110
2428.00,0.0109
2427.00,0.0109
2426.00,0.0108
2425.00,0.0108
2424.00,0.0108
2423.00,0.0108
2422.00,0.0107
2421.00,0.0107
2420.00,0.0107
2419.00,0.0107
2418.00,0.0107
2417.00,0.0107
2416.00,0.0107
2415.00,0.0107
2414.00,0.0107
2413.00,0.0108
2412.00,0.0108
2411.00,0.0108
2410.00,0.0108
2409.00,0.0107
2408.00,0.0107
2407.00,0.0106
2406.00,0.0106
2405.00,0.0106
2404.00,0.0106
2403.00,0.0106
2402.00,0.0106
2401.00,0.0105
2400.00,0.0105
2399.00,0.0105
2398.00,0.0105
2397.00,0.0105
2396.00,0.0105
2395.00,0.0105
2394.00,0.0104
2393.00,0.0104
2392.00,0.0104
2391.00,0.0104
2390.00,0.0103
2389.00,0.0103
2388.00,0.0103
2387.00,0.0103
2386.00,0.0103
2385.00,0.0103
2384.00,0.0102
2383.00,0.0102
2382.00,0.0101
2381.00,0.0101
2380.00,0.0100
2379.00,0.0100
2378.00,0.0099
2377.00,0.0099
2376.00,0.0099
2375.00,0.0100
2374.00,0.0100
2373.00,0.0100
2372.00,0.0100
2371.00,0.0100
2370.00,0.0100
2369.00,0.0099
2368.00,0.0099
2367.00,0.0099
2366.00,0.0099
2365.00,0.0099
2364.00,0.0099
2363.00,0.0099
2362.00,0.0100
2361.00,0.0100
2360.00,0.0100
2359.00,0.0100
2358.00,0.0100
2357.00,0.0100
2356.00,0.0101
2355.00,0.0101
2354.00,0.0101
2353.00,0.0101
2352.00,0.0101
2351.00,0.0100
2350.00,0.0100
2349.00,0.0101
2348.00,0.0101
2347.00,0.0101
2346.00,0.0101
2345.00,0.0101
2344.00,0.0101
2343.00,0.0101
2342.00,0.0101
2341.00,0.0102
2340.00,0.0103
2339.00,0.0103
2338.00,0.0104
2337.00,0.0103
2336.00,0.0103
2335.00,0.0103
2334.00,0.0103
2333.00,0.0103
2332.00,0.0102
2331.00,0.0102
2330.00,0.0103
2329.00,0.0105
2328.00,0.0108
2327.00,0.0112
2326.00,0.0115
2325.00,0.0117
2324.00,0.0116
2323.00,0.0114
2322.00,0.0111
2321.00,0.0109
2320.00,0.0108
2319.00,0.0107
2318.00,0.0107
2317.00,0.0106
2316.00,0.0106
2315.00,0.0105
2314.00,0.0105
2313.00,0.0104
2312.00,0.0104
2311.00,0.0103
2310.00,0.0103
2309.00,0.0102
2308.00,0.0102
2307.00,0.0102
2306.00,0.0103
2305.00,0.0103
2304.00,0.0103
2303.00,0.0104
2302.00,0.0104
2301.00,0.0103
2300.00,0.0103
2299.00,0.0104
2298.00,0.0104
2297.00,0.0105
2296.00,0.0106
2295.00,0.0107
2294.00,0.0108
2293.00,0.0109
2292.00,0.0110
2291.00,0.0110
2290.00,0.0111
2289.00,0.0112
2288.00,0.0112
2287.00,0.0112
2286.00,0.0111
2285.00,0.0111
2284.00,0.0110
2283.00,0.0109
2282.00,0.0108
2281.00,0.0106
2280.00,0.0105
2279.00,0.0105
2278.00,0.0104
2277.00,0.0104
2276.00,0.0105
2275.00,0.0104
2274.00,0.0104
2273.00,0.0103
2272.00,0.0102
2271.00,0.0102
2270.00,0.0101
2269.00,0.0100
2268.00,0.0099
2267.00,0.0098
2266.00,0.0097
2265.00,0.0098
2264.00,0.0098
2263.00,0.0098
2262.00,0.0098
2261.00,0.0098
2260.00,0.0098
2259.00,0.0098
2258.00,0.0097
2257.00,0.0096
2256.00,0.0095
2255.00,0.0094
2254.00,0.0094
2253.00,0.0095
2252.00,0.0095
2251.00,0.0095
2250.00,0.0096
2249.00,0.0096
2248.00,0.0097
2247.00,0.0097
2246.00,0.0097
2245.00,0.0097
2244.00,0.0097
2243.00,0.0097
2242.00,0.0097
2241.00,0.0098
2240.00,0.0099
2239.00,0.0099
2238.00,0.0099
2237.00,0.0098
2236.00,0.0098
2235.00,0.0098
2234.00,0.0097
2233.00,0.0097
2232.00,0.0096
2231.00,0.0095
2230.00,0.0095
2229.00,0.0096
2228.00,0.0096
2227.00,0.0096
2226.00,0.0095
2225.00,0.0096
2224.00,0.0096
2223.00,0.0097
2222.00,0.0097
2221.00,0.0097
2220.00,0.0097
2219.00,0.0097
2218.00,0.0096
2217.00,0.0096
2216.00,0.0095
2215.00,0.0094
2214.00,0.0094
2213.00,0.0095
2212.00,0.0095
2211.00,0.0096
2210.00,0.0097
2209.00,0.0098
2208.00,0.0098
2207.00,0.0098
2206.00,0.0098
2205.00,0.0098
2204.00,0.0097
2203.00,0.0096
2202.00,0.0096
2201.00,0.0095
2200.00,0.0094
2199.00,0.0093
2198.00,0.0092
2197.00,0.0092
2196.00,0.0093
2195.00,0.0094
2194.00,0.0094
2193.00,0.0095
2192.00,0.0095
2191.00,0.0095
2190.00,0.0094
2189.00,0.0094
2188.00,0.0095
2187.00,0.0097
2186.00,0.0097
2185.00,0.0096
2184.00,0.0094
2183.00,0.0091
2182.00,0.0088
2181.00,0.0089
2180.00,0.0091
2179.00,0.0093
2178.00,0.0093
2177.00,0.0091
2176.00,0.0088
2175.00,0.0088
2174.00,0.0088
2173.00,0.0091
2172.00,0.0094
2171.00,0.0096
2170.00,0.0098
2169.00,0.0099
2168.00,0.0100
2167.00,0.0101
2166.00,0.0100
2165.00,0.0100
2164.00,0.0101
2163.00,0.0099
2162.00,0.0093
2161.00,0.0082
2160.00,0.0069
2159.00,0.0059
2158.00,0.0055
2157.00,0.0057
2156.00,0.0062
2155.00,0.0066
2154.00,0.0069
2153.00,0.0071
2152.00,0.0072
2151.00,0.0072
2150.00,0.0071
2149.00,0.0071
2148.00,0.0070
2147.00,0.0070
2146.00,0.0070
2145.00,0.0070
2144.00,0.0070
2143.00,0.0070
2142.00,0.0071
2141.00,0.0072
2140.00,0.0073
2139.00,0.0073
2138.00,0.0072
2137.00,0.0069
2136.00,0.0066
2135.00,0.0064
2134.00,0.0064
2133.00,0.0066
2132.00,0.0069
2131.00,0.0071
2130.00,0.0073
2129.00,0.0074
2128.00,0.0075
2127.00,0.0076
2126.00,0.0077
2125.00,0.0078
2124.00,0.0079
2123.00,0.0080
2122.00,0.0082
2121.00,0.0083
2120.00,0.0084
2119.00,0.0085
2118.00,0.0086
2117.00,0.0087
2116.00,0.0087
2115.00,0.0087
2114.00,0.0086
2113.00,0.0085
2112.00,0.0085
2111.00,0.0085
2110.00,0.0085
2109.00,0.0085
2108.00,0.0085
2107.00,0.0085
2106.00,0.0085
2105.00,0.0085
2104.00,0.0085
2103.00,0.0085
2102.00,0.0085
2101.00,0.0085
2100.00,0.0085
2099.00,0.0085
2098.00,0.0083
2097.00,0.0081
2096.00,0.0079
2095.00,0.0078
2094.00,0.0078
2093.00,0.0080
2092.00,0.0081
2091.00,0.0083
2090.00,0.0084
2089.00,0.0085
2088.00,0.0085
2087.00,0.0085
2086.00,0.0085
2085.00,0.0086
2084.00,0.0086
2083.00,0.0087
2082.00,0.0088
2081.00,0.0088
2080.00,0.0087
2079.00,0.0087
2078.00,0.0087
2077.00,0.0087
2076.00,0.0087
2075.00,0.0086
2074.00,0.0085
2073.00,0.0085
2072.00,0.0085
2071.00,0.0085
2070.00,0.0085
2069.00,0.0084
2068.00,0.0083
2067.00,0.0082
2066.00,0.0081
2065.00,0.0081
2064.00,0.0082
2063.00,0.0082
2062.00,0.0081
2061.00,0.0081
2060.00,0.0080
2059.00,0.0080
2058.00,0.0080
2057.00,0.0079
2056.00,0.0079
2055.00,0.0079
2054.00,0.0080
2053.00,0.0084
2052.00,0.0086
2051.00,0.0086
2050.00,0.0084
2049.00,0.0081
2048.00,0.0079
2047.00,0.0078
2046.00,0.0078
2045.00,0.0078
2044.00,0.0078
2043.00,0.0079
2042.00,0.0079
2041.00,0.0080
2040.00,0.0081
2039.00,0.0081
2038.00,0.0080
2037.00,0.0078
2036.00,0.0077
2035.00,0.0076
2034.00,0.0074
2033.00,0.0074
2032.00,0.0075
2031.00,0.0075
2030.00,0.0073
2029.00,0.0070
2028.00,0.0069
2027.00,0.0068
2026.00,0.0069
2025.00,0.0071
2024.00,0.0074
2023.00,0.0075
2022.00,0.0075
2021.00,0.0075
2020.00,0.0075
2019.00,0.0074
2018.00,0.0073
2017.00,0.0073
2016.00,0.0073
2015.00,0.0073
2014.00,0.0072
2013.00,0.0071
2012.00,0.0071
2011.00,0.0070
2010.00,0.0069
2009.00,0.0067
2008.00,0.0066
2007.00,0.0064
2006.00,0.0062
2005.00,0.0063
2004.00,0.0065
2003.00,0.0066
2002.00,0.0068
2001.00,0.0069
2000.00,0.0072
1999.00,0.0074
1998.00,0.0075
1997.00,0.0076
1996.00,0.0077
1995.00,0.0077
1994.00,0.0076
1993.00,0.0076
1992.00,0.0077
1991.00,0.0078
1990.00,0.0079
1989.00,0.0081
1988.00,0.0082
1987.00,0.0082
1986.00,0.0081
1985.00,0.0082
1984.00,0.0083
1983.00,0.0086
1982.00,0.0088
1981.00,0.0090
1980.00,0.0089
1979.00,0.0083
1978.00,0.0076
1977.00,0.0070
1976.00,0.0067
1975.00,0.0066
1974.00,0.0066
1973.00,0.0067
1972.00,0.0068
1971.00,0.0068
1970.00,0.0067
1969.00,0.0068
1968.00,0.0069
1967.00,0.0070
1966.00,0.0071
1965.00,0.0071
1964.00,0.0071
1963.00,0.0069
1962.00,0.0066
1961.00,0.0064
1960.00,0.0063
1959.00,0.0064
1958.00,0.0066
1957.00,0.0069
1956.00,0.0071
1955.00,0.0072
1954.00,0.0071
1953.00,0.0071
1952.00,0.0071
1951.00,0.0071
1950.00,0.0071
1949.00,0.0071
1948.00,0.0071
1947.00,0.0071
1946.00,0.0070
1945.00,0.0070
1944.00,0.0071
1943.00,0.0071
1942.00,0.0071
1941.00,0.0071
1940.00,0.0072
1939.00,0.0073
1938.00,0.0073
1937.00,0.0073
1936.00,0.0073
1935.00,0.0073
1934.00,0.0074
1933.00,0.0074
1932.00,0.0075
1931.00,0.0075
1930.00,0.0074
1929.00,0.0074
1928.00,0.0075
1927.00,0.0076
1926.00,0.0076
1925.00,0.0077
1924.00,0.0078
1923.00,0.0079
1922.00,0.0079
1921.00,0.0079
1920.00,0.0079
1919.00,0.0078
1918.00,0.0078
1917.00,0.0078
1916.00,0.0078
1915.00,0.0079
1914.00,0.0080
1913.00,0.0083
1912.00,0.0086
1911.00,0.0091
1910.00,0.0094
1909.00,0.0097
1908.00,0.0098
1907.00,0.0097
1906.00,0.0094
1905.00,0.0091
1904.00,0.0089
1903.00,0.0087
1902.00,0.0085
1901.00,0.0084
1900.00,0.0083
1899.00,0.0083
1898.00,0.0083
1897.00,0.0084
1896.00,0.0086
1895.00,0.0088
1894.00,0.0090
1893.00,0.0090
1892.00,0.0089
1891.00,0.0087
1890.00,0.0085
1889.00,0.0083
1888.00,0.0081
1887.00,0.0081
1886.00,0.0081
1885.00,0.0081
1884.00,0.0082
1883.00,0.0082
1882.00,0.0082
1881.00,0.0082
1880.00,0.0082
1879.00,0.0082
1878.00,0.0082
1877.00,0.0082
1876.00,0.0081
1875.00,0.0081
1874.00,0.0081
1873.00,0.0081
1872.00,0.0081
1871.00,0.0081
1870.00,0.0081
1869.00,0.0081
1868.00,0.0081
1867.00,0.0081
1866.00,0.0081
1865.00,0.0081
1864.00,0.0082
1863.00,0.0082
1862.00,0.0082
1861.00,0.0082
1860.00,0.0083
1859.00,0.0083
1858.00,0.0082
1857.00,0.0082
1856.00,0.0083
1855.00,0.0083
1854.00,0.0083
1853.00,0.0083
1852.00,0.0083
1851.00,0.0084
1850.00,0.0085
1849.00,0.0086
1848.00,0.0087
1847.00,0.0087
1846.00,0.0087
1845.00,0.0086
1844.00,0.0085
1843.00,0.0084
1842.00,0.0084
1841.00,0.0084
1840.00,0.0084
1839.00,0.0084
1838.00,0.0083
1837.00,0.0082
1836.00,0.0082
1835.00,0.0082
1834.00,0.0082
1833.00,0.0082
1832.00,0.0082
1831.00,0.0082
1830.00,0.0081
1829.00,0.0081
1828.00,0.0081
1827.00,0.0081
1826.00,0.0081
1825.00,0.0081
1824.00,0.0081
1823.00,0.0082
1822.00,0.0082
1821.00,0.0082
1820.00,0.0082
1819.00,0.0081
1818.00,0.0080
1817.00,0.0080
1816.00,0.0080
1815.00,0.0081
1814.00,0.0081
1813.00,0.0082
1812.00,0.0083
1811.00,0.0083
1810.00,0.0083
1809.00,0.0084
1808.00,0.0084
1807.00,0.0084
1806.00,0.0084
1805.00,0.0084
1804.00,0.0084
1803.00,0.0084
1802.00,0.0084
1801.00,0.0085
1800.00,0.0086
1799.00,0.0087
1798.00,0.0087
1797.00,0.0088
1796.00,0.0089
1795.00,0.0089
1794.00,0.0089
1793.00,0.0088
1792.00,0.0087
1791.00,0.0087
1790.00,0.0087
1789.00,0.0087
1788.00,0.0088
1787.00,0.0088
1786.00,0.0087
1785.00,0.0087
1784.00,0.0087
1783.00,0.0087
1782.00,0.0088
1781.00,0.0088
1780.00,0.0089
1779.00,0.0090
1778.00,0.0090
1777.00,0.0092
1776.00,0.0093
1775.00,0.0094
1774.00,0.0094
1773.00,0.0094
1772.00,0.0094
1771.00,0.0094
1770.00,0.0092
1769.00,0.0091
1768.00,0.0091
1767.00,0.0090
1766.00,0.0091
1765.00,0.0092
1764.00,0.0092
1763.00,0.0093
1762.00,0.0093
1761.00,0.0094
1760.00,0.0096
1759.00,0.0097
1758.00,0.0096
1757.00,0.0095
1756.00,0.0095
1755.00,0.0094
1754.00,0.0094
1753.00,0.0094
1752.00,0.0094
1751.00,0.0094
1750.00,0.0094
1749.00,0.0095
1748.00,0.0097
1747.00,0.0098
1746.00,0.0098
1745.00,0.0099
1744.00,0.0100
1743.00,0.0100
1742.00,0.0100
1741.00,0.0100
1740.00,0.0101
1739.00,0.0102
1738.00,0.0103
1737.00,0.0103
1736.00,0.0102
1735.00,0.0101
1734.00,0.0101
1733.00,0.0103
1732.00,0.0107
1731.00,0.0111
1730.00,0.0114
1729.00,0.0116
1728.00,0.0119
1727.00,0.0121
1726.00,0.0124
1725.00,0.0126
1724.00,0.0130
1723.00,0.0132
1722.00,0.0134
1721.00,0.0136
1720.00,0.0137
1719.00,0.0139
1718.00,0.0142
1717.00,0.0145
1716.00,0.0150
1715.00,0.0154
1714.00,0.0158
1713.00,0.0162
1712.00,0.0167
1711.00,0.0172
1710.00,0.0176
1709.00,0.0180
1708.00,0.0184
1707.00,0.0189
1706.00,0.0194
1705.00,0.0199
1704.00,0.0204
1703.00,0.0207
1702.00,0.0211
1701.00,0.0218
1700.00,0.0230
1699.00,0.0242
1698.00,0.0252
1697.00,0.0263
1696.00,0.0273
1695.00,0.0284
1694.00,0.0293
1693.00,0.0302
1692.00,0.0310
1691.00,0.0318
1690.00,0.0326
1689.00,0.0334
1688.00,0.0340
1687.00,0.0345
1686.00,0.0350
1685.00,0.0359
1684.00,0.0372
1683.00,0.0383
1682.00,0.0391
1681.00,0.0400
1680.00,0.0409
1679.00,0.0417
1678.00,0.0424
1677.00,0.0431
1676.00,0.0440
1675.00,0.0452
1674.00,0.0463
1673.00,0.0473
1672.00,0.0482
1671.00,0.0492
1670.00,0.0503
1669.00,0.0515
1668.00,0.0527
1667.00,0.0537
1666.00,0.0545
1665.00,0.0553
1664.00,0.0563
1663.00,0.0574
1662.00,0.0584
1661.00,0.0593
1660.00,0.0601
1659.00,0.0608
1658.00,0.0614
1657.00,0.0617
1656.00,0.0617
1655.00,0.0618
1654.00,0.0624
1653.00,0.0636
1652.00,0.0647
1651.00,0.0653
1650.00,0.0655
1649.00,0.0655
1648.00,0.0658
1647.00,0.0664
1646.00,0.0669
1645.00,0.0673
1644.00,0.0677
1643.00,0.0682
1642.00,0.0685
1641.00,0.0689
1640.00,0.0693
1639.00,0.0695
1638.00,0.0697
1637.00,0.0701
1636.00,0.0713
1635.00,0.0729
1634.00,0.0746
1633.00,0.0765
1632.00,0.0789
1631.00,0.0821
1630.00,0.0862
1629.00,0.0916
1628.00,0.0981
1627.00,0.1047
1626.00,0.1107
1625.00,0.1162
1624.00,0.1213
1623.00,0.1256
1622.00,0.1284
1621.00,0.1294
1620.00,0.1288
1619.00,0.1268
1618.00,0.1230
1617.00,0.1179
1616.00,0.1127
1615.00,0.1090
1614.00,0.1071
1613.00,0.1063
1612.00,0.1063
1611.00,0.1063
1610.00,0.1057
1609.00,0.1039
1608.00,0.1011
1607.00,0.0974
1606.00,0.0933
1605.00,0.0890
1604.00,0.0848
1603.00,0.0808
1602.00,0.0772
1601.00,0.0739
1600.00,0.0712
1599.00,0.0689
1598.00,0.0671
1597.00,0.0658
1596.00,0.0650
1595.00,0.0648
1594.00,0.0653
1593.00,0.0666
1592.00,0.0686
1591.00,0.0714
1590.00,0.0750
1589.00,0.0791
1588.00,0.0834
1587.00,0.0874
1586.00,0.0908
1585.00,0.0933
1584.00,0.0949
1583.00,0.0955
1582.00,0.0952
1581.00,0.0942
1580.00,0.0927
1579.00,0.0909
1578.00,0.0887
1577.00,0.0860
1576.00,0.0831
1575.00,0.0804
1574.00,0.0783
1573.00,0.0767
1572.00,0.0755
1571.00,0.0746
1570.00,0.0738
1569.00,0.0732
1568.00,0.0726
1567.00,0.0717
1566.00,0.0705
1565.00,0.0690
1564.00,0.0673
1563.00,0.0655
1562.00,0.0637
1561.00,0.0620
1560.00,0.0608
1559.00,0.0603
1558.00,0.0599
1557.00,0.0597
1556.00,0.0597
1555.00,0.0599
1554.00,0.0601
1553.00,0.0603
1552.00,0.0606
1551.00,0.0609
1550.00,0.0613
1549.00,0.0617
1548.00,0.0619
1547.00,0.0620
1546.00,0.0621
1545.00,0.0623
1544.00,0.0624
1543.00,0.0625
1542.00,0.0625
1541.00,0.0629
1540.00,0.0634
1539.00,0.0638
1538.00,0.0640
1537.00,0.0640
1536.00,0.0638
1535.00,0.0636
1534.00,0.0637
1533.00,0.0639
1532.00,0.0639
1531.00,0.0639
1530.00,0.0638
1529.00,0.0637
1528.00,0.0636
1527.00,0.0636
1526.00,0.0636
1525.00,0.0636
1524.00,0.0635
1523.00,0.0635
1522.00,0.0638
1521.00,0.0643
1520.00,0.0647
1519.00,0.0652
1518.00,0.0657
1517.00,0.0663
1516.00,0.0669
1515.00,0.0673
1514.00,0.0674
1513.00,0.0674
1512.00,0.0673
1511.00,0.0670
1510.00,0.0665
1509.00,0.0658
1508.00,0.0651
1507.00,0.0644
1506.00,0.0636
1505.00,0.0631
1504.00,0.0628
1503.00,0.0628
1502.00,0.0630
1501.00,0.0639
1500.00,0.0657
1499.00,0.0686
1498.00,0.0722
1497.00,0.0757
1496.00,0.0775
1495.00,0.0772
1494.00,0.0750
1493.00,0.0717
1492.00,0.0677
1491.00,0.0635
1490.00,0.0597
1489.00,0.0564
1488.00,0.0537
1487.00,0.0515
1486.00,0.0497
1485.00,0.0482
1484.00,0.0470
1483.00,0.0459
1482.00,0.0451
1481.00,0.0445
1480.00,0.0440
1479.00,0.0437
1478.00,0.0435
1477.00,0.0436
1476.00,0.0438
1475.00,0.0441
1474.00,0.0449
1473.00,0.0464
1472.00,0.0488
1471.00,0.0519
1470.00,0.0555
1469.00,0.0595
1468.00,0.0634
1467.00,0.0666
1466.00,0.0688
1465.00,0.0696
1464.00,0.0693
1463.00,0.0686
1462.00,0.0682
1461.00,0.0681
1460.00,0.0682
1459.00,0.0685
1458.00,0.0687
1457.00,0.0687
1456.00,0.0683
1455.00,0.0678
1454.00,0.0675
1453.00,0.0672
1452.00,0.0672
1451.00,0.0675
1450.00,0.0679
1449.00,0.0684
1448.00,0.0691
1447.00,0.0699
1446.00,0.0709
1445.00,0.0721
1444.00,0.0736
1443.00,0.0751
1442.00,0.0765
1441.00,0.0776
1440.00,0.0785
1439.00,0.0790
1438.00,0.0794
1437.00,0.0800
1436.00,0.0811
1435.00,0.0825
1434.00,0.0841
1433.00,0.0857
1432.00,0.0871
1431.00,0.0882
1430.00,0.0888
1429.00,0.0888
1428.00,0.0882
1427.00,0.0871
1426.00,0.0856
1425.00,0.0839
1424.00,0.0821
1423.00,0.0803
1422.00,0.0787
1421.00,0.0771
1420.00,0.0755
1419.00,0.0739
1418.00,0.0725
1417.00,0.0714
1416.00,0.0706
1415.00,0.0700
1414.00,0.0697
1413.00,0.0697
1412.00,0.0703
1411.00,0.0714
1410.00,0.0730
1409.00,0.0753
1408.00,0.0782
1407.00,0.0816
1406.00,0.0857
1405.00,0.0903
1404.00,0.0949
1403.00,0.0990
1402.00,0.1023
1401.00,0.1047
1400.00,0.1060
1399.00,0.1060
1398.00,0.1047
1397.00,0.1023
1396.00,0.0990
1395.00,0.0950
1394.00,0.0908
1393.00,0.0869
1392.00,0.0838
1391.00,0.0813
1390.00,0.0798
1389.00,0.0796
1388.00,0.0805
1387.00,0.0816
1386.00,0.0816
1385.00,0.0803
1384.00,0.0781
1383.00,0.0761
1382.00,0.0748
1381.00,0.0743
1380.00,0.0742
1379.00,0.0739
1378.00,0.0733
1377.00,0.0721
1376.00,0.0703
1375.00,0.0677
1374.00,0.0647
1373.00,0.0620
1372.00,0.0603
1371.00,0.0598
1370.00,0.0605
1369.00,0.0625
1368.00,0.0655
1367.00,0.0690
1366.00,0.0720
1365.00,0.0740
1364.00,0.0753
1363.00,0.0768
1362.00,0.0795
1361.00,0.0829
1360.00,0.0857
1359.00,0.0861
1358.00,0.0840
1357.00,0.0804
1356.00,0.0767
1355.00,0.0736
1354.00,0.0715
1353.00,0.0701
1352.00,0.0693
1351.00,0.0690
1350.00,0.0691
1349.00,0.0695
1348.00,0.0698
1347.00,0.0700
1346.00,0.0698
1345.00,0.0691
1344.00,0.0680
1343.00,0.0665
1342.00,0.0647
1341.00,0.0628
1340.00,0.0608
1339.00,0.0590
1338.00,0.0576
1337.00,0.0566
1336.00,0.0562
1335.00,0.0564
1334.00,0.0570
1333.00,0.0578
1332.00,0.0587
1331.00,0.0594
1330.00,0.0599
1329.00,0.0600
1328.00,0.0598
1327.00,0.0592
1326.00,0.0584
1325.00,0.0575
1324.00,0.0566
1323.00,0.0559
1322.00,0.0552
1321.00,0.0547
1320.00,0.0542
1319.00,0.0537
1318.00,0.0530
1317.00,0.0522
1316.00,0.0513
1315.00,0.0506
1314.00,0.0501
1313.00,0.0499
1312.00,0.0501
1311.00,0.0507
1310.00,0.0517
1309.00,0.0532
1308.00,0.0552
1307.00,0.0576
1306.00,0.0606
1305.00,0.0643
1304.00,0.0684
1303.00,0.0727
1302.00,0.0763
1301.00,0.0786
1300.00,0.0791
1299.00,0.0779
1298.00,0.0759
1297.00,0.0739
1296.00,0.0723
1295.00,0.0712
1294.00,0.0703
1293.00,0.0692
1292.00,0.0679
1291.00,0.0666
1290.00,0.0657
1289.00,0.0656
1288.00,0.0665
1287.00,0.0683
1286.00,0.0707
1285.00,0.0731
1284.00,0.0751
1283.00,0.0761
1282.00,0.0759
1281.00,0.0744
1280.00,0.0718
1279.00,0.0685
1278.00,0.0649
1277.00,0.0617
1276.00,0.0588
1275.00,0.0565
1274.00,0.0546
1273.00,0.0530
1272.00,0.0516
1271.00,0.0504
1270.00,0.0495
1269.00,0.0487
1268.00,0.0482
1267.00,0.0479
1266.00,0.0478
1265.00,0.0476
1264.00,0.0474
1263.00,0.0472
1262.00,0.0470
1261.00,0.0468
1260.00,0.0466
1259.00,0.0465
1258.00,0.0465
1257.00,0.0466
1256.00,0.0469
1255.00,0.0472
1254.00,0.0477
1253.00,0.0485
1252.00,0.0494
1251.00,0.0507
1250.00,0.0523
1249.00,0.0543
1248.00,0.0568
1247.00,0.0596
1246.00,0.0625
1245.00,0.0653
1244.00,0.0678
1243.00,0.0698
1242.00,0.0715
1241.00,0.0729
1240.00,0.0745
1239.00,0.0765
1238.00,0.0790
1237.00,0.0820
1236.00,0.0850
1235.00,0.0877
1234.00,0.0894
1233.00,0.0898
1232.00,0.0889
1231.00,0.0869
1230.00,0.0840
1229.00,0.0808
1228.00,0.0777
1227.00,0.0748
1226.00,0.0722
1225.00,0.0700
1224.00,0.0683
1223.00,0.0669
1222.00,0.0660
1221.00,0.0655
1220.00,0.0656
1219.00,0.0661
1218.00,0.0670
1217.00,0.0682
1216.00,0.0694
1215.00,0.0703
1214.00,0.0706
1213.00,0.0699
1212.00,0.0682
1211.00,0.0658
1210.00,0.0630
1209.00,0.0603
1208.00,0.0578
1207.00,0.0560
1206.00,0.0549
1205.00,0.0546
1204.00,0.0553
1203.00,0.0568
1202.00,0.0591
1201.00,0.0620
1200.00,0.0655
1199.00,0.0695
1198.00,0.0738
1197.00,0.0782
1196.00,0.0822
1195.00,0.0852
1194.00,0.0866
1193.00,0.0863
1192.00,0.0843
1191.00,0.0812
1190.00,0.0772
1189.00,0.0728
1188.00,0.0682
1187.00,0.0638
1186.00,0.0597
1185.00,0.0562
1184.00,0.0532
1183.00,0.0507
1182.00,0.0487
1181.00,0.0472
1180.00,0.0459
1179.00,0.0450
1178.00,0.0443
1177.00,0.0438
1176.00,0.0434
1175.00,0.0431
1174.00,0.0428
1173.00,0.0427
1172.00,0.0426
1171.00,0.0426
1170.00,0.0426
1169.00,0.0428
1168.00,0.0430
1167.00,0.0434
1166.00,0.0440
1165.00,0.0448
1164.00,0.0460
1163.00,0.0476
1162.00,0.0498
1161.00,0.0528
1160.00,0.0569
1159.00,0.0623
1158.00,0.0689
1157.00,0.0761
1156.00,0.0827
1155.00,0.0874
1154.00,0.0888
1153.00,0.0865
1152.00,0.0811
1151.00,0.0739
1150.00,0.0667
1149.00,0.0604
1148.00,0.0555
1147.00,0.0520
1146.00,0.0496
1145.00,0.0480
1144.00,0.0469
1143.00,0.0462
1142.00,0.0458
1141.00,0.0457
1140.00,0.0459
1139.00,0.0466
1138.00,0.0478
1137.00,0.0495
1136.00,0.0521
1135.00,0.0559
1134.00,0.0612
1133.00,0.0681
1132.00,0.0763
1131.00,0.0850
1130.00,0.0928
1129.00,0.0985
1128.00,0.1014
1127.00,0.1017
1126.00,0.0996
1125.00,0.0959
1124.00,0.0910
1123.00,0.0853
1122.00,0.0794
1121.00,0.0738
1120.00,0.0691
1119.00,0.0655
1118.00,0.0631
1117.00,0.0616
1116.00,0.0609
1115.00,0.0607
1114.00,0.0604
1113.00,0.0600
1112.00,0.0592
1111.00,0.0583
1110.00,0.0573
1109.00,0.0565
1108.00,0.0561
1107.00,0.0563
1106.00,0.0572
1105.00,0.0592
1104.00,0.0624
1103.00,0.0668
1102.00,0.0719
1101.00,0.0770
1100.00,0.0808
1099.00,0.0823
1098.00,0.0813
1097.00,0.0781
1096.00,0.0736
1095.00,0.0688
1094.00,0.0644
1093.00,0.0608
1092.00,0.0581
1091.00,0.0562
1090.00,0.0549
1089.00,0.0541
1088.00,0.0536
1087.00,0.0532
1086.00,0.0530
1085.00,0.0529
1084.00,0.0528
1083.00,0.0528
1082.00,0.0528
1081.00,0.0528
1080.00,0.0529
1079.00,0.0529
1078.00,0.0529
1077.00,0.0529
1076.00,0.0529
1075.00,0.0530
1074.00,0.0531
1073.00,0.0533
1072.00,0.0537
1071.00,0.0543
1070.00,0.0551
1069.00,0.0560
1068.00,0.0570
1067.00,0.0583
1066.00,0.0597
1065.00,0.0614
1064.00,0.0636
1063.00,0.0666
1062.00,0.0704
1061.00,0.0754
1060.00,0.0818
1059.00,0.0896
1058.00,0.0987
1057.00,0.1085
1056.00,0.1180
1055.00,0.1262
1054.00,0.1323
1053.00,0.1364
1052.00,0.1390
1051.00,0.1406
1050.00,0.1414
1049.00,0.1411
1048.00,0.1394
1047.00,0.1360
1046.00,0.1310
1045.00,0.1249
1044.00,0.1181
1043.00,0.1110
1042.00,0.1042
1041.00,0.0982
1040.00,0.0934
1039.00,0.0899
1038.00,0.0878
1037.00,0.0870
1036.00,0.0871
1035.00,0.0877
1034.00,0.0888
1033.00,0.0907
1032.00,0.0940
1031.00,0.0992
1030.00,0.1065
1029.00,0.1151
1028.00,0.1233
1027.00,0.1291
1026.00,0.1311
1025.00,0.1287
1024.00,0.1227
1023.00,0.1147
1022.00,0.1061
1021.00,0.0979
1020.00,0.0906
1019.00,0.0844
1018.00,0.0792
1017.00,0.0749
1016.00,0.0712
1015.00,0.0681
1014.00,0.0656
1013.00,0.0637
1012.00,0.0625
1011.00,0.0619
1010.00,0.0621
1009.00,0.0633
1008.00,0.0653
1007.00,0.0680
1006.00,0.0709
1005.00,0.0736
1004.00,0.0756
1003.00,0.0765
1002.00,0.0761
1001.00,0.0748
1000.00,0.0729
999.00,0.0709
998.00,0.0690
997.00,0.0673
996.00,0.0658
995.00,0.0645
994.00,0.0632
993.00,0.0616
992.00,0.0597
991.00,0.0574
990.00,0.0550
989.00,0.0526
988.00,0.0505
987.00,0.0487
986.00,0.0471
985.00,0.0457
984.00,0.0446
983.00,0.0437
982.00,0.0430
981.00,0.0425
980.00,0.0423
979.00,0.0422
978.00,0.0422
977.00,0.0423
976.00,0.0424
975.00,0.0424
974.00,0.0425
973.00,0.0424
972.00,0.0424
971.00,0.0423
970.00,0.0423
969.00,0.0424
968.00,0.0424
967.00,0.0426
966.00,0.0428
965.00,0.0432
964.00,0.0438
963.00,0.0443
962.00,0.0446
961.00,0.0443
960.00,0.0433
959.00,0.0418
958.00,0.0403
957.00,0.0390
956.00,0.0378
955.00,0.0369
954.00,0.0362
953.00,0.0356
952.00,0.0352
951.00,0.0352
950.00,0.0355
949.00,0.0360
948.00,0.0364
947.00,0.0364
946.00,0.0361
945.00,0.0359
944.00,0.0359
943.00,0.0364
942.00,0.0371
941.00,0.0380
940.00,0.0388
939.00,0.0396
938.00,0.0402
937.00,0.0407
936.00,0.0412
935.00,0.0418
934.00,0.0425
933.00,0.0432
932.00,0.0435
931.00,0.0434
930.00,0.0429
929.00,0.0423
928.00,0.0418
927.00,0.0416
926.00,0.0419
925.00,0.0427
924.00,0.0440
923.00,0.0455
922.00,0.0465
921.00,0.0467
920.00,0.0459
919.00,0.0441
918.00,0.0420
917.00,0.0398
916.00,0.0378
915.00,0.0363
914.00,0.0351
913.00,0.0342
912.00,0.0335
911.00,0.0331
910.00,0.0328
909.00,0.0327
908.00,0.0327
907.00,0.0329
906.00,0.0335
905.00,0.0344
904.00,0.0358
903.00,0.0379
902.00,0.0405
901.00,0.0433
900.00,0.0456
899.00,0.0468
898.00,0.0467
897.00,0.0453
896.00,0.0433
895.00,0.0415
894.00,0.0406
893.00,0.0412
892.00,0.0430
891.00,0.0455
890.00,0.0471
889.00,0.0467
888.00,0.0444
887.00,0.0412
886.00,0.0383
885.00,0.0365
884.00,0.0356
883.00,0.0354
882.00,0.0356
881.00,0.0363
880.00,0.0373
879.00,0.0390
878.00,0.0415
877.00,0.0451
876.00,0.0498
875.00,0.0554
874.00,0.0618
873.00,0.0687
872.00,0.0753
871.00,0.0807
870.00,0.0839
869.00,0.0844
868.00,0.0824
867.00,0.0787
866.00,0.0744
865.00,0.0702
864.00,0.0661
863.00,0.0620
862.00,0.0581
861.00,0.0545
860.00,0.0517
859.00,0.0500
858.00,0.0497
857.00,0.0508
856.00,0.0532
855.00,0.0563
854.00,0.0596
853.00,0.0628
852.00,0.0662
851.00,0.0699
850.00,0.0733
849.00,0.0755
848.00,0.0754
847.00,0.0731
846.00,0.0695
845.00,0.0655
844.00,0.0618
843.00,0.0589
842.00,0.0570
841.00,0.0560
840.00,0.0562
839.00,0.0578
838.00,0.0609
837.00,0.0653
836.00,0.0701
835.00,0.0745
834.00,0.0777
833.00,0.0792
832.00,0.0789
831.00,0.0767
830.00,0.0729
829.00,0.0680
828.00,0.0626
827.00,0.0578
826.00,0.0544
825.00,0.0533
824.00,0.0554
823.00,0.0615
822.00,0.0712
821.00,0.0817
820.00,0.0897
819.00,0.0940
818.00,0.0970
817.00,0.1012
816.00,0.1054
815.00,0.1058
814.00,0.0996
813.00,0.0885
812.00,0.0765
811.00,0.0667
810.00,0.0595
809.00,0.0546
808.00,0.0512
807.00,0.0488
806.00,0.0469
805.00,0.0455
804.00,0.0445
803.00,0.0438
802.00,0.0433
801.00,0.0428
800.00,0.0425
799.00,0.0423
798.00,0.0421
797.00,0.0420
796.00,0.0420
795.00,0.0420
794.00,0.0420
793.00,0.0419
792.00,0.0419
791.00,0.0419
790.00,0.0420
789.00,0.0421
788.00,0.0423
787.00,0.0425
786.00,0.0427
785.00,0.0429
784.00,0.0431
783.00,0.0434
782.00,0.0437
781.00,0.0440
780.00,0.0443
779.00,0.0449
778.00,0.0459
777.00,0.0476
776.00,0.0498
775.00,0.0517
774.00,0.0526
773.00,0.0520
772.00,0.0505
771.00,0.0486
770.00,0.0472
769.00,0.0463
768.00,0.0459
767.00,0.0457
766.00,0.0456
765.00,0.0458
764.00,0.0463
763.00,0.0471
762.00,0.0482
761.00,0.0492
760.00,0.0500
759.00,0.0504
758.00,0.0503
757.00,0.0498
756.00,0.0492
755.00,0.0486
754.00,0.0481
753.00,0.0479
752.00,0.0478
751.00,0.0479
750.00,0.0480
749.00,0.0482
748.00,0.0484
747.00,0.0487
746.00,0.0491
745.00,0.0495
744.00,0.0502
743.00,0.0510
742.00,0.0521
741.00,0.0535
740.00,0.0556
739.00,0.0586
738.00,0.0628
737.00,0.0678
736.00,0.0728
735.00,0.0763
734.00,0.0774
733.00,0.0765
732.00,0.0750
731.00,0.0744
730.00,0.0750
729.00,0.0761
728.00,0.0766
727.00,0.0755
726.00,0.0729
725.00,0.0694
724.00,0.0662
723.00,0.0637
722.00,0.0621
721.00,0.0614
720.00,0.0616
719.00,0.0627
718.00,0.0647
717.00,0.0671
716.00,0.0696
715.00,0.0714
714.00,0.0722
713.00,0.0719
712.00,0.0711
711.00,0.0699
710.00,0.0688
709.00,0.0678
708.00,0.0673
707.00,0.0672
706.00,0.0676
705.00,0.0683
704.00,0.0692
703.00,0.0704
702.00,0.0717
701.00,0.0730
700.00,0.0745
699.00,0.0757
698.00,0.0765
697.00,0.0765
696.00,0.0758
695.00,0.0747
694.00,0.0734
693.00,0.0727
692.00,0.0729
691.00,0.0743
690.00,0.0763
689.00,0.0785
688.00,0.0799
687.00,0.0800
686.00,0.0789
685.00,0.0773
684.00,0.0759
683.00,0.0749
682.00,0.0744
681.00,0.0745
680.00,0.0750
679.00,0.0757
678.00,0.0768
677.00,0.0781
676.00,0.0799
675.00,0.0820
674.00,0.0843
673.00,0.0864
672.00,0.0881
671.00,0.0893
670.00,0.0898
669.00,0.0895
668.00,0.0887
667.00,0.0878
666.00,0.0871
665.00,0.0868
664.00,0.0872
663.00,0.0881
662.00,0.0889
661.00,0.0892
660.00,0.0887
659.00,0.0874
658.00,0.0855
657.00,0.0836
656.00,0.0818
655.00,0.0805
654.00,0.0794
653.00,0.0787
652.00,0.0781
651.00,0.0776
650.00,0.0772
649.00,0.0769
648.00,0.0766
647.00,0.0765
646.00,0.0764
645.00,0.0764
644.00,0.0763
643.00,0.0762
642.00,0.0762
641.00,0.0761
640.00,0.0761
639.00,0.0761
638.00,0.0761
637.00,0.0762
636.00,0.0763
635.00,0.0764
634.00,0.0765
633.00,0.0766
632.00,0.0768
631.00,0.0771
630.00,0.0775
629.00,0.0779
628.00,0.0785
627.00,0.0794
626.00,0.0805
625.00,0.0818
624.00,0.0834
623.00,0.0853
622.00,0.0871
621.00,0.0888
620.00,0.0901
619.00,0.0905
618.00,0.0900
617.00,0.0886
616.00,0.0866
615.00,0.0846
614.00,0.0828
613.00,0.0814
612.00,0.0806
611.00,0.0806
610.00,0.0815
609.00,0.0834
608.00,0.0864
607.00,0.0901
606.00,0.0942
605.00,0.0982
604.00,0.1017
603.00,0.1043
602.00,0.1060
601.00,0.1069
600.00,0.1074
599.00,0.1076
598.00,0.1077
597.00,0.1077
596.00,0.1076
595.00,0.1074
594.00,0.1071
593.00,0.1066
592.00,0.1060
591.00,0.1053
590.00,0.1044
589.00,0.1034
588.00,0.1025
587.00,0.1016
586.00,0.1010
585.00,0.1007
584.00,0.1009
583.00,0.1013
582.00,0.1020
581.00,0.1029
580.00,0.1044
579.00,0.1069
578.00,0.1100
577.00,0.1129
576.00,0.1144
575.00,0.1137
574.00,0.1111
573.00,0.1076
572.00,0.1043
571.00,0.1015
570.00,0.0992
569.00,0.0974
568.00,0.0963
567.00,0.0960
566.00,0.0967
565.00,0.0982
564.00,0.1003
563.00,0.1028
562.00,0.1056
561.00,0.1082
560.00,0.1101
559.00,0.1109
558.00,0.1103
557.00,0.1089
556.00,0.1070
555.00,0.1052
554.00,0.1036
553.00,0.1028
552.00,0.1031
551.00,0.1046
550.00,0.1071
549.00,0.1102
548.00,0.1134
547.00,0.1162
546.00,0.1178
545.00,0.1182
544.00,0.1173
543.00,0.1156
542.00,0.1135
541.00,0.1114
540.00,0.1095
539.00,0.1081
538.00,0.1071
537.00,0.1069
536.00,0.1076
535.00,0.1093
534.00,0.1117
533.00,0.1146
532.00,0.1172
531.00,0.1188
530.00,0.1188
529.00,0.1174
528.00,0.1149
527.00,0.1120
526.00,0.1091
525.00,0.1064
524.00,0.1043
523.00,0.1026
522.00,0.1011
521.00,0.0998
520.00,0.0987
519.00,0.0976
518.00,0.0968
517.00,0.0960
516.00,0.0955
515.00,0.0950
514.00,0.0944
513.00,0.0939
512.00,0.0935
511.00,0.0934
510.00,0.0937
509.00,0.0945
508.00,0.0954
507.00,0.0963
506.00,0.0966
505.00,0.0963
504.00,0.0954
503.00,0.0942
502.00,0.0928
501.00,0.0917
500.00,0.0908
499.00,0.0903
498.00,0.0901
497.00,0.0903
496.00,0.0910
495.00,0.0919
494.00,0.0929
493.00,0.0937
492.00,0.0941
491.00,0.0939
490.00,0.0933
489.00,0.0925
488.00,0.0916
487.00,0.0906
486.00,0.0897
485.00,0.0889
484.00,0.0883
483.00,0.0877
482.00,0.0869
481.00,0.0860
480.00,0.0854
479.00,0.0851
478.00,0.0849
477.00,0.0847
476.00,0.0844
475.00,0.0840
474.00,0.0837
473.00,0.0834
472.00,0.0833
471.00,0.0832
470.00,0.0830
469.00,0.0828
468.00,0.0827
467.00,0.0825
466.00,0.0822
465.00,0.0819
464.00,0.0817
463.00,0.0816
462.00,0.0816
461.00,0.0816
460.00,0.0816
459.00,0.0815
458.00,0.0816
457.00,0.0817
456.00,0.0819
455.00,0.0818
454.00,0.0812
453.00,0.0806
452.00,0.0801
451.00,0.0799
450.00,0.0797
449.00,0.0794
448.00,0.0790
447.00,0.0787
446.00,0.0786
445.00,0.0787
444.00,0.0791
443.00,0.0796
442.00,0.0799
441.00,0.0801
440.00,0.0800
439.00,0.0798
438.00,0.0793
437.00,0.0787
436.00,0.0781
435.00,0.0777
434.00,0.0776
433.00,0.0776
432.00,0.0776
431.00,0.0774
430.00,0.0770
429.00,0.0764
428.00,0.0761
427.00,0.0761
426.00,0.0761
425.00,0.0759
424.00,0.0757
423.00,0.0757
422.00,0.0754
421.00,0.0749
420.00,0.0742
419.00,0.0739
418.00,0.0743
417.00,0.0753
416.00,0.0765
415.00,0.0778
414.00,0.0791
413.00,0.0802
412.00,0.0814
411.00,0.0826
410.00,0.0837
409.00,0.0843
408.00,0.0840
407.00,0.0827
406.00,0.0807
405.00,0.0784
404.00,0.0765
403.00,0.0751
402.00,0.0741
401.00,0.0733
400.00,0.0736
