Created as New Dataset,Sample 095 By YargerLab Date Thursday, August 14 2025
cm-1,A
4000.00,0.0033
3999.00,0.0033
3998.00,0.0033
3997.00,0.0033
3996.00,0.0033
3995.00,0.0033
3994.00,0.0033
3993.00,0.0033
3992.00,0.0033
3991.00,0.0033
3990.00,0.0033
3989.00,0.0033
3988.00,0.0033
3987.00,0.0033
3986.00,0.0034
3985.00,0.0034
3984.00,0.0034
3983.00,0.0034
3982.00,0.0034
3981.00,0.0034
3980.00,0.0034
3979.00,0.0034
3978.00,0.0034
3977.00,0.0034
3976.00,0.0034
3975.00,0.0034
3974.00,0.0034
3973.00,0.0034
3972.00,0.0034
3971.00,0.0034
3970.00,0.0034
3969.00,0.0034
3968.00,0.0034
3967.00,0.0034
3966.00,0.0034
3965.00,0.0033
3964.00,0.0033
3963.00,0.0033
3962.00,0.0033
3961.00,0.0033
3960.00,0.0034
3959.00,0.0034
3958.00,0.0034
3957.00,0.0034
3956.00,0.0033
3955.00,0.0033
3954.00,0.0033
3953.00,0.0034
3952.00,0.0034
3951.00,0.0034
3950.00,0.0034
3949.00,0.0033
3948.00,0.0033
3947.00,0.0034
3946.00,0.0034
3945.00,0.0034
3944.00,0.0034
3943.00,0.0033
3942.00,0.0034
3941.00,0.0034
3940.00,0.0034
3939.00,0.0034
3938.00,0.0034
3937.00,0.0034
3936.00,0.0034
3935.00,0.0034
3934.00,0.0033
3933.00,0.0034
3932.00,0.0034
3931.00,0.0034
3930.00,0.0034
3929.00,0.0034
3928.00,0.0033
3927.00,0.0033
3926.00,0.0033
3925.00,0.0033
3924.00,0.0033
3923.00,0.0034
3922.00,0.0034
3921.00,0.0034
3920.00,0.0034
3919.00,0.0034
3918.00,0.0033
3917.00,0.0033
3916.00,0.0033
3915.00,0.0033
3914.00,0.0033
3913.00,0.0033
3912.00,0.0033
3911.00,0.0033
3910.00,0.0033
3909.00,0.0034
3908.00,0.0034
3907.00,0.0034
3906.00,0.0034
3905.00,0.0034
3904.00,0.0033
3903.00,0.0034
3902.00,0.0034
3901.00,0.0033
3900.00,0.0033
3899.00,0.0033
3898.00,0.0033
3897.00,0.0033
3896.00,0.0033
3895.00,0.0033
3894.00,0.0033
3893.00,0.0033
3892.00,0.0033
3891.00,0.0033
3890.00,0.0034
3889.00,0.0034
3888.00,0.0034
3887.00,0.0033
3886.00,0.0033
3885.00,0.0033
3884.00,0.0033
3883.00,0.0032
3882.00,0.0032
3881.00,0.0032
3880.00,0.0032
3879.00,0.0033
3878.00,0.0033
3877.00,0.0033
3876.00,0.0033
3875.00,0.0033
3874.00,0.0033
3873.00,0.0034
3872.00,0.0034
3871.00,0.0033
3870.00,0.0033
3869.00,0.0033
3868.00,0.0033
3867.00,0.0033
3866.00,0.0033
3865.00,0.0032
3864.00,0.0033
3863.00,0.0033
3862.00,0.0033
3861.00,0.0033
3860.00,0.0033
3859.00,0.0033
3858.00,0.0033
3857.00,0.0034
3856.00,0.0034
3855.00,0.0034
3854.00,0.0033
3853.00,0.0033
3852.00,0.0033
3851.00,0.0034
3850.00,0.0033
3849.00,0.0033
3848.00,0.0032
3847.00,0.0033
3846.00,0.0033
3845.00,0.0033
3844.00,0.0033
3843.00,0.0033
3842.00,0.0033
3841.00,0.0033
3840.00,0.0033
3839.00,0.0033
3838.00,0.0033
3837.00,0.0033
3836.00,0.0033
3835.00,0.0033
3834.00,0.0033
3833.00,0.0033
3832.00,0.0033
3831.00,0.0033
3830.00,0.0033
3829.00,0.0033
3828.00,0.0033
3827.00,0.0033
3826.00,0.0033
3825.00,0.0033
3824.00,0.0033
3823.00,0.0033
3822.00,0.0033
3821.00,0.0033
3820.00,0.0034
3819.00,0.0034
3818.00,0.0034
3817.00,0.0033
3816.00,0.0033
3815.00,0.0033
3814.00,0.0033
3813.00,0.0033
3812.00,0.0033
3811.00,0.0032
3810.00,0.0033
3809.00,0.0033
3808.00,0.0033
3807.00,0.0033
3806.00,0.0033
3805.00,0.0033
3804.00,0.0033
3803.00,0.0032
3802.00,0.0032
3801.00,0.0032
3800.00,0.0033
3799.00,0.0034
3798.00,0.0033
3797.00,0.0033
3796.00,0.0033
3795.00,0.0033
3794.00,0.0033
3793.00,0.0033
3792.00,0.0033
3791.00,0.0033
3790.00,0.0033
3789.00,0.0033
3788.00,0.0033
3787.00,0.0033
3786.00,0.0033
3785.00,0.0033
3784.00,0.0033
3783.00,0.0033
3782.00,0.0033
3781.00,0.0033
3780.00,0.0033
3779.00,0.0033
3778.00,0.0033
3777.00,0.0033
3776.00,0.0033
3775.00,0.0033
3774.00,0.0033
3773.00,0.0033
3772.00,0.0034
3771.00,0.0034
3770.00,0.0033
3769.00,0.0034
3768.00,0.0034
3767.00,0.0033
3766.00,0.0033
3765.00,0.0033
3764.00,0.0033
3763.00,0.0033
3762.00,0.0033
3761.00,0.0033
3760.00,0.0033
3759.00,0.0033
3758.00,0.0033
3757.00,0.0033
3756.00,0.0033
3755.00,0.0034
3754.00,0.0034
3753.00,0.0034
3752.00,0.0034
3751.00,0.0034
3750.00,0.0033
3749.00,0.0034
3748.00,0.0034
3747.00,0.0034
3746.00,0.0033
3745.00,0.0033
3744.00,0.0033
3743.00,0.0033
3742.00,0.0033
3741.00,0.0033
3740.00,0.0033
3739.00,0.0033
3738.00,0.0033
3737.00,0.0033
3736.00,0.0033
3735.00,0.0033
3734.00,0.0033
3733.00,0.0033
3732.00,0.0033
3731.00,0.0033
3730.00,0.0033
3729.00,0.0032
3728.00,0.0032
3727.00,0.0032
3726.00,0.0032
3725.00,0.0032
3724.00,0.0033
3723.00,0.0033
3722.00,0.0033
3721.00,0.0033
3720.00,0.0033
3719.00,0.0032
3718.00,0.0032
3717.00,0.0032
3716.00,0.0032
3715.00,0.0032
3714.00,0.0033
3713.00,0.0033
3712.00,0.0033
3711.00,0.0033
3710.00,0.0034
3709.00,0.0034
3708.00,0.0033
3707.00,0.0033
3706.00,0.0033
3705.00,0.0032
3704.00,0.0032
3703.00,0.0032
3702.00,0.0032
3701.00,0.0032
3700.00,0.0033
3699.00,0.0033
3698.00,0.0033
3697.00,0.0033
3696.00,0.0033
3695.00,0.0033
3694.00,0.0033
3693.00,0.0034
3692.00,0.0034
3691.00,0.0035
3690.00,0.0035
3689.00,0.0035
3688.00,0.0035
3687.00,0.0035
3686.00,0.0035
3685.00,0.0035
3684.00,0.0035
3683.00,0.0035
3682.00,0.0035
3681.00,0.0035
3680.00,0.0036
3679.00,0.0036
3678.00,0.0037
3677.00,0.0037
3676.00,0.0036
3675.00,0.0036
3674.00,0.0037
3673.00,0.0038
3672.00,0.0037
3671.00,0.0037
3670.00,0.0037
3669.00,0.0038
3668.00,0.0038
3667.00,0.0039
3666.00,0.0039
3665.00,0.0039
3664.00,0.0039
3663.00,0.0039
3662.00,0.0039
3661.00,0.0040
3660.00,0.0040
3659.00,0.0041
3658.00,0.0041
3657.00,0.0042
3656.00,0.0042
3655.00,0.0042
3654.00,0.0043
3653.00,0.0043
3652.00,0.0044
3651.00,0.0044
3650.00,0.0044
3649.00,0.0044
3648.00,0.0045
3647.00,0.0045
3646.00,0.0045
3645.00,0.0046
3644.00,0.0046
3643.00,0.0046
3642.00,0.0046
3641.00,0.0047
3640.00,0.0047
3639.00,0.0048
3638.00,0.0048
3637.00,0.0049
3636.00,0.0050
3635.00,0.0050
3634.00,0.0051
3633.00,0.0052
3632.00,0.0053
3631.00,0.0054
3630.00,0.0053
3629.00,0.0053
3628.00,0.0054
3627.00,0.0054
3626.00,0.0055
3625.00,0.0055
3624.00,0.0055
3623.00,0.0056
3622.00,0.0057
3621.00,0.0058
3620.00,0.0058
3619.00,0.0059
3618.00,0.0060
3617.00,0.0061
3616.00,0.0061
3615.00,0.0062
3614.00,0.0062
3613.00,0.0063
3612.00,0.0064
3611.00,0.0064
3610.00,0.0065
3609.00,0.0066
3608.00,0.0067
3607.00,0.0067
3606.00,0.0068
3605.00,0.0069
3604.00,0.0070
3603.00,0.0070
3602.00,0.0071
3601.00,0.0072
3600.00,0.0073
3599.00,0.0074
3598.00,0.0075
3597.00,0.0076
3596.00,0.0077
3595.00,0.0078
3594.00,0.0079
3593.00,0.0080
3592.00,0.0081
3591.00,0.0082
3590.00,0.0083
3589.00,0.0084
3588.00,0.0084
3587.00,0.0085
3586.00,0.0086
3585.00,0.0087
3584.00,0.0088
3583.00,0.0089
3582.00,0.0090
3581.00,0.0092
3580.00,0.0093
3579.00,0.0094
3578.00,0.0095
3577.00,0.0096
3576.00,0.0097
3575.00,0.0098
3574.00,0.0099
3573.00,0.0100
3572.00,0.0102
3571.00,0.0103
3570.00,0.0104
3569.00,0.0105
3568.00,0.0106
3567.00,0.0107
3566.00,0.0108
3565.00,0.0109
3564.00,0.0111
3563.00,0.0112
3562.00,0.0114
3561.00,0.0115
3560.00,0.0116
3559.00,0.0117
3558.00,0.0118
3557.00,0.0120
3556.00,0.0121
3555.00,0.0122
3554.00,0.0124
3553.00,0.0125
3552.00,0.0126
3551.00,0.0128
3550.00,0.0129
3549.00,0.0130
3548.00,0.0131
3547.00,0.0133
3546.00,0.0134
3545.00,0.0136
3544.00,0.0137
3543.00,0.0138
3542.00,0.0140
3541.00,0.0141
3540.00,0.0143
3539.00,0.0144
3538.00,0.0145
3537.00,0.0147
3536.00,0.0148
3535.00,0.0150
3534.00,0.0152
3533.00,0.0154
3532.00,0.0156
3531.00,0.0158
3530.00,0.0161
3529.00,0.0164
3528.00,0.0167
3527.00,0.0170
3526.00,0.0173
3525.00,0.0176
3524.00,0.0179
3523.00,0.0181
3522.00,0.0183
3521.00,0.0184
3520.00,0.0185
3519.00,0.0186
3518.00,0.0186
3517.00,0.0186
3516.00,0.0186
3515.00,0.0185
3514.00,0.0184
3513.00,0.0184
3512.00,0.0183
3511.00,0.0182
3510.00,0.0181
3509.00,0.0180
3508.00,0.0180
3507.00,0.0180
3506.00,0.0180
3505.00,0.0181
3504.00,0.0181
3503.00,0.0181
3502.00,0.0182
3501.00,0.0182
3500.00,0.0182
3499.00,0.0183
3498.00,0.0184
3497.00,0.0184
3496.00,0.0185
3495.00,0.0186
3494.00,0.0187
3493.00,0.0188
3492.00,0.0189
3491.00,0.0190
3490.00,0.0191
3489.00,0.0192
3488.00,0.0193
3487.00,0.0193
3486.00,0.0194
3485.00,0.0195
3484.00,0.0196
3483.00,0.0198
3482.00,0.0199
3481.00,0.0200
3480.00,0.0201
3479.00,0.0202
3478.00,0.0204
3477.00,0.0205
3476.00,0.0205
3475.00,0.0206
3474.00,0.0207
3473.00,0.0209
3472.00,0.0210
3471.00,0.0211
3470.00,0.0212
3469.00,0.0213
3468.00,0.0214
3467.00,0.0215
3466.00,0.0217
3465.00,0.0218
3464.00,0.0219
3463.00,0.0220
3462.00,0.0222
3461.00,0.0223
3460.00,0.0225
3459.00,0.0227
3458.00,0.0229
3457.00,0.0231
3456.00,0.0233
3455.00,0.0235
3454.00,0.0237
3453.00,0.0240
3452.00,0.0242
3451.00,0.0245
3450.00,0.0247
3449.00,0.0249
3448.00,0.0252
3447.00,0.0253
3446.00,0.0255
3445.00,0.0257
3444.00,0.0259
3443.00,0.0261
3442.00,0.0263
3441.00,0.0265
3440.00,0.0267
3439.00,0.0269
3438.00,0.0271
3437.00,0.0274
3436.00,0.0276
3435.00,0.0277
3434.00,0.0279
3433.00,0.0281
3432.00,0.0282
3431.00,0.0284
3430.00,0.0286
3429.00,0.0287
3428.00,0.0289
3427.00,0.0291
3426.00,0.0293
3425.00,0.0295
3424.00,0.0298
3423.00,0.0300
3422.00,0.0302
3421.00,0.0305
3420.00,0.0307
3419.00,0.0309
3418.00,0.0312
3417.00,0.0314
3416.00,0.0317
3415.00,0.0319
3414.00,0.0321
3413.00,0.0324
3412.00,0.0326
3411.00,0.0328
3410.00,0.0329
3409.00,0.0331
3408.00,0.0332
3407.00,0.0332
3406.00,0.0333
3405.00,0.0333
3404.00,0.0333
3403.00,0.0332
3402.00,0.0332
3401.00,0.0331
3400.00,0.0330
3399.00,0.0329
3398.00,0.0327
3397.00,0.0326
3396.00,0.0324
3395.00,0.0322
3394.00,0.0320
3393.00,0.0319
3392.00,0.0317
3391.00,0.0315
3390.00,0.0313
3389.00,0.0311
3388.00,0.0309
3387.00,0.0307
3386.00,0.0305
3385.00,0.0303
3384.00,0.0301
3383.00,0.0299
3382.00,0.0298
3381.00,0.0296
3380.00,0.0294
3379.00,0.0292
3378.00,0.0291
3377.00,0.0289
3376.00,0.0288
3375.00,0.0286
3374.00,0.0284
3373.00,0.0282
3372.00,0.0280
3371.00,0.0278
3370.00,0.0276
3369.00,0.0275
3368.00,0.0273
3367.00,0.0272
3366.00,0.0271
3365.00,0.0270
3364.00,0.0268
3363.00,0.0267
3362.00,0.0266
3361.00,0.0264
3360.00,0.0263
3359.00,0.0262
3358.00,0.0261
3357.00,0.0260
3356.00,0.0258
3355.00,0.0257
3354.00,0.0256
3353.00,0.0254
3352.00,0.0253
3351.00,0.0252
3350.00,0.0251
3349.00,0.0250
3348.00,0.0249
3347.00,0.0248
3346.00,0.0247
3345.00,0.0246
3344.00,0.0245
3343.00,0.0244
3342.00,0.0244
3341.00,0.0243
3340.00,0.0242
3339.00,0.0241
3338.00,0.0240
3337.00,0.0240
3336.00,0.0240
3335.00,0.0239
3334.00,0.0238
3333.00,0.0238
3332.00,0.0238
3331.00,0.0238
3330.00,0.0237
3329.00,0.0237
3328.00,0.0236
3327.00,0.0235
3326.00,0.0234
3325.00,0.0233
3324.00,0.0233
3323.00,0.0233
3322.00,0.0233
3321.00,0.0233
3320.00,0.0233
3319.00,0.0232
3318.00,0.0232
3317.00,0.0232
3316.00,0.0232
3315.00,0.0232
3314.00,0.0231
3313.00,0.0230
3312.00,0.0230
3311.00,0.0229
3310.00,0.0228
3309.00,0.0227
3308.00,0.0226
3307.00,0.0226
3306.00,0.0226
3305.00,0.0226
3304.00,0.0226
3303.00,0.0227
3302.00,0.0228
3301.00,0.0228
3300.00,0.0228
3299.00,0.0227
3298.00,0.0227
3297.00,0.0226
3296.00,0.0225
3295.00,0.0225
3294.00,0.0225
3293.00,0.0225
3292.00,0.0225
3291.00,0.0225
3290.00,0.0226
3289.00,0.0226
3288.00,0.0226
3287.00,0.0226
3286.00,0.0226
3285.00,0.0226
3284.00,0.0226
3283.00,0.0226
3282.00,0.0226
3281.00,0.0226
3280.00,0.0226
3279.00,0.0225
3278.00,0.0225
3277.00,0.0224
3276.00,0.0224
3275.00,0.0223
3274.00,0.0223
3273.00,0.0223
3272.00,0.0223
3271.00,0.0223
3270.00,0.0223
3269.00,0.0223
3268.00,0.0224
3267.00,0.0225
3266.00,0.0225
3265.00,0.0226
3264.00,0.0226
3263.00,0.0227
3262.00,0.0227
3261.00,0.0227
3260.00,0.0227
3259.00,0.0227
3258.00,0.0227
3257.00,0.0227
3256.00,0.0227
3255.00,0.0227
3254.00,0.0227
3253.00,0.0228
3252.00,0.0228
3251.00,0.0228
3250.00,0.0229
3249.00,0.0229
3248.00,0.0229
3247.00,0.0229
3246.00,0.0229
3245.00,0.0230
3244.00,0.0230
3243.00,0.0230
3242.00,0.0230
3241.00,0.0230
3240.00,0.0230
3239.00,0.0230
3238.00,0.0229
3237.00,0.0229
3236.00,0.0229
3235.00,0.0228
3234.00,0.0228
3233.00,0.0227
3232.00,0.0227
3231.00,0.0227
3230.00,0.0227
3229.00,0.0227
3228.00,0.0226
3227.00,0.0226
3226.00,0.0225
3225.00,0.0225
3224.00,0.0224
3223.00,0.0223
3222.00,0.0222
3221.00,0.0221
3220.00,0.0220
3219.00,0.0219
3218.00,0.0219
3217.00,0.0218
3216.00,0.0217
3215.00,0.0216
3214.00,0.0215
3213.00,0.0214
3212.00,0.0213
3211.00,0.0212
3210.00,0.0210
3209.00,0.0209
3208.00,0.0208
3207.00,0.0207
3206.00,0.0206
3205.00,0.0204
3204.00,0.0203
3203.00,0.0202
3202.00,0.0201
3201.00,0.0200
3200.00,0.0199
3199.00,0.0197
3198.00,0.0196
3197.00,0.0195
3196.00,0.0193
3195.00,0.0192
3194.00,0.0190
3193.00,0.0189
3192.00,0.0187
3191.00,0.0186
3190.00,0.0185
3189.00,0.0184
3188.00,0.0182
3187.00,0.0181
3186.00,0.0180
3185.00,0.0179
3184.00,0.0177
3183.00,0.0176
3182.00,0.0174
3181.00,0.0173
3180.00,0.0172
3179.00,0.0171
3178.00,0.0170
3177.00,0.0168
3176.00,0.0167
3175.00,0.0166
3174.00,0.0164
3173.00,0.0163
3172.00,0.0162
3171.00,0.0161
3170.00,0.0160
3169.00,0.0158
3168.00,0.0157
3167.00,0.0156
3166.00,0.0155
3165.00,0.0154
3164.00,0.0153
3163.00,0.0151
3162.00,0.0150
3161.00,0.0149
3160.00,0.0147
3159.00,0.0146
3158.00,0.0145
3157.00,0.0143
3156.00,0.0142
3155.00,0.0141
3154.00,0.0140
3153.00,0.0139
3152.00,0.0138
3151.00,0.0137
3150.00,0.0136
3149.00,0.0135
3148.00,0.0134
3147.00,0.0133
3146.00,0.0132
3145.00,0.0131
3144.00,0.0130
3143.00,0.0128
3142.00,0.0127
3141.00,0.0126
3140.00,0.0125
3139.00,0.0124
3138.00,0.0124
3137.00,0.0123
3136.00,0.0122
3135.00,0.0121
3134.00,0.0121
3133.00,0.0120
3132.00,0.0119
3131.00,0.0118
3130.00,0.0117
3129.00,0.0116
3128.00,0.0116
3127.00,0.0115
3126.00,0.0115
3125.00,0.0114
3124.00,0.0114
3123.00,0.0113
3122.00,0.0113
3121.00,0.0112
3120.00,0.0112
3119.00,0.0111
3118.00,0.0111
3117.00,0.0110
3116.00,0.0109
3115.00,0.0108
3114.00,0.0107
3113.00,0.0106
3112.00,0.0106
3111.00,0.0105
3110.00,0.0104
3109.00,0.0104
3108.00,0.0103
3107.00,0.0103
3106.00,0.0102
3105.00,0.0102
3104.00,0.0101
3103.00,0.0101
3102.00,0.0100
3101.00,0.0100
3100.00,0.0099
3099.00,0.0099
3098.00,0.0099
3097.00,0.0098
3096.00,0.0098
3095.00,0.0098
3094.00,0.0097
3093.00,0.0097
3092.00,0.0098
3091.00,0.0098
3090.00,0.0098
3089.00,0.0099
3088.00,0.0099
3087.00,0.0100
3086.00,0.0100
3085.00,0.0101
3084.00,0.0101
3083.00,0.0102
3082.00,0.0103
3081.00,0.0104
3080.00,0.0105
3079.00,0.0105
3078.00,0.0106
3077.00,0.0107
3076.00,0.0107
3075.00,0.0107
3074.00,0.0107
3073.00,0.0106
3072.00,0.0105
3071.00,0.0104
3070.00,0.0103
3069.00,0.0102
3068.00,0.0100
3067.00,0.0099
3066.00,0.0097
3065.00,0.0096
3064.00,0.0095
3063.00,0.0094
3062.00,0.0093
3061.00,0.0092
3060.00,0.0092
3059.00,0.0091
3058.00,0.0091
3057.00,0.0090
3056.00,0.0090
3055.00,0.0090
3054.00,0.0089
3053.00,0.0089
3052.00,0.0089
3051.00,0.0088
3050.00,0.0088
3049.00,0.0088
3048.00,0.0088
3047.00,0.0088
3046.00,0.0088
3045.00,0.0088
3044.00,0.0088
3043.00,0.0088
3042.00,0.0088
3041.00,0.0088
3040.00,0.0089
3039.00,0.0089
3038.00,0.0090
3037.00,0.0090
3036.00,0.0091
3035.00,0.0091
3034.00,0.0091
3033.00,0.0092
3032.00,0.0092
3031.00,0.0091
3030.00,0.0091
3029.00,0.0090
3028.00,0.0089
3027.00,0.0088
3026.00,0.0087
3025.00,0.0086
3024.00,0.0085
3023.00,0.0084
3022.00,0.0084
3021.00,0.0083
3020.00,0.0083
3019.00,0.0083
3018.00,0.0082
3017.00,0.0083
3016.00,0.0083
3015.00,0.0083
3014.00,0.0084
3013.00,0.0084
3012.00,0.0085
3011.00,0.0085
3010.00,0.0086
3009.00,0.0087
3008.00,0.0089
3007.00,0.0091
3006.00,0.0092
3005.00,0.0094
3004.00,0.0097
3003.00,0.0099
3002.00,0.0102
3001.00,0.0105
3000.00,0.0109
2999.00,0.0113
2998.00,0.0117
2997.00,0.0121
2996.00,0.0126
2995.00,0.0131
2994.00,0.0136
2993.00,0.0141
2992.00,0.0146
2991.00,0.0150
2990.00,0.0154
2989.00,0.0157
2988.00,0.0161
2987.00,0.0165
2986.00,0.0169
2985.00,0.0174
2984.00,0.0179
2983.00,0.0186
2982.00,0.0193
2981.00,0.0201
2980.00,0.0209
2979.00,0.0216
2978.00,0.0222
2977.00,0.0227
2976.00,0.0232
2975.00,0.0237
2974.00,0.0245
2973.00,0.0253
2972.00,0.0262
2971.00,0.0271
2970.00,0.0278
2969.00,0.0283
2968.00,0.0287
2967.00,0.0288
2966.00,0.0290
2965.00,0.0293
2964.00,0.0298
2963.00,0.0304
2962.00,0.0310
2961.00,0.0317
2960.00,0.0323
2959.00,0.0326
2958.00,0.0326
2957.00,0.0324
2956.00,0.0319
2955.00,0.0313
2954.00,0.0306
2953.00,0.0298
2952.00,0.0292
2951.00,0.0287
2950.00,0.0284
2949.00,0.0284
2948.00,0.0285
2947.00,0.0287
2946.00,0.0290
2945.00,0.0293
2944.00,0.0297
2943.00,0.0301
2942.00,0.0305
2941.00,0.0309
2940.00,0.0314
2939.00,0.0320
2938.00,0.0327
2937.00,0.0336
2936.00,0.0347
2935.00,0.0360
2934.00,0.0375
2933.00,0.0392
2932.00,0.0408
2931.00,0.0424
2930.00,0.0438
2929.00,0.0450
2928.00,0.0458
2927.00,0.0461
2926.00,0.0461
2925.00,0.0458
2924.00,0.0452
2923.00,0.0446
2922.00,0.0439
2921.00,0.0430
2920.00,0.0421
2919.00,0.0411
2918.00,0.0399
2917.00,0.0388
2916.00,0.0375
2915.00,0.0363
2914.00,0.0351
2913.00,0.0339
2912.00,0.0329
2911.00,0.0319
2910.00,0.0310
2909.00,0.0302
2908.00,0.0295
2907.00,0.0289
2906.00,0.0284
2905.00,0.0279
2904.00,0.0275
2903.00,0.0271
2902.00,0.0268
2901.00,0.0264
2900.00,0.0261
2899.00,0.0258
2898.00,0.0255
2897.00,0.0251
2896.00,0.0248
2895.00,0.0244
2894.00,0.0241
2893.00,0.0238
2892.00,0.0236
2891.00,0.0234
2890.00,0.0232
2889.00,0.0230
2888.00,0.0228
2887.00,0.0227
2886.00,0.0225
2885.00,0.0224
2884.00,0.0224
2883.00,0.0223
2882.00,0.0224
2881.00,0.0225
2880.00,0.0226
2879.00,0.0229
2878.00,0.0233
2877.00,0.0237
2876.00,0.0242
2875.00,0.0246
2874.00,0.0250
2873.00,0.0252
2872.00,0.0253
2871.00,0.0254
2870.00,0.0253
2869.00,0.0251
2868.00,0.0249
2867.00,0.0248
2866.00,0.0248
2865.00,0.0250
2864.00,0.0253
2863.00,0.0259
2862.00,0.0267
2861.00,0.0276
2860.00,0.0285
2859.00,0.0295
2858.00,0.0304
2857.00,0.0310
2856.00,0.0313
2855.00,0.0313
2854.00,0.0309
2853.00,0.0303
2852.00,0.0294
2851.00,0.0283
2850.00,0.0269
2849.00,0.0253
2848.00,0.0237
2847.00,0.0221
2846.00,0.0206
2845.00,0.0194
2844.00,0.0183
2843.00,0.0174
2842.00,0.0166
2841.00,0.0159
2840.00,0.0153
2839.00,0.0149
2838.00,0.0146
2837.00,0.0144
2836.00,0.0143
2835.00,0.0142
2834.00,0.0142
2833.00,0.0141
2832.00,0.0141
2831.00,0.0141
2830.00,0.0139
2829.00,0.0137
2828.00,0.0133
2827.00,0.0129
2826.00,0.0124
2825.00,0.0119
2824.00,0.0115
2823.00,0.0110
2822.00,0.0107
2821.00,0.0104
2820.00,0.0101
2819.00,0.0099
2818.00,0.0097
2817.00,0.0096
2816.00,0.0094
2815.00,0.0093
2814.00,0.0091
2813.00,0.0090
2812.00,0.0089
2811.00,0.0088
2810.00,0.0087
2809.00,0.0086
2808.00,0.0085
2807.00,0.0084
2806.00,0.0084
2805.00,0.0083
2804.00,0.0082
2803.00,0.0082
2802.00,0.0081
2801.00,0.0080
2800.00,0.0079
2799.00,0.0078
2798.00,0.0078
2797.00,0.0078
2796.00,0.0077
2795.00,0.0077
2794.00,0.0076
2793.00,0.0076
2792.00,0.0075
2791.00,0.0075
2790.00,0.0074
2789.00,0.0073
2788.00,0.0073
2787.00,0.0072
2786.00,0.0072
2785.00,0.0071
2784.00,0.0071
2783.00,0.0071
2782.00,0.0071
2781.00,0.0070
2780.00,0.0070
2779.00,0.0070
2778.00,0.0069
2777.00,0.0069
2776.00,0.0068
2775.00,0.0068
2774.00,0.0068
2773.00,0.0067
2772.00,0.0067
2771.00,0.0067
2770.00,0.0067
2769.00,0.0067
2768.00,0.0066
2767.00,0.0066
2766.00,0.0066
2765.00,0.0066
2764.00,0.0066
2763.00,0.0065
2762.00,0.0065
2761.00,0.0065
2760.00,0.0065
2759.00,0.0065
2758.00,0.0065
2757.00,0.0065
2756.00,0.0065
2755.00,0.0065
2754.00,0.0065
2753.00,0.0065
2752.00,0.0064
2751.00,0.0064
2750.00,0.0064
2749.00,0.0065
2748.00,0.0065
2747.00,0.0065
2746.00,0.0065
2745.00,0.0065
2744.00,0.0065
2743.00,0.0065
2742.00,0.0066
2741.00,0.0066
2740.00,0.0066
2739.00,0.0067
2738.00,0.0067
2737.00,0.0067
2736.00,0.0067
2735.00,0.0068
2734.00,0.0068
2733.00,0.0068
2732.00,0.0069
2731.00,0.0069
2730.00,0.0069
2729.00,0.0069
2728.00,0.0069
2727.00,0.0069
2726.00,0.0069
2725.00,0.0068
2724.00,0.0068
2723.00,0.0067
2722.00,0.0067
2721.00,0.0067
2720.00,0.0067
2719.00,0.0066
2718.00,0.0066
2717.00,0.0066
2716.00,0.0066
2715.00,0.0066
2714.00,0.0065
2713.00,0.0065
2712.00,0.0065
2711.00,0.0065
2710.00,0.0065
2709.00,0.0064
2708.00,0.0064
2707.00,0.0064
2706.00,0.0064
2705.00,0.0064
2704.00,0.0064
2703.00,0.0064
2702.00,0.0064
2701.00,0.0064
2700.00,0.0063
2699.00,0.0063
2698.00,0.0063
2697.00,0.0063
2696.00,0.0063
2695.00,0.0062
2694.00,0.0062
2693.00,0.0062
2692.00,0.0062
2691.00,0.0062
2690.00,0.0062
2689.00,0.0061
2688.00,0.0061
2687.00,0.0061
2686.00,0.0060
2685.00,0.0060
2684.00,0.0060
2683.00,0.0060
2682.00,0.0060
2681.00,0.0060
2680.00,0.0060
2679.00,0.0060
2678.00,0.0060
2677.00,0.0061
2676.00,0.0061
2675.00,0.0061
2674.00,0.0061
2673.00,0.0061
2672.00,0.0061
2671.00,0.0061
2670.00,0.0061
2669.00,0.0062
2668.00,0.0062
2667.00,0.0062
2666.00,0.0063
2665.00,0.0063
2664.00,0.0064
2663.00,0.0064
2662.00,0.0064
2661.00,0.0065
2660.00,0.0065
2659.00,0.0065
2658.00,0.0066
2657.00,0.0066
2656.00,0.0066
2655.00,0.0066
2654.00,0.0066
2653.00,0.0066
2652.00,0.0066
2651.00,0.0066
2650.00,0.0066
2649.00,0.0066
2648.00,0.0066
2647.00,0.0066
2646.00,0.0065
2645.00,0.0065
2644.00,0.0065
2643.00,0.0065
2642.00,0.0065
2641.00,0.0065
2640.00,0.0064
2639.00,0.0064
2638.00,0.0064
2637.00,0.0063
2636.00,0.0063
2635.00,0.0063
2634.00,0.0063
2633.00,0.0063
2632.00,0.0062
2631.00,0.0062
2630.00,0.0062
2629.00,0.0062
2628.00,0.0061
2627.00,0.0061
2626.00,0.0061
2625.00,0.0061
2624.00,0.0061
2623.00,0.0061
2622.00,0.0061
2621.00,0.0060
2620.00,0.0060
2619.00,0.0060
2618.00,0.0060
2617.00,0.0059
2616.00,0.0059
2615.00,0.0059
2614.00,0.0059
2613.00,0.0059
2612.00,0.0059
2611.00,0.0059
2610.00,0.0059
2609.00,0.0059
2608.00,0.0059
2607.00,0.0059
2606.00,0.0059
2605.00,0.0059
2604.00,0.0059
2603.00,0.0060
2602.00,0.0059
2601.00,0.0059
2600.00,0.0059
2599.00,0.0059
2598.00,0.0059
2597.00,0.0060
2596.00,0.0060
2595.00,0.0060
2594.00,0.0060
2593.00,0.0060
2592.00,0.0060
2591.00,0.0061
2590.00,0.0060
2589.00,0.0060
2588.00,0.0060
2587.00,0.0061
2586.00,0.0061
2585.00,0.0061
2584.00,0.0061
2583.00,0.0061
2582.00,0.0060
2581.00,0.0060
2580.00,0.0060
2579.00,0.0060
2578.00,0.0060
2577.00,0.0060
2576.00,0.0059
2575.00,0.0059
2574.00,0.0059
2573.00,0.0058
2572.00,0.0058
2571.00,0.0059
2570.00,0.0059
2569.00,0.0059
2568.00,0.0059
2567.00,0.0059
2566.00,0.0059
2565.00,0.0060
2564.00,0.0059
2563.00,0.0059
2562.00,0.0058
2561.00,0.0058
2560.00,0.0057
2559.00,0.0057
2558.00,0.0057
2557.00,0.0056
2556.00,0.0056
2555.00,0.0056
2554.00,0.0056
2553.00,0.0056
2552.00,0.0056
2551.00,0.0056
2550.00,0.0056
2549.00,0.0056
2548.00,0.0056
2547.00,0.0056
2546.00,0.0056
2545.00,0.0056
2544.00,0.0056
2543.00,0.0056
2542.00,0.0055
2541.00,0.0055
2540.00,0.0056
2539.00,0.0056
2538.00,0.0056
2537.00,0.0056
2536.00,0.0055
2535.00,0.0055
2534.00,0.0055
2533.00,0.0055
2532.00,0.0055
2531.00,0.0055
2530.00,0.0055
2529.00,0.0055
2528.00,0.0055
2527.00,0.0055
2526.00,0.0055
2525.00,0.0055
2524.00,0.0054
2523.00,0.0054
2522.00,0.0054
2521.00,0.0053
2520.00,0.0053
2519.00,0.0053
2518.00,0.0053
2517.00,0.0053
2516.00,0.0052
2515.00,0.0052
2514.00,0.0052
2513.00,0.0051
2512.00,0.0051
2511.00,0.0052
2510.00,0.0052
2509.00,0.0052
2508.00,0.0052
2507.00,0.0051
2506.00,0.0051
2505.00,0.0051
2504.00,0.0051
2503.00,0.0051
2502.00,0.0051
2501.00,0.0051
2500.00,0.0051
2499.00,0.0051
2498.00,0.0051
2497.00,0.0050
2496.00,0.0050
2495.00,0.0050
2494.00,0.0050
2493.00,0.0050
2492.00,0.0049
2491.00,0.0049
2490.00,0.0049
2489.00,0.0049
2488.00,0.0049
2487.00,0.0049
2486.00,0.0049
2485.00,0.0049
2484.00,0.0049
2483.00,0.0050
2482.00,0.0050
2481.00,0.0050
2480.00,0.0050
2479.00,0.0050
2478.00,0.0050
2477.00,0.0049
2476.00,0.0049
2475.00,0.0049
2474.00,0.0049
2473.00,0.0049
2472.00,0.0049
2471.00,0.0049
2470.00,0.0049
2469.00,0.0049
2468.00,0.0049
2467.00,0.0049
2466.00,0.0049
2465.00,0.0050
2464.00,0.0050
2463.00,0.0050
2462.00,0.0050
2461.00,0.0049
2460.00,0.0050
2459.00,0.0050
2458.00,0.0050
2457.00,0.0050
2456.00,0.0050
2455.00,0.0051
2454.00,0.0051
2453.00,0.0051
2452.00,0.0050
2451.00,0.0050
2450.00,0.0050
2449.00,0.0050
2448.00,0.0050
2447.00,0.0050
2446.00,0.0050
2445.00,0.0049
2444.00,0.0049
2443.00,0.0049
2442.00,0.0049
2441.00,0.0049
2440.00,0.0049
2439.00,0.0049
2438.00,0.0048
2437.00,0.0048
2436.00,0.0048
2435.00,0.0048
2434.00,0.0048
2433.00,0.0048
2432.00,0.0048
2431.00,0.0048
2430.00,0.0048
2429.00,0.0048
2428.00,0.0048
2427.00,0.0047
2426.00,0.0047
2425.00,0.0047
2424.00,0.0047
2423.00,0.0046
2422.00,0.0046
2421.00,0.0046
2420.00,0.0046
2419.00,0.0046
2418.00,0.0046
2417.00,0.0046
2416.00,0.0047
2415.00,0.0047
2414.00,0.0047
2413.00,0.0047
2412.00,0.0047
2411.00,0.0047
2410.00,0.0047
2409.00,0.0047
2408.00,0.0047
2407.00,0.0047
2406.00,0.0046
2405.00,0.0046
2404.00,0.0046
2403.00,0.0047
2402.00,0.0046
2401.00,0.0046
2400.00,0.0046
2399.00,0.0046
2398.00,0.0047
2397.00,0.0047
2396.00,0.0047
2395.00,0.0047
2394.00,0.0046
2393.00,0.0046
2392.00,0.0046
2391.00,0.0046
2390.00,0.0046
2389.00,0.0046
2388.00,0.0046
2387.00,0.0046
2386.00,0.0045
2385.00,0.0045
2384.00,0.0045
2383.00,0.0044
2382.00,0.0044
2381.00,0.0043
2380.00,0.0043
2379.00,0.0043
2378.00,0.0042
2377.00,0.0042
2376.00,0.0042
2375.00,0.0043
2374.00,0.0043
2373.00,0.0043
2372.00,0.0042
2371.00,0.0042
2370.00,0.0041
2369.00,0.0041
2368.00,0.0041
2367.00,0.0041
2366.00,0.0042
2365.00,0.0042
2364.00,0.0043
2363.00,0.0043
2362.00,0.0043
2361.00,0.0043
2360.00,0.0043
2359.00,0.0043
2358.00,0.0043
2357.00,0.0043
2356.00,0.0043
2355.00,0.0043
2354.00,0.0043
2353.00,0.0044
2352.00,0.0043
2351.00,0.0043
2350.00,0.0043
2349.00,0.0043
2348.00,0.0044
2347.00,0.0045
2346.00,0.0046
2345.00,0.0046
2344.00,0.0046
2343.00,0.0045
2342.00,0.0045
2341.00,0.0045
2340.00,0.0046
2339.00,0.0046
2338.00,0.0047
2337.00,0.0047
2336.00,0.0046
2335.00,0.0046
2334.00,0.0046
2333.00,0.0046
2332.00,0.0046
2331.00,0.0046
2330.00,0.0047
2329.00,0.0048
2328.00,0.0051
2327.00,0.0054
2326.00,0.0057
2325.00,0.0058
2324.00,0.0057
2323.00,0.0056
2322.00,0.0054
2321.00,0.0052
2320.00,0.0051
2319.00,0.0051
2318.00,0.0050
2317.00,0.0050
2316.00,0.0050
2315.00,0.0050
2314.00,0.0050
2313.00,0.0049
2312.00,0.0049
2311.00,0.0048
2310.00,0.0048
2309.00,0.0048
2308.00,0.0048
2307.00,0.0048
2306.00,0.0049
2305.00,0.0049
2304.00,0.0050
2303.00,0.0050
2302.00,0.0050
2301.00,0.0050
2300.00,0.0050
2299.00,0.0051
2298.00,0.0052
2297.00,0.0053
2296.00,0.0054
2295.00,0.0055
2294.00,0.0055
2293.00,0.0056
2292.00,0.0056
2291.00,0.0057
2290.00,0.0058
2289.00,0.0059
2288.00,0.0060
2287.00,0.0060
2286.00,0.0059
2285.00,0.0058
2284.00,0.0057
2283.00,0.0057
2282.00,0.0056
2281.00,0.0056
2280.00,0.0055
2279.00,0.0055
2278.00,0.0054
2277.00,0.0053
2276.00,0.0053
2275.00,0.0053
2274.00,0.0053
2273.00,0.0052
2272.00,0.0052
2271.00,0.0052
2270.00,0.0051
2269.00,0.0050
2268.00,0.0049
2267.00,0.0048
2266.00,0.0048
2265.00,0.0048
2264.00,0.0049
2263.00,0.0049
2262.00,0.0049
2261.00,0.0049
2260.00,0.0050
2259.00,0.0051
2258.00,0.0051
2257.00,0.0050
2256.00,0.0049
2255.00,0.0047
2254.00,0.0047
2253.00,0.0047
2252.00,0.0048
2251.00,0.0048
2250.00,0.0049
2249.00,0.0049
2248.00,0.0049
2247.00,0.0049
2246.00,0.0048
2245.00,0.0048
2244.00,0.0048
2243.00,0.0048
2242.00,0.0048
2241.00,0.0048
2240.00,0.0048
2239.00,0.0048
2238.00,0.0048
2237.00,0.0049
2236.00,0.0050
2235.00,0.0051
2234.00,0.0051
2233.00,0.0051
2232.00,0.0051
2231.00,0.0050
2230.00,0.0050
2229.00,0.0049
2228.00,0.0049
2227.00,0.0049
2226.00,0.0048
2225.00,0.0048
2224.00,0.0049
2223.00,0.0049
2222.00,0.0049
2221.00,0.0049
2220.00,0.0049
2219.00,0.0049
2218.00,0.0048
2217.00,0.0048
2216.00,0.0049
2215.00,0.0049
2214.00,0.0050
2213.00,0.0050
2212.00,0.0051
2211.00,0.0051
2210.00,0.0051
2209.00,0.0051
2208.00,0.0051
2207.00,0.0051
2206.00,0.0051
2205.00,0.0051
2204.00,0.0051
2203.00,0.0051
2202.00,0.0051
2201.00,0.0051
2200.00,0.0051
2199.00,0.0051
2198.00,0.0051
2197.00,0.0050
2196.00,0.0050
2195.00,0.0050
2194.00,0.0050
2193.00,0.0050
2192.00,0.0051
2191.00,0.0052
2190.00,0.0052
2189.00,0.0052
2188.00,0.0053
2187.00,0.0054
2186.00,0.0053
2185.00,0.0051
2184.00,0.0049
2183.00,0.0047
2182.00,0.0046
2181.00,0.0046
2180.00,0.0048
2179.00,0.0048
2178.00,0.0047
2177.00,0.0045
2176.00,0.0043
2175.00,0.0043
2174.00,0.0044
2173.00,0.0047
2172.00,0.0050
2171.00,0.0054
2170.00,0.0056
2169.00,0.0058
2168.00,0.0058
2167.00,0.0057
2166.00,0.0057
2165.00,0.0058
2164.00,0.0061
2163.00,0.0062
2162.00,0.0058
2161.00,0.0049
2160.00,0.0038
2159.00,0.0028
2158.00,0.0023
2157.00,0.0023
2156.00,0.0025
2155.00,0.0027
2154.00,0.0029
2153.00,0.0031
2152.00,0.0032
2151.00,0.0033
2150.00,0.0033
2149.00,0.0033
2148.00,0.0032
2147.00,0.0033
2146.00,0.0033
2145.00,0.0033
2144.00,0.0034
2143.00,0.0034
2142.00,0.0034
2141.00,0.0035
2140.00,0.0035
2139.00,0.0035
2138.00,0.0034
2137.00,0.0031
2136.00,0.0029
2135.00,0.0028
2134.00,0.0028
2133.00,0.0029
2132.00,0.0031
2131.00,0.0033
2130.00,0.0035
2129.00,0.0036
2128.00,0.0037
2127.00,0.0038
2126.00,0.0039
2125.00,0.0039
2124.00,0.0040
2123.00,0.0040
2122.00,0.0041
2121.00,0.0041
2120.00,0.0042
2119.00,0.0043
2118.00,0.0044
2117.00,0.0045
2116.00,0.0047
2115.00,0.0047
2114.00,0.0046
2113.00,0.0045
2112.00,0.0045
2111.00,0.0045
2110.00,0.0045
2109.00,0.0046
2108.00,0.0046
2107.00,0.0046
2106.00,0.0045
2105.00,0.0045
2104.00,0.0046
2103.00,0.0046
2102.00,0.0046
2101.00,0.0046
2100.00,0.0046
2099.00,0.0046
2098.00,0.0045
2097.00,0.0043
2096.00,0.0042
2095.00,0.0040
2094.00,0.0040
2093.00,0.0040
2092.00,0.0041
2091.00,0.0043
2090.00,0.0044
2089.00,0.0045
2088.00,0.0045
2087.00,0.0046
2086.00,0.0046
2085.00,0.0047
2084.00,0.0047
2083.00,0.0048
2082.00,0.0048
2081.00,0.0048
2080.00,0.0049
2079.00,0.0049
2078.00,0.0048
2077.00,0.0047
2076.00,0.0047
2075.00,0.0047
2074.00,0.0046
2073.00,0.0046
2072.00,0.0045
2071.00,0.0045
2070.00,0.0045
2069.00,0.0045
2068.00,0.0046
2067.00,0.0046
2066.00,0.0045
2065.00,0.0044
2064.00,0.0044
2063.00,0.0044
2062.00,0.0043
2061.00,0.0043
2060.00,0.0043
2059.00,0.0043
2058.00,0.0042
2057.00,0.0041
2056.00,0.0040
2055.00,0.0041
2054.00,0.0043
2053.00,0.0047
2052.00,0.0051
2051.00,0.0051
2050.00,0.0048
2049.00,0.0045
2048.00,0.0043
2047.00,0.0042
2046.00,0.0042
2045.00,0.0042
2044.00,0.0043
2043.00,0.0044
2042.00,0.0043
2041.00,0.0042
2040.00,0.0041
2039.00,0.0041
2038.00,0.0041
2037.00,0.0042
2036.00,0.0042
2035.00,0.0041
2034.00,0.0039
2033.00,0.0038
2032.00,0.0037
2031.00,0.0037
2030.00,0.0036
2029.00,0.0035
2028.00,0.0035
2027.00,0.0035
2026.00,0.0035
2025.00,0.0035
2024.00,0.0036
2023.00,0.0037
2022.00,0.0036
2021.00,0.0036
2020.00,0.0036
2019.00,0.0036
2018.00,0.0035
2017.00,0.0035
2016.00,0.0034
2015.00,0.0034
2014.00,0.0032
2013.00,0.0032
2012.00,0.0033
2011.00,0.0034
2010.00,0.0033
2009.00,0.0032
2008.00,0.0030
2007.00,0.0028
2006.00,0.0026
2005.00,0.0026
2004.00,0.0028
2003.00,0.0030
2002.00,0.0030
2001.00,0.0031
2000.00,0.0032
1999.00,0.0034
1998.00,0.0035
1997.00,0.0037
1996.00,0.0038
1995.00,0.0039
1994.00,0.0039
1993.00,0.0039
1992.00,0.0040
1991.00,0.0041
1990.00,0.0041
1989.00,0.0041
1988.00,0.0041
1987.00,0.0041
1986.00,0.0042
1985.00,0.0044
1984.00,0.0046
1983.00,0.0049
1982.00,0.0051
1981.00,0.0051
1980.00,0.0049
1979.00,0.0043
1978.00,0.0036
1977.00,0.0031
1976.00,0.0030
1975.00,0.0031
1974.00,0.0031
1973.00,0.0031
1972.00,0.0031
1971.00,0.0030
1970.00,0.0028
1969.00,0.0027
1968.00,0.0028
1967.00,0.0029
1966.00,0.0031
1965.00,0.0033
1964.00,0.0033
1963.00,0.0032
1962.00,0.0030
1961.00,0.0027
1960.00,0.0027
1959.00,0.0027
1958.00,0.0028
1957.00,0.0030
1956.00,0.0032
1955.00,0.0033
1954.00,0.0033
1953.00,0.0032
1952.00,0.0033
1951.00,0.0033
1950.00,0.0033
1949.00,0.0033
1948.00,0.0034
1947.00,0.0034
1946.00,0.0033
1945.00,0.0032
1944.00,0.0032
1943.00,0.0032
1942.00,0.0032
1941.00,0.0033
1940.00,0.0035
1939.00,0.0036
1938.00,0.0036
1937.00,0.0036
1936.00,0.0036
1935.00,0.0036
1934.00,0.0035
1933.00,0.0035
1932.00,0.0035
1931.00,0.0036
1930.00,0.0036
1929.00,0.0036
1928.00,0.0037
1927.00,0.0036
1926.00,0.0036
1925.00,0.0036
1924.00,0.0036
1923.00,0.0037
1922.00,0.0038
1921.00,0.0038
1920.00,0.0038
1919.00,0.0038
1918.00,0.0037
1917.00,0.0037
1916.00,0.0038
1915.00,0.0039
1914.00,0.0040
1913.00,0.0041
1912.00,0.0042
1911.00,0.0044
1910.00,0.0046
1909.00,0.0047
1908.00,0.0048
1907.00,0.0048
1906.00,0.0046
1905.00,0.0045
1904.00,0.0044
1903.00,0.0043
1902.00,0.0043
1901.00,0.0043
1900.00,0.0043
1899.00,0.0043
1898.00,0.0043
1897.00,0.0043
1896.00,0.0044
1895.00,0.0045
1894.00,0.0045
1893.00,0.0044
1892.00,0.0044
1891.00,0.0043
1890.00,0.0042
1889.00,0.0042
1888.00,0.0043
1887.00,0.0043
1886.00,0.0043
1885.00,0.0043
1884.00,0.0042
1883.00,0.0042
1882.00,0.0042
1881.00,0.0042
1880.00,0.0042
1879.00,0.0042
1878.00,0.0042
1877.00,0.0042
1876.00,0.0042
1875.00,0.0042
1874.00,0.0042
1873.00,0.0041
1872.00,0.0041
1871.00,0.0041
1870.00,0.0041
1869.00,0.0041
1868.00,0.0041
1867.00,0.0042
1866.00,0.0042
1865.00,0.0043
1864.00,0.0043
1863.00,0.0043
1862.00,0.0043
1861.00,0.0043
1860.00,0.0044
1859.00,0.0044
1858.00,0.0044
1857.00,0.0044
1856.00,0.0045
1855.00,0.0045
1854.00,0.0045
1853.00,0.0045
1852.00,0.0045
1851.00,0.0046
1850.00,0.0046
1849.00,0.0046
1848.00,0.0047
1847.00,0.0047
1846.00,0.0046
1845.00,0.0045
1844.00,0.0045
1843.00,0.0045
1842.00,0.0045
1841.00,0.0045
1840.00,0.0045
1839.00,0.0045
1838.00,0.0045
1837.00,0.0045
1836.00,0.0045
1835.00,0.0045
1834.00,0.0045
1833.00,0.0045
1832.00,0.0044
1831.00,0.0043
1830.00,0.0042
1829.00,0.0042
1828.00,0.0042
1827.00,0.0043
1826.00,0.0043
1825.00,0.0043
1824.00,0.0044
1823.00,0.0045
1822.00,0.0045
1821.00,0.0045
1820.00,0.0045
1819.00,0.0045
1818.00,0.0044
1817.00,0.0043
1816.00,0.0044
1815.00,0.0045
1814.00,0.0045
1813.00,0.0045
1812.00,0.0046
1811.00,0.0046
1810.00,0.0046
1809.00,0.0046
1808.00,0.0047
1807.00,0.0048
1806.00,0.0048
1805.00,0.0048
1804.00,0.0048
1803.00,0.0048
1802.00,0.0048
1801.00,0.0048
1800.00,0.0048
1799.00,0.0049
1798.00,0.0050
1797.00,0.0050
1796.00,0.0051
1795.00,0.0051
1794.00,0.0051
1793.00,0.0050
1792.00,0.0050
1791.00,0.0050
1790.00,0.0051
1789.00,0.0052
1788.00,0.0052
1787.00,0.0052
1786.00,0.0052
1785.00,0.0052
1784.00,0.0052
1783.00,0.0053
1782.00,0.0053
1781.00,0.0053
1780.00,0.0054
1779.00,0.0055
1778.00,0.0055
1777.00,0.0056
1776.00,0.0057
1775.00,0.0057
1774.00,0.0057
1773.00,0.0057
1772.00,0.0057
1771.00,0.0058
1770.00,0.0057
1769.00,0.0057
1768.00,0.0057
1767.00,0.0058
1766.00,0.0059
1765.00,0.0059
1764.00,0.0059
1763.00,0.0059
1762.00,0.0059
1761.00,0.0060
1760.00,0.0061
1759.00,0.0062
1758.00,0.0061
1757.00,0.0061
1756.00,0.0061
1755.00,0.0061
1754.00,0.0061
1753.00,0.0061
1752.00,0.0061
1751.00,0.0061
1750.00,0.0061
1749.00,0.0062
1748.00,0.0062
1747.00,0.0064
1746.00,0.0064
1745.00,0.0065
1744.00,0.0066
1743.00,0.0067
1742.00,0.0067
1741.00,0.0067
1740.00,0.0068
1739.00,0.0069
1738.00,0.0071
1737.00,0.0072
1736.00,0.0073
1735.00,0.0074
1734.00,0.0075
1733.00,0.0078
1732.00,0.0081
1731.00,0.0083
1730.00,0.0083
1729.00,0.0084
1728.00,0.0087
1727.00,0.0089
1726.00,0.0090
1725.00,0.0092
1724.00,0.0094
1723.00,0.0096
1722.00,0.0097
1721.00,0.0098
1720.00,0.0099
1719.00,0.0101
1718.00,0.0103
1717.00,0.0107
1716.00,0.0112
1715.00,0.0117
1714.00,0.0120
1713.00,0.0123
1712.00,0.0127
1711.00,0.0132
1710.00,0.0137
1709.00,0.0142
1708.00,0.0147
1707.00,0.0153
1706.00,0.0160
1705.00,0.0168
1704.00,0.0177
1703.00,0.0185
1702.00,0.0193
1701.00,0.0204
1700.00,0.0221
1699.00,0.0239
1698.00,0.0256
1697.00,0.0275
1696.00,0.0299
1695.00,0.0325
1694.00,0.0347
1693.00,0.0367
1692.00,0.0388
1691.00,0.0411
1690.00,0.0436
1689.00,0.0463
1688.00,0.0488
1687.00,0.0513
1686.00,0.0538
1685.00,0.0565
1684.00,0.0595
1683.00,0.0622
1682.00,0.0644
1681.00,0.0666
1680.00,0.0689
1679.00,0.0712
1678.00,0.0733
1677.00,0.0753
1676.00,0.0774
1675.00,0.0794
1674.00,0.0815
1673.00,0.0836
1672.00,0.0858
1671.00,0.0881
1670.00,0.0902
1669.00,0.0923
1668.00,0.0945
1667.00,0.0968
1666.00,0.0991
1665.00,0.1014
1664.00,0.1035
1663.00,0.1054
1662.00,0.1069
1661.00,0.1084
1660.00,0.1101
1659.00,0.1117
1658.00,0.1132
1657.00,0.1147
1656.00,0.1163
1655.00,0.1177
1654.00,0.1179
1653.00,0.1163
1652.00,0.1153
1651.00,0.1156
1650.00,0.1164
1649.00,0.1169
1648.00,0.1169
1647.00,0.1159
1646.00,0.1143
1645.00,0.1130
1644.00,0.1121
1643.00,0.1110
1642.00,0.1094
1641.00,0.1072
1640.00,0.1049
1639.00,0.1026
1638.00,0.1003
1637.00,0.0975
1636.00,0.0940
1635.00,0.0908
1634.00,0.0888
1633.00,0.0882
1632.00,0.0883
1631.00,0.0887
1630.00,0.0894
1629.00,0.0906
1628.00,0.0923
1627.00,0.0943
1626.00,0.0962
1625.00,0.0979
1624.00,0.0991
1623.00,0.0998
1622.00,0.0994
1621.00,0.0982
1620.00,0.0963
1619.00,0.0936
1618.00,0.0895
1617.00,0.0842
1616.00,0.0790
1615.00,0.0753
1614.00,0.0731
1613.00,0.0716
1612.00,0.0704
1611.00,0.0692
1610.00,0.0674
1609.00,0.0650
1608.00,0.0620
1607.00,0.0586
1606.00,0.0551
1605.00,0.0515
1604.00,0.0481
1603.00,0.0448
1602.00,0.0419
1601.00,0.0393
1600.00,0.0372
1599.00,0.0354
1598.00,0.0342
1597.00,0.0334
1596.00,0.0330
1595.00,0.0331
1594.00,0.0337
1593.00,0.0349
1592.00,0.0367
1591.00,0.0390
1590.00,0.0419
1589.00,0.0450
1588.00,0.0480
1587.00,0.0508
1586.00,0.0529
1585.00,0.0543
1584.00,0.0550
1583.00,0.0550
1582.00,0.0545
1581.00,0.0534
1580.00,0.0520
1579.00,0.0504
1578.00,0.0484
1577.00,0.0459
1576.00,0.0430
1575.00,0.0405
1574.00,0.0386
1573.00,0.0371
1572.00,0.0358
1571.00,0.0344
1570.00,0.0329
1569.00,0.0315
1568.00,0.0304
1567.00,0.0293
1566.00,0.0281
1565.00,0.0266
1564.00,0.0252
1563.00,0.0240
1562.00,0.0229
1561.00,0.0219
1560.00,0.0205
1559.00,0.0189
1558.00,0.0179
1557.00,0.0175
1556.00,0.0172
1555.00,0.0170
1554.00,0.0168
1553.00,0.0165
1552.00,0.0162
1551.00,0.0160
1550.00,0.0157
1549.00,0.0155
1548.00,0.0153
1547.00,0.0151
1546.00,0.0148
1545.00,0.0145
1544.00,0.0143
1543.00,0.0140
1542.00,0.0138
1541.00,0.0135
1540.00,0.0134
1539.00,0.0134
1538.00,0.0135
1537.00,0.0134
1536.00,0.0132
1535.00,0.0128
1534.00,0.0124
1533.00,0.0122
1532.00,0.0120
1531.00,0.0120
1530.00,0.0119
1529.00,0.0118
1528.00,0.0115
1527.00,0.0112
1526.00,0.0109
1525.00,0.0107
1524.00,0.0106
1523.00,0.0106
1522.00,0.0109
1521.00,0.0114
1520.00,0.0120
1519.00,0.0126
1518.00,0.0132
1517.00,0.0138
1516.00,0.0146
1515.00,0.0153
1514.00,0.0160
1513.00,0.0167
1512.00,0.0173
1511.00,0.0179
1510.00,0.0184
1509.00,0.0188
1508.00,0.0193
1507.00,0.0201
1506.00,0.0212
1505.00,0.0224
1504.00,0.0236
1503.00,0.0249
1502.00,0.0265
1501.00,0.0285
1500.00,0.0310
1499.00,0.0341
1498.00,0.0376
1497.00,0.0410
1496.00,0.0433
1495.00,0.0440
1494.00,0.0434
1493.00,0.0420
1492.00,0.0399
1491.00,0.0372
1490.00,0.0343
1489.00,0.0316
1488.00,0.0293
1487.00,0.0273
1486.00,0.0257
1485.00,0.0243
1484.00,0.0232
1483.00,0.0223
1482.00,0.0215
1481.00,0.0210
1480.00,0.0207
1479.00,0.0207
1478.00,0.0208
1477.00,0.0211
1476.00,0.0218
1475.00,0.0226
1474.00,0.0240
1473.00,0.0263
1472.00,0.0294
1471.00,0.0330
1470.00,0.0368
1469.00,0.0408
1468.00,0.0451
1467.00,0.0494
1466.00,0.0537
1465.00,0.0577
1464.00,0.0608
1463.00,0.0629
1462.00,0.0641
1461.00,0.0648
1460.00,0.0647
1459.00,0.0637
1458.00,0.0613
1457.00,0.0575
1456.00,0.0539
1455.00,0.0515
1454.00,0.0502
1453.00,0.0495
1452.00,0.0493
1451.00,0.0498
1450.00,0.0508
1449.00,0.0524
1448.00,0.0546
1447.00,0.0573
1446.00,0.0604
1445.00,0.0639
1444.00,0.0676
1443.00,0.0713
1442.00,0.0747
1441.00,0.0778
1440.00,0.0805
1439.00,0.0827
1438.00,0.0843
1437.00,0.0856
1436.00,0.0865
1435.00,0.0873
1434.00,0.0882
1433.00,0.0893
1432.00,0.0902
1431.00,0.0909
1430.00,0.0917
1429.00,0.0927
1428.00,0.0938
1427.00,0.0950
1426.00,0.0961
1425.00,0.0972
1424.00,0.0979
1423.00,0.0979
1422.00,0.0974
1421.00,0.0960
1420.00,0.0930
1419.00,0.0882
1418.00,0.0828
1417.00,0.0779
1416.00,0.0735
1415.00,0.0692
1414.00,0.0653
1413.00,0.0618
1412.00,0.0589
1411.00,0.0565
1410.00,0.0549
1409.00,0.0541
1408.00,0.0538
1407.00,0.0540
1406.00,0.0548
1405.00,0.0559
1404.00,0.0572
1403.00,0.0582
1402.00,0.0589
1401.00,0.0589
1400.00,0.0583
1399.00,0.0569
1398.00,0.0551
1397.00,0.0529
1396.00,0.0502
1395.00,0.0472
1394.00,0.0444
1393.00,0.0421
1392.00,0.0403
1391.00,0.0390
1390.00,0.0383
1389.00,0.0385
1388.00,0.0394
1387.00,0.0406
1386.00,0.0415
1385.00,0.0418
1384.00,0.0419
1383.00,0.0422
1382.00,0.0432
1381.00,0.0448
1380.00,0.0465
1379.00,0.0480
1378.00,0.0492
1377.00,0.0497
1376.00,0.0494
1375.00,0.0484
1374.00,0.0468
1373.00,0.0454
1372.00,0.0443
1371.00,0.0437
1370.00,0.0436
1369.00,0.0440
1368.00,0.0450
1367.00,0.0462
1366.00,0.0473
1365.00,0.0479
1364.00,0.0480
1363.00,0.0483
1362.00,0.0490
1361.00,0.0500
1360.00,0.0503
1359.00,0.0494
1358.00,0.0474
1357.00,0.0449
1356.00,0.0424
1355.00,0.0403
1354.00,0.0388
1353.00,0.0377
1352.00,0.0368
1351.00,0.0361
1350.00,0.0357
1349.00,0.0354
1348.00,0.0350
1347.00,0.0344
1346.00,0.0337
1345.00,0.0328
1344.00,0.0320
1343.00,0.0314
1342.00,0.0309
1341.00,0.0305
1340.00,0.0300
1339.00,0.0295
1338.00,0.0291
1337.00,0.0288
1336.00,0.0287
1335.00,0.0291
1334.00,0.0299
1333.00,0.0311
1332.00,0.0323
1331.00,0.0336
1330.00,0.0348
1329.00,0.0358
1328.00,0.0368
1327.00,0.0376
1326.00,0.0384
1325.00,0.0392
1324.00,0.0399
1323.00,0.0405
1322.00,0.0410
1321.00,0.0415
1320.00,0.0419
1319.00,0.0421
1318.00,0.0422
1317.00,0.0422
1316.00,0.0421
1315.00,0.0418
1314.00,0.0414
1313.00,0.0409
1312.00,0.0405
1311.00,0.0403
1310.00,0.0404
1309.00,0.0410
1308.00,0.0420
1307.00,0.0436
1306.00,0.0458
1305.00,0.0485
1304.00,0.0517
1303.00,0.0551
1302.00,0.0586
1301.00,0.0619
1300.00,0.0647
1299.00,0.0673
1298.00,0.0700
1297.00,0.0733
1296.00,0.0772
1295.00,0.0815
1294.00,0.0861
1293.00,0.0904
1292.00,0.0943
1291.00,0.0977
1290.00,0.1005
1289.00,0.1030
1288.00,0.1050
1287.00,0.1067
1286.00,0.1080
1285.00,0.1086
1284.00,0.1085
1283.00,0.1076
1282.00,0.1059
1281.00,0.1036
1280.00,0.1009
1279.00,0.0982
1278.00,0.0958
1277.00,0.0939
1276.00,0.0923
1275.00,0.0910
1274.00,0.0897
1273.00,0.0883
1272.00,0.0866
1271.00,0.0846
1270.00,0.0822
1269.00,0.0795
1268.00,0.0766
1267.00,0.0734
1266.00,0.0700
1265.00,0.0666
1264.00,0.0633
1263.00,0.0600
1262.00,0.0569
1261.00,0.0540
1260.00,0.0515
1259.00,0.0493
1258.00,0.0476
1257.00,0.0463
1256.00,0.0454
1255.00,0.0448
1254.00,0.0445
1253.00,0.0445
1252.00,0.0446
1251.00,0.0451
1250.00,0.0458
1249.00,0.0468
1248.00,0.0481
1247.00,0.0496
1246.00,0.0512
1245.00,0.0530
1244.00,0.0547
1243.00,0.0564
1242.00,0.0581
1241.00,0.0598
1240.00,0.0615
1239.00,0.0635
1238.00,0.0656
1237.00,0.0678
1236.00,0.0699
1235.00,0.0715
1234.00,0.0726
1233.00,0.0728
1232.00,0.0722
1231.00,0.0709
1230.00,0.0692
1229.00,0.0674
1228.00,0.0656
1227.00,0.0642
1226.00,0.0630
1225.00,0.0621
1224.00,0.0614
1223.00,0.0609
1222.00,0.0606
1221.00,0.0605
1220.00,0.0608
1219.00,0.0614
1218.00,0.0625
1217.00,0.0637
1216.00,0.0649
1215.00,0.0657
1214.00,0.0658
1213.00,0.0649
1212.00,0.0632
1211.00,0.0608
1210.00,0.0581
1209.00,0.0555
1208.00,0.0530
1207.00,0.0510
1206.00,0.0494
1205.00,0.0483
1204.00,0.0477
1203.00,0.0476
1202.00,0.0479
1201.00,0.0485
1200.00,0.0495
1199.00,0.0508
1198.00,0.0525
1197.00,0.0545
1196.00,0.0565
1195.00,0.0581
1194.00,0.0588
1193.00,0.0586
1192.00,0.0575
1191.00,0.0557
1190.00,0.0535
1189.00,0.0509
1188.00,0.0483
1187.00,0.0456
1186.00,0.0432
1185.00,0.0411
1184.00,0.0393
1183.00,0.0380
1182.00,0.0371
1181.00,0.0365
1180.00,0.0361
1179.00,0.0359
1178.00,0.0359
1177.00,0.0359
1176.00,0.0360
1175.00,0.0360
1174.00,0.0361
1173.00,0.0360
1172.00,0.0358
1171.00,0.0354
1170.00,0.0349
1169.00,0.0342
1168.00,0.0335
1167.00,0.0328
1166.00,0.0323
1165.00,0.0319
1164.00,0.0318
1163.00,0.0320
1162.00,0.0326
1161.00,0.0337
1160.00,0.0354
1159.00,0.0377
1158.00,0.0406
1157.00,0.0439
1156.00,0.0470
1155.00,0.0493
1154.00,0.0501
1153.00,0.0492
1152.00,0.0467
1151.00,0.0428
1150.00,0.0383
1149.00,0.0335
1148.00,0.0290
1147.00,0.0252
1146.00,0.0224
1145.00,0.0206
1144.00,0.0196
1143.00,0.0194
1142.00,0.0198
1141.00,0.0204
1140.00,0.0211
1139.00,0.0219
1138.00,0.0229
1137.00,0.0244
1136.00,0.0264
1135.00,0.0293
1134.00,0.0332
1133.00,0.0381
1132.00,0.0436
1131.00,0.0493
1130.00,0.0545
1129.00,0.0581
1128.00,0.0599
1127.00,0.0599
1126.00,0.0584
1125.00,0.0558
1124.00,0.0524
1123.00,0.0486
1122.00,0.0448
1121.00,0.0414
1120.00,0.0385
1119.00,0.0363
1118.00,0.0347
1117.00,0.0338
1116.00,0.0331
1115.00,0.0328
1114.00,0.0325
1113.00,0.0320
1112.00,0.0314
1111.00,0.0308
1110.00,0.0303
1109.00,0.0301
1108.00,0.0301
1107.00,0.0305
1106.00,0.0315
1105.00,0.0329
1104.00,0.0349
1103.00,0.0376
1102.00,0.0407
1101.00,0.0434
1100.00,0.0452
1099.00,0.0456
1098.00,0.0445
1097.00,0.0422
1096.00,0.0394
1095.00,0.0365
1094.00,0.0340
1093.00,0.0320
1092.00,0.0304
1091.00,0.0291
1090.00,0.0282
1089.00,0.0275
1088.00,0.0269
1087.00,0.0264
1086.00,0.0261
1085.00,0.0258
1084.00,0.0255
1083.00,0.0253
1082.00,0.0253
1081.00,0.0253
1080.00,0.0255
1079.00,0.0257
1078.00,0.0262
1077.00,0.0267
1076.00,0.0273
1075.00,0.0279
1074.00,0.0285
1073.00,0.0291
1072.00,0.0296
1071.00,0.0302
1070.00,0.0309
1069.00,0.0316
1068.00,0.0325
1067.00,0.0335
1066.00,0.0347
1065.00,0.0360
1064.00,0.0377
1063.00,0.0398
1062.00,0.0426
1061.00,0.0460
1060.00,0.0503
1059.00,0.0554
1058.00,0.0613
1057.00,0.0675
1056.00,0.0734
1055.00,0.0785
1054.00,0.0820
1053.00,0.0839
1052.00,0.0842
1051.00,0.0832
1050.00,0.0811
1049.00,0.0777
1048.00,0.0731
1047.00,0.0676
1046.00,0.0616
1045.00,0.0558
1044.00,0.0505
1043.00,0.0461
1042.00,0.0427
1041.00,0.0402
1040.00,0.0385
1039.00,0.0378
1038.00,0.0381
1037.00,0.0392
1036.00,0.0409
1035.00,0.0433
1034.00,0.0462
1033.00,0.0495
1032.00,0.0534
1031.00,0.0581
1030.00,0.0633
1029.00,0.0686
1028.00,0.0732
1027.00,0.0760
1026.00,0.0766
1025.00,0.0748
1024.00,0.0713
1023.00,0.0669
1022.00,0.0626
1021.00,0.0587
1020.00,0.0552
1019.00,0.0520
1018.00,0.0489
1017.00,0.0456
1016.00,0.0422
1015.00,0.0389
1014.00,0.0360
1013.00,0.0338
1012.00,0.0324
1011.00,0.0321
1010.00,0.0328
1009.00,0.0343
1008.00,0.0364
1007.00,0.0389
1006.00,0.0415
1005.00,0.0439
1004.00,0.0456
1003.00,0.0465
1002.00,0.0464
1001.00,0.0456
1000.00,0.0443
999.00,0.0429
998.00,0.0416
997.00,0.0403
996.00,0.0392
995.00,0.0381
994.00,0.0372
993.00,0.0362
992.00,0.0350
991.00,0.0337
990.00,0.0324
989.00,0.0312
988.00,0.0301
987.00,0.0291
986.00,0.0281
985.00,0.0272
984.00,0.0263
983.00,0.0255
982.00,0.0248
981.00,0.0242
980.00,0.0238
979.00,0.0236
978.00,0.0236
977.00,0.0237
976.00,0.0237
975.00,0.0236
974.00,0.0234
973.00,0.0232
972.00,0.0229
971.00,0.0227
970.00,0.0225
969.00,0.0224
968.00,0.0225
967.00,0.0227
966.00,0.0233
965.00,0.0242
964.00,0.0251
963.00,0.0261
962.00,0.0270
961.00,0.0275
960.00,0.0275
959.00,0.0272
958.00,0.0268
957.00,0.0264
956.00,0.0260
955.00,0.0255
954.00,0.0252
953.00,0.0249
952.00,0.0245
951.00,0.0243
950.00,0.0243
949.00,0.0242
948.00,0.0241
947.00,0.0238
946.00,0.0234
945.00,0.0231
944.00,0.0228
943.00,0.0229
942.00,0.0232
941.00,0.0237
940.00,0.0242
939.00,0.0249
938.00,0.0256
937.00,0.0264
936.00,0.0270
935.00,0.0276
934.00,0.0281
933.00,0.0284
932.00,0.0282
931.00,0.0278
930.00,0.0271
929.00,0.0265
928.00,0.0260
927.00,0.0257
926.00,0.0257
925.00,0.0259
924.00,0.0262
923.00,0.0264
922.00,0.0263
921.00,0.0258
920.00,0.0246
919.00,0.0233
918.00,0.0220
917.00,0.0210
916.00,0.0203
915.00,0.0198
914.00,0.0195
913.00,0.0192
912.00,0.0190
911.00,0.0188
910.00,0.0189
909.00,0.0191
908.00,0.0195
907.00,0.0201
906.00,0.0210
905.00,0.0222
904.00,0.0236
903.00,0.0254
902.00,0.0278
901.00,0.0304
900.00,0.0331
899.00,0.0353
898.00,0.0368
897.00,0.0374
896.00,0.0372
895.00,0.0366
894.00,0.0362
893.00,0.0364
892.00,0.0370
891.00,0.0380
890.00,0.0386
889.00,0.0384
888.00,0.0373
887.00,0.0361
886.00,0.0352
885.00,0.0348
884.00,0.0346
883.00,0.0342
882.00,0.0337
881.00,0.0329
880.00,0.0322
879.00,0.0320
878.00,0.0325
877.00,0.0338
876.00,0.0358
875.00,0.0384
874.00,0.0416
873.00,0.0452
872.00,0.0486
871.00,0.0516
870.00,0.0534
869.00,0.0538
868.00,0.0528
867.00,0.0508
866.00,0.0487
865.00,0.0465
864.00,0.0443
863.00,0.0419
862.00,0.0394
861.00,0.0368
860.00,0.0347
859.00,0.0338
858.00,0.0344
857.00,0.0362
856.00,0.0387
855.00,0.0415
854.00,0.0442
853.00,0.0466
852.00,0.0488
851.00,0.0510
850.00,0.0530
849.00,0.0544
848.00,0.0545
847.00,0.0535
846.00,0.0518
845.00,0.0498
844.00,0.0477
843.00,0.0458
842.00,0.0440
841.00,0.0425
840.00,0.0413
839.00,0.0410
838.00,0.0419
837.00,0.0438
836.00,0.0463
835.00,0.0488
834.00,0.0510
833.00,0.0523
832.00,0.0527
831.00,0.0521
830.00,0.0506
829.00,0.0483
828.00,0.0457
827.00,0.0432
826.00,0.0413
825.00,0.0405
824.00,0.0413
823.00,0.0441
822.00,0.0488
821.00,0.0539
820.00,0.0574
819.00,0.0592
818.00,0.0607
817.00,0.0629
816.00,0.0650
815.00,0.0650
814.00,0.0618
813.00,0.0562
812.00,0.0501
811.00,0.0449
810.00,0.0411
809.00,0.0382
808.00,0.0361
807.00,0.0347
806.00,0.0339
805.00,0.0332
804.00,0.0324
803.00,0.0314
802.00,0.0304
801.00,0.0294
800.00,0.0286
799.00,0.0280
798.00,0.0278
797.00,0.0277
796.00,0.0277
795.00,0.0276
794.00,0.0277
793.00,0.0277
792.00,0.0277
791.00,0.0277
790.00,0.0277
789.00,0.0277
788.00,0.0276
787.00,0.0275
786.00,0.0275
785.00,0.0275
784.00,0.0274
783.00,0.0273
782.00,0.0272
781.00,0.0272
780.00,0.0274
779.00,0.0279
778.00,0.0289
777.00,0.0302
776.00,0.0317
775.00,0.0330
774.00,0.0337
773.00,0.0336
772.00,0.0330
771.00,0.0322
770.00,0.0317
769.00,0.0314
768.00,0.0313
767.00,0.0314
766.00,0.0316
765.00,0.0321
764.00,0.0327
763.00,0.0334
762.00,0.0344
761.00,0.0354
760.00,0.0363
759.00,0.0370
758.00,0.0375
757.00,0.0378
756.00,0.0381
755.00,0.0383
754.00,0.0387
753.00,0.0391
752.00,0.0396
751.00,0.0401
750.00,0.0407
749.00,0.0412
748.00,0.0416
747.00,0.0419
746.00,0.0422
745.00,0.0427
744.00,0.0432
743.00,0.0440
742.00,0.0449
741.00,0.0461
740.00,0.0476
739.00,0.0496
738.00,0.0523
737.00,0.0555
736.00,0.0584
735.00,0.0604
734.00,0.0610
733.00,0.0601
732.00,0.0585
731.00,0.0573
730.00,0.0567
729.00,0.0565
728.00,0.0560
727.00,0.0549
726.00,0.0533
725.00,0.0515
724.00,0.0498
723.00,0.0486
722.00,0.0479
721.00,0.0476
720.00,0.0475
719.00,0.0479
718.00,0.0486
717.00,0.0496
716.00,0.0505
715.00,0.0511
714.00,0.0513
713.00,0.0511
712.00,0.0505
711.00,0.0499
710.00,0.0494
709.00,0.0489
708.00,0.0485
707.00,0.0484
706.00,0.0485
705.00,0.0487
704.00,0.0490
703.00,0.0495
702.00,0.0502
701.00,0.0510
700.00,0.0517
699.00,0.0525
698.00,0.0532
697.00,0.0535
696.00,0.0535
695.00,0.0534
694.00,0.0534
693.00,0.0537
692.00,0.0542
691.00,0.0551
690.00,0.0564
689.00,0.0577
688.00,0.0586
687.00,0.0590
686.00,0.0589
685.00,0.0585
684.00,0.0581
683.00,0.0579
682.00,0.0580
681.00,0.0584
680.00,0.0588
679.00,0.0595
678.00,0.0604
677.00,0.0615
676.00,0.0626
675.00,0.0639
674.00,0.0654
673.00,0.0669
672.00,0.0682
671.00,0.0692
670.00,0.0700
669.00,0.0705
668.00,0.0705
667.00,0.0705
666.00,0.0709
665.00,0.0714
664.00,0.0722
663.00,0.0732
662.00,0.0743
661.00,0.0752
660.00,0.0754
659.00,0.0753
658.00,0.0750
657.00,0.0747
656.00,0.0746
655.00,0.0749
654.00,0.0755
653.00,0.0763
652.00,0.0770
651.00,0.0776
650.00,0.0782
649.00,0.0786
648.00,0.0787
647.00,0.0787
646.00,0.0785
645.00,0.0782
644.00,0.0777
643.00,0.0771
642.00,0.0765
641.00,0.0758
640.00,0.0751
639.00,0.0744
638.00,0.0739
637.00,0.0733
636.00,0.0727
635.00,0.0721
634.00,0.0717
633.00,0.0713
632.00,0.0709
631.00,0.0706
630.00,0.0705
629.00,0.0705
628.00,0.0705
627.00,0.0705
626.00,0.0708
625.00,0.0712
624.00,0.0716
623.00,0.0722
622.00,0.0731
621.00,0.0738
620.00,0.0742
619.00,0.0743
618.00,0.0741
617.00,0.0735
616.00,0.0727
615.00,0.0719
614.00,0.0714
613.00,0.0711
612.00,0.0708
611.00,0.0706
610.00,0.0709
609.00,0.0717
608.00,0.0730
607.00,0.0747
606.00,0.0767
605.00,0.0786
604.00,0.0801
603.00,0.0812
602.00,0.0821
601.00,0.0827
600.00,0.0828
599.00,0.0829
598.00,0.0829
597.00,0.0828
596.00,0.0826
595.00,0.0825
594.00,0.0826
593.00,0.0828
592.00,0.0829
591.00,0.0830
590.00,0.0834
589.00,0.0839
588.00,0.0845
587.00,0.0853
586.00,0.0864
585.00,0.0876
584.00,0.0886
583.00,0.0897
582.00,0.0908
581.00,0.0919
580.00,0.0930
579.00,0.0943
578.00,0.0960
577.00,0.0975
576.00,0.0982
575.00,0.0980
574.00,0.0972
573.00,0.0960
572.00,0.0946
571.00,0.0933
570.00,0.0923
569.00,0.0916
568.00,0.0910
567.00,0.0907
566.00,0.0909
565.00,0.0913
564.00,0.0918
563.00,0.0926
562.00,0.0938
561.00,0.0949
560.00,0.0956
559.00,0.0957
558.00,0.0954
557.00,0.0947
556.00,0.0938
555.00,0.0930
554.00,0.0925
553.00,0.0924
552.00,0.0924
551.00,0.0929
550.00,0.0939
549.00,0.0950
548.00,0.0960
547.00,0.0968
546.00,0.0975
545.00,0.0975
544.00,0.0966
543.00,0.0953
542.00,0.0939
541.00,0.0926
540.00,0.0914
539.00,0.0905
538.00,0.0900
537.00,0.0899
536.00,0.0899
535.00,0.0903
534.00,0.0914
533.00,0.0928
532.00,0.0941
531.00,0.0951
530.00,0.0956
529.00,0.0954
528.00,0.0945
527.00,0.0934
526.00,0.0925
525.00,0.0916
524.00,0.0907
523.00,0.0899
522.00,0.0894
521.00,0.0888
520.00,0.0877
519.00,0.0866
518.00,0.0860
517.00,0.0854
516.00,0.0846
515.00,0.0841
514.00,0.0840
513.00,0.0840
512.00,0.0840
511.00,0.0841
510.00,0.0846
509.00,0.0852
508.00,0.0856
507.00,0.0861
506.00,0.0866
505.00,0.0869
504.00,0.0868
503.00,0.0865
502.00,0.0865
501.00,0.0864
500.00,0.0862
499.00,0.0862
498.00,0.0866
497.00,0.0872
496.00,0.0875
495.00,0.0880
494.00,0.0887
493.00,0.0893
492.00,0.0894
491.00,0.0894
490.00,0.0894
489.00,0.0892
488.00,0.0885
487.00,0.0880
486.00,0.0880
485.00,0.0881
484.00,0.0879
483.00,0.0877
482.00,0.0878
481.00,0.0879
480.00,0.0875
479.00,0.0872
478.00,0.0872
477.00,0.0873
476.00,0.0870
475.00,0.0869
474.00,0.0874
473.00,0.0878
472.00,0.0877
471.00,0.0874
470.00,0.0876
469.00,0.0876
468.00,0.0871
467.00,0.0865
466.00,0.0863
465.00,0.0860
464.00,0.0854
463.00,0.0850
462.00,0.0850
461.00,0.0849
460.00,0.0841
459.00,0.0832
458.00,0.0829
457.00,0.0826
456.00,0.0818
455.00,0.0811
454.00,0.0808
453.00,0.0805
452.00,0.0798
451.00,0.0794
450.00,0.0797
449.00,0.0799
448.00,0.0795
447.00,0.0788
446.00,0.0786
445.00,0.0783
444.00,0.0777
443.00,0.0772
442.00,0.0772
441.00,0.0769
440.00,0.0761
439.00,0.0753
438.00,0.0752
437.00,0.0749
436.00,0.0739
435.00,0.0732
434.00,0.0732
433.00,0.0732
432.00,0.0727
431.00,0.0724
430.00,0.0729
429.00,0.0734
428.00,0.0731
427.00,0.0727
426.00,0.0730
425.00,0.0730
424.00,0.0722
423.00,0.0715
422.00,0.0720
421.00,0.0724
420.00,0.0714
419.00,0.0700
418.00,0.0702
417.00,0.0709
416.00,0.0706
415.00,0.0702
414.00,0.0705
413.00,0.0709
412.00,0.0709
411.00,0.0716
410.00,0.0733
409.00,0.0740
408.00,0.0726
407.00,0.0710
406.00,0.0711
405.00,0.0716
404.00,0.0716
403.00,0.0721
402.00,0.0743
401.00,0.0753
400.00,0.0734
