Created as New Dataset,Sample 050 By YargerLab Date Tuesday, August 12 2025
cm-1,A
4000.00,0.0088
3999.00,0.0088
3998.00,0.0088
3997.00,0.0088
3996.00,0.0088
3995.00,0.0088
3994.00,0.0088
3993.00,0.0087
3992.00,0.0087
3991.00,0.0088
3990.00,0.0088
3989.00,0.0088
3988.00,0.0088
3987.00,0.0088
3986.00,0.0088
3985.00,0.0088
3984.00,0.0088
3983.00,0.0088
3982.00,0.0088
3981.00,0.0088
3980.00,0.0088
3979.00,0.0088
3978.00,0.0088
3977.00,0.0088
3976.00,0.0088
3975.00,0.0088
3974.00,0.0088
3973.00,0.0088
3972.00,0.0088
3971.00,0.0087
3970.00,0.0088
3969.00,0.0088
3968.00,0.0088
3967.00,0.0088
3966.00,0.0088
3965.00,0.0088
3964.00,0.0088
3963.00,0.0088
3962.00,0.0087
3961.00,0.0087
3960.00,0.0087
3959.00,0.0087
3958.00,0.0087
3957.00,0.0087
3956.00,0.0087
3955.00,0.0087
3954.00,0.0087
3953.00,0.0087
3952.00,0.0087
3951.00,0.0086
3950.00,0.0086
3949.00,0.0086
3948.00,0.0087
3947.00,0.0087
3946.00,0.0087
3945.00,0.0087
3944.00,0.0087
3943.00,0.0087
3942.00,0.0086
3941.00,0.0086
3940.00,0.0087
3939.00,0.0087
3938.00,0.0087
3937.00,0.0087
3936.00,0.0087
3935.00,0.0087
3934.00,0.0087
3933.00,0.0087
3932.00,0.0086
3931.00,0.0086
3930.00,0.0086
3929.00,0.0086
3928.00,0.0087
3927.00,0.0087
3926.00,0.0087
3925.00,0.0087
3924.00,0.0087
3923.00,0.0087
3922.00,0.0087
3921.00,0.0087
3920.00,0.0087
3919.00,0.0087
3918.00,0.0087
3917.00,0.0087
3916.00,0.0087
3915.00,0.0087
3914.00,0.0087
3913.00,0.0087
3912.00,0.0087
3911.00,0.0087
3910.00,0.0087
3909.00,0.0087
3908.00,0.0087
3907.00,0.0087
3906.00,0.0087
3905.00,0.0087
3904.00,0.0086
3903.00,0.0086
3902.00,0.0086
3901.00,0.0086
3900.00,0.0085
3899.00,0.0085
3898.00,0.0085
3897.00,0.0086
3896.00,0.0086
3895.00,0.0086
3894.00,0.0086
3893.00,0.0087
3892.00,0.0086
3891.00,0.0086
3890.00,0.0086
3889.00,0.0086
3888.00,0.0086
3887.00,0.0086
3886.00,0.0086
3885.00,0.0086
3884.00,0.0086
3883.00,0.0086
3882.00,0.0086
3881.00,0.0086
3880.00,0.0086
3879.00,0.0086
3878.00,0.0086
3877.00,0.0086
3876.00,0.0086
3875.00,0.0086
3874.00,0.0086
3873.00,0.0086
3872.00,0.0085
3871.00,0.0085
3870.00,0.0085
3869.00,0.0086
3868.00,0.0086
3867.00,0.0086
3866.00,0.0086
3865.00,0.0086
3864.00,0.0086
3863.00,0.0086
3862.00,0.0086
3861.00,0.0086
3860.00,0.0086
3859.00,0.0086
3858.00,0.0086
3857.00,0.0086
3856.00,0.0086
3855.00,0.0086
3854.00,0.0086
3853.00,0.0086
3852.00,0.0085
3851.00,0.0085
3850.00,0.0085
3849.00,0.0086
3848.00,0.0086
3847.00,0.0086
3846.00,0.0087
3845.00,0.0087
3844.00,0.0087
3843.00,0.0087
3842.00,0.0086
3841.00,0.0086
3840.00,0.0086
3839.00,0.0086
3838.00,0.0086
3837.00,0.0086
3836.00,0.0086
3835.00,0.0086
3834.00,0.0086
3833.00,0.0086
3832.00,0.0086
3831.00,0.0086
3830.00,0.0087
3829.00,0.0087
3828.00,0.0087
3827.00,0.0087
3826.00,0.0087
3825.00,0.0087
3824.00,0.0087
3823.00,0.0087
3822.00,0.0086
3821.00,0.0086
3820.00,0.0086
3819.00,0.0086
3818.00,0.0086
3817.00,0.0086
3816.00,0.0086
3815.00,0.0086
3814.00,0.0086
3813.00,0.0086
3812.00,0.0086
3811.00,0.0086
3810.00,0.0086
3809.00,0.0086
3808.00,0.0086
3807.00,0.0086
3806.00,0.0087
3805.00,0.0087
3804.00,0.0087
3803.00,0.0087
3802.00,0.0087
3801.00,0.0086
3800.00,0.0086
3799.00,0.0086
3798.00,0.0086
3797.00,0.0086
3796.00,0.0086
3795.00,0.0086
3794.00,0.0086
3793.00,0.0086
3792.00,0.0086
3791.00,0.0086
3790.00,0.0086
3789.00,0.0086
3788.00,0.0086
3787.00,0.0086
3786.00,0.0086
3785.00,0.0086
3784.00,0.0086
3783.00,0.0086
3782.00,0.0086
3781.00,0.0086
3780.00,0.0086
3779.00,0.0086
3778.00,0.0086
3777.00,0.0086
3776.00,0.0086
3775.00,0.0086
3774.00,0.0086
3773.00,0.0086
3772.00,0.0086
3771.00,0.0086
3770.00,0.0086
3769.00,0.0086
3768.00,0.0086
3767.00,0.0086
3766.00,0.0086
3765.00,0.0086
3764.00,0.0086
3763.00,0.0086
3762.00,0.0086
3761.00,0.0086
3760.00,0.0086
3759.00,0.0086
3758.00,0.0086
3757.00,0.0086
3756.00,0.0086
3755.00,0.0086
3754.00,0.0086
3753.00,0.0086
3752.00,0.0086
3751.00,0.0086
3750.00,0.0085
3749.00,0.0085
3748.00,0.0085
3747.00,0.0085
3746.00,0.0085
3745.00,0.0085
3744.00,0.0085
3743.00,0.0085
3742.00,0.0085
3741.00,0.0085
3740.00,0.0085
3739.00,0.0084
3738.00,0.0084
3737.00,0.0084
3736.00,0.0084
3735.00,0.0084
3734.00,0.0084
3733.00,0.0084
3732.00,0.0083
3731.00,0.0083
3730.00,0.0083
3729.00,0.0083
3728.00,0.0083
3727.00,0.0083
3726.00,0.0083
3725.00,0.0083
3724.00,0.0083
3723.00,0.0083
3722.00,0.0083
3721.00,0.0083
3720.00,0.0083
3719.00,0.0083
3718.00,0.0084
3717.00,0.0084
3716.00,0.0084
3715.00,0.0084
3714.00,0.0085
3713.00,0.0084
3712.00,0.0084
3711.00,0.0084
3710.00,0.0084
3709.00,0.0084
3708.00,0.0084
3707.00,0.0084
3706.00,0.0084
3705.00,0.0084
3704.00,0.0084
3703.00,0.0084
3702.00,0.0084
3701.00,0.0084
3700.00,0.0085
3699.00,0.0085
3698.00,0.0085
3697.00,0.0085
3696.00,0.0085
3695.00,0.0085
3694.00,0.0085
3693.00,0.0085
3692.00,0.0085
3691.00,0.0086
3690.00,0.0086
3689.00,0.0086
3688.00,0.0087
3687.00,0.0087
3686.00,0.0087
3685.00,0.0087
3684.00,0.0088
3683.00,0.0088
3682.00,0.0089
3681.00,0.0089
3680.00,0.0090
3679.00,0.0090
3678.00,0.0091
3677.00,0.0091
3676.00,0.0091
3675.00,0.0090
3674.00,0.0090
3673.00,0.0090
3672.00,0.0090
3671.00,0.0090
3670.00,0.0091
3669.00,0.0091
3668.00,0.0092
3667.00,0.0092
3666.00,0.0092
3665.00,0.0093
3664.00,0.0093
3663.00,0.0094
3662.00,0.0094
3661.00,0.0094
3660.00,0.0094
3659.00,0.0094
3658.00,0.0095
3657.00,0.0095
3656.00,0.0095
3655.00,0.0096
3654.00,0.0096
3653.00,0.0096
3652.00,0.0097
3651.00,0.0098
3650.00,0.0098
3649.00,0.0099
3648.00,0.0099
3647.00,0.0100
3646.00,0.0100
3645.00,0.0101
3644.00,0.0102
3643.00,0.0102
3642.00,0.0103
3641.00,0.0104
3640.00,0.0104
3639.00,0.0105
3638.00,0.0105
3637.00,0.0105
3636.00,0.0106
3635.00,0.0107
3634.00,0.0107
3633.00,0.0108
3632.00,0.0109
3631.00,0.0109
3630.00,0.0110
3629.00,0.0111
3628.00,0.0112
3627.00,0.0113
3626.00,0.0114
3625.00,0.0115
3624.00,0.0115
3623.00,0.0116
3622.00,0.0116
3621.00,0.0117
3620.00,0.0118
3619.00,0.0120
3618.00,0.0121
3617.00,0.0122
3616.00,0.0123
3615.00,0.0124
3614.00,0.0125
3613.00,0.0126
3612.00,0.0127
3611.00,0.0128
3610.00,0.0128
3609.00,0.0129
3608.00,0.0130
3607.00,0.0131
3606.00,0.0132
3605.00,0.0133
3604.00,0.0134
3603.00,0.0136
3602.00,0.0137
3601.00,0.0138
3600.00,0.0139
3599.00,0.0140
3598.00,0.0141
3597.00,0.0142
3596.00,0.0143
3595.00,0.0144
3594.00,0.0146
3593.00,0.0147
3592.00,0.0148
3591.00,0.0148
3590.00,0.0149
3589.00,0.0150
3588.00,0.0151
3587.00,0.0153
3586.00,0.0155
3585.00,0.0157
3584.00,0.0159
3583.00,0.0160
3582.00,0.0161
3581.00,0.0163
3580.00,0.0164
3579.00,0.0166
3578.00,0.0167
3577.00,0.0169
3576.00,0.0170
3575.00,0.0172
3574.00,0.0173
3573.00,0.0175
3572.00,0.0176
3571.00,0.0177
3570.00,0.0178
3569.00,0.0179
3568.00,0.0180
3567.00,0.0182
3566.00,0.0184
3565.00,0.0186
3564.00,0.0188
3563.00,0.0190
3562.00,0.0191
3561.00,0.0192
3560.00,0.0194
3559.00,0.0196
3558.00,0.0197
3557.00,0.0199
3556.00,0.0200
3555.00,0.0202
3554.00,0.0203
3553.00,0.0204
3552.00,0.0206
3551.00,0.0208
3550.00,0.0209
3549.00,0.0210
3548.00,0.0211
3547.00,0.0213
3546.00,0.0214
3545.00,0.0216
3544.00,0.0218
3543.00,0.0219
3542.00,0.0221
3541.00,0.0222
3540.00,0.0223
3539.00,0.0224
3538.00,0.0226
3537.00,0.0227
3536.00,0.0228
3535.00,0.0230
3534.00,0.0231
3533.00,0.0232
3532.00,0.0233
3531.00,0.0234
3530.00,0.0235
3529.00,0.0237
3528.00,0.0238
3527.00,0.0239
3526.00,0.0241
3525.00,0.0242
3524.00,0.0243
3523.00,0.0244
3522.00,0.0245
3521.00,0.0247
3520.00,0.0248
3519.00,0.0249
3518.00,0.0250
3517.00,0.0251
3516.00,0.0252
3515.00,0.0253
3514.00,0.0254
3513.00,0.0255
3512.00,0.0255
3511.00,0.0256
3510.00,0.0258
3509.00,0.0259
3508.00,0.0260
3507.00,0.0261
3506.00,0.0262
3505.00,0.0264
3504.00,0.0265
3503.00,0.0266
3502.00,0.0267
3501.00,0.0268
3500.00,0.0269
3499.00,0.0270
3498.00,0.0271
3497.00,0.0272
3496.00,0.0273
3495.00,0.0274
3494.00,0.0275
3493.00,0.0276
3492.00,0.0277
3491.00,0.0278
3490.00,0.0279
3489.00,0.0280
3488.00,0.0281
3487.00,0.0282
3486.00,0.0283
3485.00,0.0284
3484.00,0.0285
3483.00,0.0286
3482.00,0.0288
3481.00,0.0289
3480.00,0.0290
3479.00,0.0291
3478.00,0.0292
3477.00,0.0294
3476.00,0.0295
3475.00,0.0296
3474.00,0.0298
3473.00,0.0299
3472.00,0.0301
3471.00,0.0302
3470.00,0.0303
3469.00,0.0304
3468.00,0.0306
3467.00,0.0307
3466.00,0.0308
3465.00,0.0309
3464.00,0.0311
3463.00,0.0312
3462.00,0.0313
3461.00,0.0314
3460.00,0.0316
3459.00,0.0317
3458.00,0.0318
3457.00,0.0319
3456.00,0.0321
3455.00,0.0322
3454.00,0.0323
3453.00,0.0324
3452.00,0.0325
3451.00,0.0326
3450.00,0.0328
3449.00,0.0329
3448.00,0.0330
3447.00,0.0332
3446.00,0.0334
3445.00,0.0335
3444.00,0.0336
3443.00,0.0338
3442.00,0.0339
3441.00,0.0341
3440.00,0.0343
3439.00,0.0345
3438.00,0.0347
3437.00,0.0348
3436.00,0.0350
3435.00,0.0352
3434.00,0.0353
3433.00,0.0355
3432.00,0.0357
3431.00,0.0358
3430.00,0.0360
3429.00,0.0362
3428.00,0.0363
3427.00,0.0365
3426.00,0.0367
3425.00,0.0369
3424.00,0.0371
3423.00,0.0373
3422.00,0.0375
3421.00,0.0377
3420.00,0.0379
3419.00,0.0380
3418.00,0.0382
3417.00,0.0384
3416.00,0.0386
3415.00,0.0388
3414.00,0.0390
3413.00,0.0391
3412.00,0.0393
3411.00,0.0394
3410.00,0.0395
3409.00,0.0396
3408.00,0.0397
3407.00,0.0398
3406.00,0.0399
3405.00,0.0400
3404.00,0.0400
3403.00,0.0401
3402.00,0.0401
3401.00,0.0402
3400.00,0.0402
3399.00,0.0402
3398.00,0.0401
3397.00,0.0401
3396.00,0.0400
3395.00,0.0400
3394.00,0.0399
3393.00,0.0398
3392.00,0.0398
3391.00,0.0397
3390.00,0.0396
3389.00,0.0395
3388.00,0.0393
3387.00,0.0392
3386.00,0.0391
3385.00,0.0389
3384.00,0.0388
3383.00,0.0387
3382.00,0.0385
3381.00,0.0384
3380.00,0.0382
3379.00,0.0381
3378.00,0.0379
3377.00,0.0378
3376.00,0.0376
3375.00,0.0375
3374.00,0.0373
3373.00,0.0372
3372.00,0.0370
3371.00,0.0368
3370.00,0.0366
3369.00,0.0364
3368.00,0.0363
3367.00,0.0362
3366.00,0.0360
3365.00,0.0359
3364.00,0.0358
3363.00,0.0357
3362.00,0.0355
3361.00,0.0354
3360.00,0.0353
3359.00,0.0352
3358.00,0.0351
3357.00,0.0350
3356.00,0.0349
3355.00,0.0348
3354.00,0.0347
3353.00,0.0345
3352.00,0.0344
3351.00,0.0343
3350.00,0.0342
3349.00,0.0341
3348.00,0.0341
3347.00,0.0340
3346.00,0.0339
3345.00,0.0338
3344.00,0.0337
3343.00,0.0336
3342.00,0.0336
3341.00,0.0335
3340.00,0.0334
3339.00,0.0333
3338.00,0.0333
3337.00,0.0333
3336.00,0.0333
3335.00,0.0333
3334.00,0.0333
3333.00,0.0333
3332.00,0.0332
3331.00,0.0332
3330.00,0.0332
3329.00,0.0331
3328.00,0.0330
3327.00,0.0330
3326.00,0.0329
3325.00,0.0329
3324.00,0.0330
3323.00,0.0330
3322.00,0.0330
3321.00,0.0331
3320.00,0.0331
3319.00,0.0331
3318.00,0.0331
3317.00,0.0331
3316.00,0.0331
3315.00,0.0331
3314.00,0.0331
3313.00,0.0331
3312.00,0.0331
3311.00,0.0330
3310.00,0.0329
3309.00,0.0329
3308.00,0.0328
3307.00,0.0328
3306.00,0.0329
3305.00,0.0330
3304.00,0.0331
3303.00,0.0333
3302.00,0.0334
3301.00,0.0335
3300.00,0.0335
3299.00,0.0335
3298.00,0.0335
3297.00,0.0334
3296.00,0.0334
3295.00,0.0334
3294.00,0.0335
3293.00,0.0335
3292.00,0.0336
3291.00,0.0338
3290.00,0.0339
3289.00,0.0340
3288.00,0.0341
3287.00,0.0341
3286.00,0.0341
3285.00,0.0342
3284.00,0.0342
3283.00,0.0343
3282.00,0.0343
3281.00,0.0344
3280.00,0.0344
3279.00,0.0343
3278.00,0.0343
3277.00,0.0343
3276.00,0.0343
3275.00,0.0343
3274.00,0.0343
3273.00,0.0343
3272.00,0.0343
3271.00,0.0344
3270.00,0.0344
3269.00,0.0345
3268.00,0.0346
3267.00,0.0347
3266.00,0.0347
3265.00,0.0348
3264.00,0.0348
3263.00,0.0348
3262.00,0.0348
3261.00,0.0348
3260.00,0.0348
3259.00,0.0348
3258.00,0.0347
3257.00,0.0347
3256.00,0.0347
3255.00,0.0347
3254.00,0.0348
3253.00,0.0348
3252.00,0.0348
3251.00,0.0348
3250.00,0.0348
3249.00,0.0347
3248.00,0.0347
3247.00,0.0346
3246.00,0.0347
3245.00,0.0347
3244.00,0.0347
3243.00,0.0348
3242.00,0.0348
3241.00,0.0347
3240.00,0.0347
3239.00,0.0347
3238.00,0.0346
3237.00,0.0345
3236.00,0.0344
3235.00,0.0343
3234.00,0.0342
3233.00,0.0342
3232.00,0.0342
3231.00,0.0341
3230.00,0.0341
3229.00,0.0340
3228.00,0.0339
3227.00,0.0339
3226.00,0.0338
3225.00,0.0337
3224.00,0.0336
3223.00,0.0335
3222.00,0.0334
3221.00,0.0333
3220.00,0.0332
3219.00,0.0330
3218.00,0.0329
3217.00,0.0328
3216.00,0.0327
3215.00,0.0325
3214.00,0.0324
3213.00,0.0322
3212.00,0.0321
3211.00,0.0319
3210.00,0.0318
3209.00,0.0317
3208.00,0.0315
3207.00,0.0314
3206.00,0.0312
3205.00,0.0311
3204.00,0.0309
3203.00,0.0308
3202.00,0.0306
3201.00,0.0304
3200.00,0.0303
3199.00,0.0301
3198.00,0.0299
3197.00,0.0297
3196.00,0.0296
3195.00,0.0294
3194.00,0.0292
3193.00,0.0291
3192.00,0.0289
3191.00,0.0287
3190.00,0.0286
3189.00,0.0284
3188.00,0.0282
3187.00,0.0281
3186.00,0.0279
3185.00,0.0277
3184.00,0.0275
3183.00,0.0274
3182.00,0.0272
3181.00,0.0270
3180.00,0.0269
3179.00,0.0267
3178.00,0.0266
3177.00,0.0264
3176.00,0.0263
3175.00,0.0261
3174.00,0.0259
3173.00,0.0258
3172.00,0.0256
3171.00,0.0254
3170.00,0.0252
3169.00,0.0251
3168.00,0.0249
3167.00,0.0247
3166.00,0.0246
3165.00,0.0245
3164.00,0.0243
3163.00,0.0241
3162.00,0.0240
3161.00,0.0238
3160.00,0.0236
3159.00,0.0235
3158.00,0.0233
3157.00,0.0231
3156.00,0.0230
3155.00,0.0228
3154.00,0.0226
3153.00,0.0225
3152.00,0.0224
3151.00,0.0222
3150.00,0.0221
3149.00,0.0220
3148.00,0.0219
3147.00,0.0217
3146.00,0.0216
3145.00,0.0214
3144.00,0.0213
3143.00,0.0212
3142.00,0.0210
3141.00,0.0209
3140.00,0.0208
3139.00,0.0207
3138.00,0.0206
3137.00,0.0205
3136.00,0.0204
3135.00,0.0203
3134.00,0.0201
3133.00,0.0200
3132.00,0.0199
3131.00,0.0198
3130.00,0.0198
3129.00,0.0197
3128.00,0.0196
3127.00,0.0195
3126.00,0.0194
3125.00,0.0193
3124.00,0.0192
3123.00,0.0191
3122.00,0.0190
3121.00,0.0189
3120.00,0.0189
3119.00,0.0188
3118.00,0.0187
3117.00,0.0186
3116.00,0.0185
3115.00,0.0185
3114.00,0.0184
3113.00,0.0183
3112.00,0.0181
3111.00,0.0180
3110.00,0.0180
3109.00,0.0179
3108.00,0.0178
3107.00,0.0177
3106.00,0.0176
3105.00,0.0175
3104.00,0.0174
3103.00,0.0173
3102.00,0.0173
3101.00,0.0172
3100.00,0.0171
3099.00,0.0171
3098.00,0.0170
3097.00,0.0170
3096.00,0.0169
3095.00,0.0169
3094.00,0.0168
3093.00,0.0168
3092.00,0.0168
3091.00,0.0168
3090.00,0.0168
3089.00,0.0168
3088.00,0.0168
3087.00,0.0168
3086.00,0.0168
3085.00,0.0167
3084.00,0.0167
3083.00,0.0166
3082.00,0.0166
3081.00,0.0166
3080.00,0.0165
3079.00,0.0165
3078.00,0.0164
3077.00,0.0164
3076.00,0.0163
3075.00,0.0162
3074.00,0.0162
3073.00,0.0161
3072.00,0.0161
3071.00,0.0160
3070.00,0.0160
3069.00,0.0160
3068.00,0.0160
3067.00,0.0160
3066.00,0.0159
3065.00,0.0159
3064.00,0.0159
3063.00,0.0158
3062.00,0.0158
3061.00,0.0158
3060.00,0.0158
3059.00,0.0158
3058.00,0.0158
3057.00,0.0158
3056.00,0.0158
3055.00,0.0158
3054.00,0.0158
3053.00,0.0158
3052.00,0.0157
3051.00,0.0157
3050.00,0.0156
3049.00,0.0156
3048.00,0.0156
3047.00,0.0156
3046.00,0.0155
3045.00,0.0155
3044.00,0.0155
3043.00,0.0155
3042.00,0.0155
3041.00,0.0155
3040.00,0.0156
3039.00,0.0156
3038.00,0.0157
3037.00,0.0158
3036.00,0.0158
3035.00,0.0159
3034.00,0.0159
3033.00,0.0159
3032.00,0.0159
3031.00,0.0159
3030.00,0.0158
3029.00,0.0158
3028.00,0.0157
3027.00,0.0156
3026.00,0.0156
3025.00,0.0155
3024.00,0.0154
3023.00,0.0153
3022.00,0.0153
3021.00,0.0152
3020.00,0.0152
3019.00,0.0152
3018.00,0.0152
3017.00,0.0152
3016.00,0.0152
3015.00,0.0152
3014.00,0.0153
3013.00,0.0154
3012.00,0.0155
3011.00,0.0156
3010.00,0.0158
3009.00,0.0160
3008.00,0.0162
3007.00,0.0164
3006.00,0.0166
3005.00,0.0169
3004.00,0.0172
3003.00,0.0175
3002.00,0.0179
3001.00,0.0183
3000.00,0.0188
2999.00,0.0193
2998.00,0.0198
2997.00,0.0204
2996.00,0.0210
2995.00,0.0216
2994.00,0.0221
2993.00,0.0227
2992.00,0.0232
2991.00,0.0237
2990.00,0.0241
2989.00,0.0246
2988.00,0.0251
2987.00,0.0256
2986.00,0.0261
2985.00,0.0267
2984.00,0.0274
2983.00,0.0281
2982.00,0.0289
2981.00,0.0298
2980.00,0.0306
2979.00,0.0313
2978.00,0.0318
2977.00,0.0322
2976.00,0.0325
2975.00,0.0331
2974.00,0.0338
2973.00,0.0347
2972.00,0.0358
2971.00,0.0368
2970.00,0.0377
2969.00,0.0383
2968.00,0.0389
2967.00,0.0393
2966.00,0.0398
2965.00,0.0403
2964.00,0.0410
2963.00,0.0416
2962.00,0.0422
2961.00,0.0427
2960.00,0.0430
2959.00,0.0431
2958.00,0.0429
2957.00,0.0424
2956.00,0.0418
2955.00,0.0411
2954.00,0.0403
2953.00,0.0396
2952.00,0.0389
2951.00,0.0384
2950.00,0.0379
2949.00,0.0376
2948.00,0.0375
2947.00,0.0374
2946.00,0.0375
2945.00,0.0378
2944.00,0.0381
2943.00,0.0385
2942.00,0.0390
2941.00,0.0397
2940.00,0.0404
2939.00,0.0412
2938.00,0.0423
2937.00,0.0435
2936.00,0.0448
2935.00,0.0464
2934.00,0.0480
2933.00,0.0497
2932.00,0.0514
2931.00,0.0530
2930.00,0.0545
2929.00,0.0557
2928.00,0.0566
2927.00,0.0571
2926.00,0.0572
2925.00,0.0569
2924.00,0.0563
2923.00,0.0555
2922.00,0.0545
2921.00,0.0534
2920.00,0.0522
2919.00,0.0509
2918.00,0.0496
2917.00,0.0483
2916.00,0.0470
2915.00,0.0457
2914.00,0.0445
2913.00,0.0433
2912.00,0.0423
2911.00,0.0413
2910.00,0.0404
2909.00,0.0396
2908.00,0.0389
2907.00,0.0382
2906.00,0.0375
2905.00,0.0369
2904.00,0.0364
2903.00,0.0359
2902.00,0.0354
2901.00,0.0350
2900.00,0.0346
2899.00,0.0342
2898.00,0.0339
2897.00,0.0335
2896.00,0.0332
2895.00,0.0329
2894.00,0.0327
2893.00,0.0325
2892.00,0.0322
2891.00,0.0320
2890.00,0.0318
2889.00,0.0316
2888.00,0.0314
2887.00,0.0312
2886.00,0.0310
2885.00,0.0309
2884.00,0.0308
2883.00,0.0308
2882.00,0.0308
2881.00,0.0309
2880.00,0.0311
2879.00,0.0313
2878.00,0.0317
2877.00,0.0322
2876.00,0.0327
2875.00,0.0331
2874.00,0.0335
2873.00,0.0338
2872.00,0.0340
2871.00,0.0339
2870.00,0.0338
2869.00,0.0336
2868.00,0.0334
2867.00,0.0333
2866.00,0.0334
2865.00,0.0336
2864.00,0.0342
2863.00,0.0349
2862.00,0.0359
2861.00,0.0370
2860.00,0.0382
2859.00,0.0393
2858.00,0.0403
2857.00,0.0409
2856.00,0.0411
2855.00,0.0411
2854.00,0.0408
2853.00,0.0403
2852.00,0.0395
2851.00,0.0384
2850.00,0.0371
2849.00,0.0355
2848.00,0.0339
2847.00,0.0323
2846.00,0.0307
2845.00,0.0293
2844.00,0.0280
2843.00,0.0268
2842.00,0.0257
2841.00,0.0248
2840.00,0.0239
2839.00,0.0232
2838.00,0.0226
2837.00,0.0220
2836.00,0.0216
2835.00,0.0212
2834.00,0.0208
2833.00,0.0204
2832.00,0.0201
2831.00,0.0197
2830.00,0.0194
2829.00,0.0191
2828.00,0.0188
2827.00,0.0186
2826.00,0.0183
2825.00,0.0180
2824.00,0.0178
2823.00,0.0176
2822.00,0.0174
2821.00,0.0172
2820.00,0.0170
2819.00,0.0169
2818.00,0.0167
2817.00,0.0165
2816.00,0.0164
2815.00,0.0162
2814.00,0.0161
2813.00,0.0160
2812.00,0.0159
2811.00,0.0158
2810.00,0.0157
2809.00,0.0156
2808.00,0.0155
2807.00,0.0155
2806.00,0.0154
2805.00,0.0153
2804.00,0.0152
2803.00,0.0152
2802.00,0.0151
2801.00,0.0150
2800.00,0.0149
2799.00,0.0148
2798.00,0.0148
2797.00,0.0147
2796.00,0.0146
2795.00,0.0146
2794.00,0.0146
2793.00,0.0145
2792.00,0.0145
2791.00,0.0144
2790.00,0.0143
2789.00,0.0143
2788.00,0.0142
2787.00,0.0142
2786.00,0.0141
2785.00,0.0141
2784.00,0.0141
2783.00,0.0140
2782.00,0.0139
2781.00,0.0139
2780.00,0.0138
2779.00,0.0138
2778.00,0.0138
2777.00,0.0137
2776.00,0.0137
2775.00,0.0137
2774.00,0.0136
2773.00,0.0136
2772.00,0.0136
2771.00,0.0136
2770.00,0.0135
2769.00,0.0135
2768.00,0.0135
2767.00,0.0135
2766.00,0.0135
2765.00,0.0134
2764.00,0.0134
2763.00,0.0134
2762.00,0.0134
2761.00,0.0134
2760.00,0.0134
2759.00,0.0134
2758.00,0.0134
2757.00,0.0134
2756.00,0.0134
2755.00,0.0134
2754.00,0.0134
2753.00,0.0134
2752.00,0.0134
2751.00,0.0134
2750.00,0.0134
2749.00,0.0134
2748.00,0.0134
2747.00,0.0134
2746.00,0.0134
2745.00,0.0134
2744.00,0.0134
2743.00,0.0134
2742.00,0.0135
2741.00,0.0135
2740.00,0.0135
2739.00,0.0135
2738.00,0.0136
2737.00,0.0136
2736.00,0.0137
2735.00,0.0137
2734.00,0.0137
2733.00,0.0138
2732.00,0.0138
2731.00,0.0138
2730.00,0.0138
2729.00,0.0138
2728.00,0.0138
2727.00,0.0137
2726.00,0.0137
2725.00,0.0136
2724.00,0.0136
2723.00,0.0136
2722.00,0.0135
2721.00,0.0135
2720.00,0.0135
2719.00,0.0135
2718.00,0.0135
2717.00,0.0134
2716.00,0.0134
2715.00,0.0134
2714.00,0.0133
2713.00,0.0133
2712.00,0.0133
2711.00,0.0132
2710.00,0.0132
2709.00,0.0132
2708.00,0.0132
2707.00,0.0132
2706.00,0.0132
2705.00,0.0132
2704.00,0.0131
2703.00,0.0131
2702.00,0.0131
2701.00,0.0131
2700.00,0.0131
2699.00,0.0131
2698.00,0.0131
2697.00,0.0130
2696.00,0.0130
2695.00,0.0130
2694.00,0.0129
2693.00,0.0129
2692.00,0.0129
2691.00,0.0128
2690.00,0.0128
2689.00,0.0128
2688.00,0.0128
2687.00,0.0128
2686.00,0.0127
2685.00,0.0127
2684.00,0.0127
2683.00,0.0127
2682.00,0.0127
2681.00,0.0127
2680.00,0.0126
2679.00,0.0126
2678.00,0.0126
2677.00,0.0127
2676.00,0.0127
2675.00,0.0127
2674.00,0.0127
2673.00,0.0127
2672.00,0.0127
2671.00,0.0127
2670.00,0.0127
2669.00,0.0128
2668.00,0.0128
2667.00,0.0128
2666.00,0.0129
2665.00,0.0129
2664.00,0.0130
2663.00,0.0130
2662.00,0.0131
2661.00,0.0131
2660.00,0.0131
2659.00,0.0131
2658.00,0.0132
2657.00,0.0132
2656.00,0.0132
2655.00,0.0132
2654.00,0.0132
2653.00,0.0132
2652.00,0.0132
2651.00,0.0132
2650.00,0.0132
2649.00,0.0131
2648.00,0.0131
2647.00,0.0131
2646.00,0.0131
2645.00,0.0131
2644.00,0.0131
2643.00,0.0130
2642.00,0.0130
2641.00,0.0130
2640.00,0.0129
2639.00,0.0129
2638.00,0.0129
2637.00,0.0129
2636.00,0.0129
2635.00,0.0128
2634.00,0.0128
2633.00,0.0127
2632.00,0.0127
2631.00,0.0127
2630.00,0.0126
2629.00,0.0126
2628.00,0.0126
2627.00,0.0125
2626.00,0.0125
2625.00,0.0125
2624.00,0.0124
2623.00,0.0124
2622.00,0.0124
2621.00,0.0124
2620.00,0.0124
2619.00,0.0124
2618.00,0.0123
2617.00,0.0123
2616.00,0.0123
2615.00,0.0123
2614.00,0.0123
2613.00,0.0122
2612.00,0.0123
2611.00,0.0123
2610.00,0.0123
2609.00,0.0123
2608.00,0.0123
2607.00,0.0123
2606.00,0.0123
2605.00,0.0123
2604.00,0.0123
2603.00,0.0123
2602.00,0.0123
2601.00,0.0123
2600.00,0.0123
2599.00,0.0123
2598.00,0.0124
2597.00,0.0124
2596.00,0.0124
2595.00,0.0124
2594.00,0.0124
2593.00,0.0124
2592.00,0.0124
2591.00,0.0124
2590.00,0.0124
2589.00,0.0124
2588.00,0.0124
2587.00,0.0124
2586.00,0.0124
2585.00,0.0123
2584.00,0.0123
2583.00,0.0123
2582.00,0.0123
2581.00,0.0123
2580.00,0.0123
2579.00,0.0123
2578.00,0.0123
2577.00,0.0123
2576.00,0.0123
2575.00,0.0123
2574.00,0.0123
2573.00,0.0123
2572.00,0.0123
2571.00,0.0123
2570.00,0.0123
2569.00,0.0122
2568.00,0.0122
2567.00,0.0122
2566.00,0.0122
2565.00,0.0122
2564.00,0.0122
2563.00,0.0122
2562.00,0.0121
2561.00,0.0121
2560.00,0.0121
2559.00,0.0120
2558.00,0.0120
2557.00,0.0119
2556.00,0.0119
2555.00,0.0119
2554.00,0.0118
2553.00,0.0118
2552.00,0.0118
2551.00,0.0118
2550.00,0.0118
2549.00,0.0118
2548.00,0.0118
2547.00,0.0118
2546.00,0.0118
2545.00,0.0118
2544.00,0.0118
2543.00,0.0118
2542.00,0.0118
2541.00,0.0118
2540.00,0.0118
2539.00,0.0117
2538.00,0.0117
2537.00,0.0117
2536.00,0.0118
2535.00,0.0118
2534.00,0.0118
2533.00,0.0118
2532.00,0.0118
2531.00,0.0117
2530.00,0.0117
2529.00,0.0117
2528.00,0.0116
2527.00,0.0116
2526.00,0.0116
2525.00,0.0116
2524.00,0.0116
2523.00,0.0116
2522.00,0.0116
2521.00,0.0116
2520.00,0.0115
2519.00,0.0115
2518.00,0.0115
2517.00,0.0115
2516.00,0.0115
2515.00,0.0115
2514.00,0.0114
2513.00,0.0114
2512.00,0.0114
2511.00,0.0114
2510.00,0.0113
2509.00,0.0113
2508.00,0.0112
2507.00,0.0112
2506.00,0.0112
2505.00,0.0112
2504.00,0.0112
2503.00,0.0112
2502.00,0.0113
2501.00,0.0113
2500.00,0.0113
2499.00,0.0113
2498.00,0.0112
2497.00,0.0112
2496.00,0.0112
2495.00,0.0112
2494.00,0.0112
2493.00,0.0112
2492.00,0.0112
2491.00,0.0111
2490.00,0.0111
2489.00,0.0111
2488.00,0.0111
2487.00,0.0111
2486.00,0.0111
2485.00,0.0111
2484.00,0.0112
2483.00,0.0112
2482.00,0.0112
2481.00,0.0112
2480.00,0.0112
2479.00,0.0112
2478.00,0.0111
2477.00,0.0111
2476.00,0.0111
2475.00,0.0111
2474.00,0.0110
2473.00,0.0110
2472.00,0.0110
2471.00,0.0110
2470.00,0.0110
2469.00,0.0110
2468.00,0.0110
2467.00,0.0110
2466.00,0.0110
2465.00,0.0110
2464.00,0.0109
2463.00,0.0109
2462.00,0.0110
2461.00,0.0110
2460.00,0.0110
2459.00,0.0111
2458.00,0.0111
2457.00,0.0111
2456.00,0.0111
2455.00,0.0111
2454.00,0.0111
2453.00,0.0111
2452.00,0.0111
2451.00,0.0110
2450.00,0.0110
2449.00,0.0110
2448.00,0.0110
2447.00,0.0110
2446.00,0.0110
2445.00,0.0110
2444.00,0.0110
2443.00,0.0110
2442.00,0.0109
2441.00,0.0109
2440.00,0.0109
2439.00,0.0109
2438.00,0.0109
2437.00,0.0108
2436.00,0.0108
2435.00,0.0108
2434.00,0.0109
2433.00,0.0109
2432.00,0.0109
2431.00,0.0109
2430.00,0.0109
2429.00,0.0108
2428.00,0.0108
2427.00,0.0108
2426.00,0.0108
2425.00,0.0108
2424.00,0.0108
2423.00,0.0108
2422.00,0.0108
2421.00,0.0108
2420.00,0.0108
2419.00,0.0108
2418.00,0.0108
2417.00,0.0108
2416.00,0.0109
2415.00,0.0109
2414.00,0.0110
2413.00,0.0110
2412.00,0.0110
2411.00,0.0110
2410.00,0.0110
2409.00,0.0109
2408.00,0.0109
2407.00,0.0108
2406.00,0.0108
2405.00,0.0108
2404.00,0.0108
2403.00,0.0108
2402.00,0.0108
2401.00,0.0108
2400.00,0.0108
2399.00,0.0108
2398.00,0.0108
2397.00,0.0108
2396.00,0.0108
2395.00,0.0108
2394.00,0.0108
2393.00,0.0108
2392.00,0.0108
2391.00,0.0108
2390.00,0.0108
2389.00,0.0108
2388.00,0.0107
2387.00,0.0107
2386.00,0.0106
2385.00,0.0106
2384.00,0.0105
2383.00,0.0104
2382.00,0.0104
2381.00,0.0103
2380.00,0.0103
2379.00,0.0103
2378.00,0.0103
2377.00,0.0103
2376.00,0.0103
2375.00,0.0103
2374.00,0.0103
2373.00,0.0102
2372.00,0.0102
2371.00,0.0102
2370.00,0.0101
2369.00,0.0101
2368.00,0.0100
2367.00,0.0100
2366.00,0.0100
2365.00,0.0101
2364.00,0.0101
2363.00,0.0102
2362.00,0.0102
2361.00,0.0102
2360.00,0.0102
2359.00,0.0102
2358.00,0.0102
2357.00,0.0102
2356.00,0.0103
2355.00,0.0104
2354.00,0.0104
2353.00,0.0104
2352.00,0.0104
2351.00,0.0104
2350.00,0.0103
2349.00,0.0104
2348.00,0.0104
2347.00,0.0104
2346.00,0.0104
2345.00,0.0104
2344.00,0.0104
2343.00,0.0105
2342.00,0.0105
2341.00,0.0106
2340.00,0.0106
2339.00,0.0107
2338.00,0.0107
2337.00,0.0108
2336.00,0.0108
2335.00,0.0108
2334.00,0.0107
2333.00,0.0107
2332.00,0.0107
2331.00,0.0107
2330.00,0.0108
2329.00,0.0110
2328.00,0.0114
2327.00,0.0117
2326.00,0.0120
2325.00,0.0121
2324.00,0.0120
2323.00,0.0118
2322.00,0.0116
2321.00,0.0115
2320.00,0.0114
2319.00,0.0114
2318.00,0.0113
2317.00,0.0113
2316.00,0.0112
2315.00,0.0112
2314.00,0.0111
2313.00,0.0111
2312.00,0.0111
2311.00,0.0111
2310.00,0.0111
2309.00,0.0111
2308.00,0.0111
2307.00,0.0111
2306.00,0.0112
2305.00,0.0112
2304.00,0.0112
2303.00,0.0112
2302.00,0.0112
2301.00,0.0112
2300.00,0.0112
2299.00,0.0112
2298.00,0.0113
2297.00,0.0113
2296.00,0.0114
2295.00,0.0115
2294.00,0.0116
2293.00,0.0117
2292.00,0.0118
2291.00,0.0118
2290.00,0.0118
2289.00,0.0119
2288.00,0.0119
2287.00,0.0119
2286.00,0.0119
2285.00,0.0119
2284.00,0.0118
2283.00,0.0117
2282.00,0.0117
2281.00,0.0116
2280.00,0.0116
2279.00,0.0116
2278.00,0.0115
2277.00,0.0114
2276.00,0.0114
2275.00,0.0114
2274.00,0.0113
2273.00,0.0113
2272.00,0.0113
2271.00,0.0113
2270.00,0.0112
2269.00,0.0111
2268.00,0.0110
2267.00,0.0109
2266.00,0.0109
2265.00,0.0109
2264.00,0.0109
2263.00,0.0109
2262.00,0.0109
2261.00,0.0109
2260.00,0.0110
2259.00,0.0110
2258.00,0.0110
2257.00,0.0109
2256.00,0.0108
2255.00,0.0108
2254.00,0.0107
2253.00,0.0107
2252.00,0.0107
2251.00,0.0108
2250.00,0.0109
2249.00,0.0109
2248.00,0.0110
2247.00,0.0110
2246.00,0.0110
2245.00,0.0109
2244.00,0.0109
2243.00,0.0109
2242.00,0.0109
2241.00,0.0109
2240.00,0.0110
2239.00,0.0110
2238.00,0.0110
2237.00,0.0109
2236.00,0.0109
2235.00,0.0109
2234.00,0.0109
2233.00,0.0109
2232.00,0.0109
2231.00,0.0109
2230.00,0.0109
2229.00,0.0109
2228.00,0.0110
2227.00,0.0110
2226.00,0.0110
2225.00,0.0110
2224.00,0.0110
2223.00,0.0110
2222.00,0.0110
2221.00,0.0109
2220.00,0.0109
2219.00,0.0109
2218.00,0.0109
2217.00,0.0109
2216.00,0.0109
2215.00,0.0109
2214.00,0.0108
2213.00,0.0108
2212.00,0.0109
2211.00,0.0110
2210.00,0.0110
2209.00,0.0111
2208.00,0.0111
2207.00,0.0111
2206.00,0.0110
2205.00,0.0109
2204.00,0.0108
2203.00,0.0108
2202.00,0.0108
2201.00,0.0109
2200.00,0.0110
2199.00,0.0111
2198.00,0.0111
2197.00,0.0112
2196.00,0.0112
2195.00,0.0113
2194.00,0.0113
2193.00,0.0113
2192.00,0.0112
2191.00,0.0112
2190.00,0.0112
2189.00,0.0113
2188.00,0.0114
2187.00,0.0115
2186.00,0.0115
2185.00,0.0112
2184.00,0.0110
2183.00,0.0107
2182.00,0.0105
2181.00,0.0105
2180.00,0.0107
2179.00,0.0108
2178.00,0.0107
2177.00,0.0106
2176.00,0.0105
2175.00,0.0104
2174.00,0.0103
2173.00,0.0104
2172.00,0.0107
2171.00,0.0111
2170.00,0.0113
2169.00,0.0116
2168.00,0.0118
2167.00,0.0119
2166.00,0.0121
2165.00,0.0122
2164.00,0.0124
2163.00,0.0124
2162.00,0.0119
2161.00,0.0108
2160.00,0.0096
2159.00,0.0086
2158.00,0.0080
2157.00,0.0080
2156.00,0.0081
2155.00,0.0084
2154.00,0.0086
2153.00,0.0089
2152.00,0.0091
2151.00,0.0093
2150.00,0.0093
2149.00,0.0093
2148.00,0.0094
2147.00,0.0094
2146.00,0.0094
2145.00,0.0094
2144.00,0.0094
2143.00,0.0094
2142.00,0.0093
2141.00,0.0093
2140.00,0.0094
2139.00,0.0094
2138.00,0.0093
2137.00,0.0090
2136.00,0.0088
2135.00,0.0087
2134.00,0.0087
2133.00,0.0089
2132.00,0.0091
2131.00,0.0093
2130.00,0.0095
2129.00,0.0096
2128.00,0.0097
2127.00,0.0098
2126.00,0.0099
2125.00,0.0100
2124.00,0.0101
2123.00,0.0102
2122.00,0.0103
2121.00,0.0104
2120.00,0.0105
2119.00,0.0106
2118.00,0.0107
2117.00,0.0108
2116.00,0.0108
2115.00,0.0108
2114.00,0.0107
2113.00,0.0107
2112.00,0.0106
2111.00,0.0106
2110.00,0.0106
2109.00,0.0107
2108.00,0.0107
2107.00,0.0107
2106.00,0.0106
2105.00,0.0105
2104.00,0.0105
2103.00,0.0106
2102.00,0.0106
2101.00,0.0106
2100.00,0.0106
2099.00,0.0106
2098.00,0.0104
2097.00,0.0102
2096.00,0.0100
2095.00,0.0099
2094.00,0.0099
2093.00,0.0100
2092.00,0.0102
2091.00,0.0103
2090.00,0.0104
2089.00,0.0104
2088.00,0.0105
2087.00,0.0105
2086.00,0.0106
2085.00,0.0107
2084.00,0.0108
2083.00,0.0109
2082.00,0.0108
2081.00,0.0107
2080.00,0.0106
2079.00,0.0106
2078.00,0.0105
2077.00,0.0105
2076.00,0.0105
2075.00,0.0105
2074.00,0.0105
2073.00,0.0105
2072.00,0.0105
2071.00,0.0105
2070.00,0.0104
2069.00,0.0103
2068.00,0.0103
2067.00,0.0102
2066.00,0.0101
2065.00,0.0101
2064.00,0.0101
2063.00,0.0102
2062.00,0.0102
2061.00,0.0103
2060.00,0.0104
2059.00,0.0103
2058.00,0.0102
2057.00,0.0101
2056.00,0.0101
2055.00,0.0102
2054.00,0.0105
2053.00,0.0110
2052.00,0.0113
2051.00,0.0114
2050.00,0.0110
2049.00,0.0106
2048.00,0.0103
2047.00,0.0101
2046.00,0.0100
2045.00,0.0099
2044.00,0.0099
2043.00,0.0100
2042.00,0.0099
2041.00,0.0100
2040.00,0.0102
2039.00,0.0103
2038.00,0.0103
2037.00,0.0102
2036.00,0.0100
2035.00,0.0098
2034.00,0.0096
2033.00,0.0095
2032.00,0.0096
2031.00,0.0096
2030.00,0.0094
2029.00,0.0093
2028.00,0.0092
2027.00,0.0091
2026.00,0.0091
2025.00,0.0091
2024.00,0.0092
2023.00,0.0093
2022.00,0.0093
2021.00,0.0093
2020.00,0.0093
2019.00,0.0093
2018.00,0.0093
2017.00,0.0094
2016.00,0.0096
2015.00,0.0097
2014.00,0.0095
2013.00,0.0092
2012.00,0.0091
2011.00,0.0089
2010.00,0.0088
2009.00,0.0087
2008.00,0.0086
2007.00,0.0084
2006.00,0.0083
2005.00,0.0084
2004.00,0.0086
2003.00,0.0088
2002.00,0.0089
2001.00,0.0090
2000.00,0.0092
1999.00,0.0093
1998.00,0.0093
1997.00,0.0094
1996.00,0.0095
1995.00,0.0095
1994.00,0.0094
1993.00,0.0095
1992.00,0.0096
1991.00,0.0097
1990.00,0.0097
1989.00,0.0098
1988.00,0.0099
1987.00,0.0100
1986.00,0.0100
1985.00,0.0100
1984.00,0.0102
1983.00,0.0104
1982.00,0.0105
1981.00,0.0105
1980.00,0.0104
1979.00,0.0099
1978.00,0.0093
1977.00,0.0088
1976.00,0.0086
1975.00,0.0085
1974.00,0.0085
1973.00,0.0086
1972.00,0.0087
1971.00,0.0088
1970.00,0.0088
1969.00,0.0088
1968.00,0.0087
1967.00,0.0085
1966.00,0.0083
1965.00,0.0083
1964.00,0.0085
1963.00,0.0085
1962.00,0.0084
1961.00,0.0082
1960.00,0.0081
1959.00,0.0082
1958.00,0.0083
1957.00,0.0085
1956.00,0.0088
1955.00,0.0089
1954.00,0.0089
1953.00,0.0088
1952.00,0.0088
1951.00,0.0088
1950.00,0.0088
1949.00,0.0088
1948.00,0.0089
1947.00,0.0090
1946.00,0.0090
1945.00,0.0090
1944.00,0.0090
1943.00,0.0089
1942.00,0.0088
1941.00,0.0087
1940.00,0.0087
1939.00,0.0088
1938.00,0.0089
1937.00,0.0090
1936.00,0.0091
1935.00,0.0092
1934.00,0.0092
1933.00,0.0091
1932.00,0.0091
1931.00,0.0091
1930.00,0.0091
1929.00,0.0092
1928.00,0.0092
1927.00,0.0093
1926.00,0.0093
1925.00,0.0094
1924.00,0.0095
1923.00,0.0095
1922.00,0.0094
1921.00,0.0094
1920.00,0.0094
1919.00,0.0094
1918.00,0.0093
1917.00,0.0093
1916.00,0.0094
1915.00,0.0095
1914.00,0.0096
1913.00,0.0097
1912.00,0.0099
1911.00,0.0101
1910.00,0.0103
1909.00,0.0104
1908.00,0.0104
1907.00,0.0103
1906.00,0.0102
1905.00,0.0100
1904.00,0.0100
1903.00,0.0099
1902.00,0.0098
1901.00,0.0097
1900.00,0.0097
1899.00,0.0097
1898.00,0.0097
1897.00,0.0098
1896.00,0.0099
1895.00,0.0100
1894.00,0.0100
1893.00,0.0100
1892.00,0.0100
1891.00,0.0099
1890.00,0.0097
1889.00,0.0096
1888.00,0.0095
1887.00,0.0095
1886.00,0.0095
1885.00,0.0096
1884.00,0.0096
1883.00,0.0096
1882.00,0.0096
1881.00,0.0096
1880.00,0.0096
1879.00,0.0096
1878.00,0.0096
1877.00,0.0096
1876.00,0.0097
1875.00,0.0096
1874.00,0.0095
1873.00,0.0095
1872.00,0.0095
1871.00,0.0095
1870.00,0.0095
1869.00,0.0095
1868.00,0.0095
1867.00,0.0095
1866.00,0.0095
1865.00,0.0095
1864.00,0.0096
1863.00,0.0096
1862.00,0.0097
1861.00,0.0097
1860.00,0.0097
1859.00,0.0097
1858.00,0.0096
1857.00,0.0096
1856.00,0.0097
1855.00,0.0097
1854.00,0.0096
1853.00,0.0096
1852.00,0.0097
1851.00,0.0097
1850.00,0.0098
1849.00,0.0099
1848.00,0.0099
1847.00,0.0099
1846.00,0.0098
1845.00,0.0097
1844.00,0.0097
1843.00,0.0097
1842.00,0.0097
1841.00,0.0098
1840.00,0.0099
1839.00,0.0099
1838.00,0.0099
1837.00,0.0098
1836.00,0.0098
1835.00,0.0097
1834.00,0.0097
1833.00,0.0097
1832.00,0.0097
1831.00,0.0097
1830.00,0.0096
1829.00,0.0095
1828.00,0.0095
1827.00,0.0096
1826.00,0.0097
1825.00,0.0097
1824.00,0.0096
1823.00,0.0096
1822.00,0.0096
1821.00,0.0095
1820.00,0.0095
1819.00,0.0095
1818.00,0.0094
1817.00,0.0094
1816.00,0.0094
1815.00,0.0095
1814.00,0.0096
1813.00,0.0097
1812.00,0.0097
1811.00,0.0097
1810.00,0.0097
1809.00,0.0097
1808.00,0.0098
1807.00,0.0098
1806.00,0.0098
1805.00,0.0098
1804.00,0.0099
1803.00,0.0100
1802.00,0.0099
1801.00,0.0099
1800.00,0.0099
1799.00,0.0099
1798.00,0.0100
1797.00,0.0100
1796.00,0.0101
1795.00,0.0101
1794.00,0.0100
1793.00,0.0099
1792.00,0.0099
1791.00,0.0099
1790.00,0.0099
1789.00,0.0100
1788.00,0.0100
1787.00,0.0101
1786.00,0.0101
1785.00,0.0100
1784.00,0.0101
1783.00,0.0102
1782.00,0.0102
1781.00,0.0102
1780.00,0.0103
1779.00,0.0103
1778.00,0.0103
1777.00,0.0104
1776.00,0.0104
1775.00,0.0104
1774.00,0.0104
1773.00,0.0103
1772.00,0.0103
1771.00,0.0103
1770.00,0.0104
1769.00,0.0104
1768.00,0.0105
1767.00,0.0105
1766.00,0.0105
1765.00,0.0105
1764.00,0.0106
1763.00,0.0107
1762.00,0.0106
1761.00,0.0107
1760.00,0.0108
1759.00,0.0110
1758.00,0.0110
1757.00,0.0109
1756.00,0.0109
1755.00,0.0109
1754.00,0.0109
1753.00,0.0109
1752.00,0.0110
1751.00,0.0111
1750.00,0.0111
1749.00,0.0112
1748.00,0.0114
1747.00,0.0115
1746.00,0.0116
1745.00,0.0117
1744.00,0.0117
1743.00,0.0117
1742.00,0.0115
1741.00,0.0114
1740.00,0.0115
1739.00,0.0116
1738.00,0.0117
1737.00,0.0117
1736.00,0.0117
1735.00,0.0118
1734.00,0.0118
1733.00,0.0121
1732.00,0.0125
1731.00,0.0129
1730.00,0.0130
1729.00,0.0132
1728.00,0.0133
1727.00,0.0135
1726.00,0.0137
1725.00,0.0140
1724.00,0.0142
1723.00,0.0144
1722.00,0.0144
1721.00,0.0145
1720.00,0.0147
1719.00,0.0149
1718.00,0.0151
1717.00,0.0154
1716.00,0.0159
1715.00,0.0164
1714.00,0.0168
1713.00,0.0172
1712.00,0.0178
1711.00,0.0183
1710.00,0.0187
1709.00,0.0192
1708.00,0.0198
1707.00,0.0205
1706.00,0.0212
1705.00,0.0220
1704.00,0.0227
1703.00,0.0231
1702.00,0.0235
1701.00,0.0246
1700.00,0.0267
1699.00,0.0288
1698.00,0.0305
1697.00,0.0322
1696.00,0.0346
1695.00,0.0373
1694.00,0.0397
1693.00,0.0418
1692.00,0.0441
1691.00,0.0466
1690.00,0.0493
1689.00,0.0520
1688.00,0.0545
1687.00,0.0565
1686.00,0.0585
1685.00,0.0619
1684.00,0.0666
1683.00,0.0709
1682.00,0.0741
1681.00,0.0767
1680.00,0.0793
1679.00,0.0818
1678.00,0.0838
1677.00,0.0860
1676.00,0.0891
1675.00,0.0927
1674.00,0.0961
1673.00,0.0987
1672.00,0.1009
1671.00,0.1034
1670.00,0.1066
1669.00,0.1102
1668.00,0.1136
1667.00,0.1161
1666.00,0.1179
1665.00,0.1196
1664.00,0.1218
1663.00,0.1246
1662.00,0.1274
1661.00,0.1298
1660.00,0.1318
1659.00,0.1333
1658.00,0.1345
1657.00,0.1351
1656.00,0.1353
1655.00,0.1354
1654.00,0.1365
1653.00,0.1392
1652.00,0.1418
1651.00,0.1425
1650.00,0.1420
1649.00,0.1411
1648.00,0.1404
1647.00,0.1400
1646.00,0.1395
1645.00,0.1387
1644.00,0.1376
1643.00,0.1361
1642.00,0.1342
1641.00,0.1321
1640.00,0.1298
1639.00,0.1273
1638.00,0.1245
1637.00,0.1215
1636.00,0.1185
1635.00,0.1160
1634.00,0.1139
1633.00,0.1122
1632.00,0.1107
1631.00,0.1094
1630.00,0.1087
1629.00,0.1088
1628.00,0.1098
1627.00,0.1112
1626.00,0.1122
1625.00,0.1129
1624.00,0.1135
1623.00,0.1139
1622.00,0.1136
1621.00,0.1122
1620.00,0.1099
1619.00,0.1067
1618.00,0.1024
1617.00,0.0973
1616.00,0.0927
1615.00,0.0896
1614.00,0.0875
1613.00,0.0861
1612.00,0.0849
1611.00,0.0837
1610.00,0.0821
1609.00,0.0799
1608.00,0.0771
1607.00,0.0738
1606.00,0.0704
1605.00,0.0670
1604.00,0.0636
1603.00,0.0605
1602.00,0.0576
1601.00,0.0550
1600.00,0.0528
1599.00,0.0509
1598.00,0.0494
1597.00,0.0481
1596.00,0.0472
1595.00,0.0468
1594.00,0.0467
1593.00,0.0472
1592.00,0.0482
1591.00,0.0498
1590.00,0.0517
1589.00,0.0540
1588.00,0.0562
1587.00,0.0582
1586.00,0.0597
1585.00,0.0606
1584.00,0.0608
1583.00,0.0604
1582.00,0.0595
1581.00,0.0581
1580.00,0.0565
1579.00,0.0548
1578.00,0.0529
1577.00,0.0505
1576.00,0.0481
1575.00,0.0461
1574.00,0.0447
1573.00,0.0436
1572.00,0.0425
1571.00,0.0414
1570.00,0.0404
1569.00,0.0395
1568.00,0.0387
1567.00,0.0379
1566.00,0.0369
1565.00,0.0355
1564.00,0.0341
1563.00,0.0327
1562.00,0.0314
1561.00,0.0300
1560.00,0.0286
1559.00,0.0272
1558.00,0.0262
1557.00,0.0260
1556.00,0.0260
1555.00,0.0259
1554.00,0.0257
1553.00,0.0255
1552.00,0.0253
1551.00,0.0252
1550.00,0.0249
1549.00,0.0246
1548.00,0.0243
1547.00,0.0241
1546.00,0.0239
1545.00,0.0237
1544.00,0.0235
1543.00,0.0233
1542.00,0.0231
1541.00,0.0230
1540.00,0.0228
1539.00,0.0227
1538.00,0.0226
1537.00,0.0224
1536.00,0.0222
1535.00,0.0220
1534.00,0.0217
1533.00,0.0216
1532.00,0.0215
1531.00,0.0215
1530.00,0.0215
1529.00,0.0215
1528.00,0.0215
1527.00,0.0215
1526.00,0.0214
1525.00,0.0214
1524.00,0.0214
1523.00,0.0215
1522.00,0.0216
1521.00,0.0218
1520.00,0.0221
1519.00,0.0225
1518.00,0.0231
1517.00,0.0237
1516.00,0.0242
1515.00,0.0247
1514.00,0.0251
1513.00,0.0256
1512.00,0.0261
1511.00,0.0266
1510.00,0.0270
1509.00,0.0273
1508.00,0.0278
1507.00,0.0283
1506.00,0.0292
1505.00,0.0306
1504.00,0.0321
1503.00,0.0336
1502.00,0.0353
1501.00,0.0373
1500.00,0.0400
1499.00,0.0432
1498.00,0.0470
1497.00,0.0508
1496.00,0.0533
1495.00,0.0543
1494.00,0.0538
1493.00,0.0525
1492.00,0.0504
1491.00,0.0478
1490.00,0.0450
1489.00,0.0422
1488.00,0.0396
1487.00,0.0373
1486.00,0.0353
1485.00,0.0336
1484.00,0.0323
1483.00,0.0311
1482.00,0.0302
1481.00,0.0295
1480.00,0.0291
1479.00,0.0289
1478.00,0.0289
1477.00,0.0293
1476.00,0.0300
1475.00,0.0309
1474.00,0.0324
1473.00,0.0351
1472.00,0.0388
1471.00,0.0430
1470.00,0.0475
1469.00,0.0522
1468.00,0.0570
1467.00,0.0618
1466.00,0.0665
1465.00,0.0709
1464.00,0.0743
1463.00,0.0763
1462.00,0.0773
1461.00,0.0775
1460.00,0.0770
1459.00,0.0757
1458.00,0.0734
1457.00,0.0701
1456.00,0.0669
1455.00,0.0645
1454.00,0.0627
1453.00,0.0614
1452.00,0.0607
1451.00,0.0606
1450.00,0.0612
1449.00,0.0627
1448.00,0.0649
1447.00,0.0677
1446.00,0.0708
1445.00,0.0741
1444.00,0.0777
1443.00,0.0812
1442.00,0.0846
1441.00,0.0876
1440.00,0.0899
1439.00,0.0915
1438.00,0.0929
1437.00,0.0946
1436.00,0.0964
1435.00,0.0978
1434.00,0.0986
1433.00,0.0992
1432.00,0.0999
1431.00,0.1008
1430.00,0.1020
1429.00,0.1036
1428.00,0.1054
1427.00,0.1071
1426.00,0.1088
1425.00,0.1105
1424.00,0.1119
1423.00,0.1124
1422.00,0.1118
1421.00,0.1102
1420.00,0.1072
1419.00,0.1030
1418.00,0.0980
1417.00,0.0931
1416.00,0.0882
1415.00,0.0833
1414.00,0.0788
1413.00,0.0748
1412.00,0.0713
1411.00,0.0686
1410.00,0.0666
1409.00,0.0654
1408.00,0.0649
1407.00,0.0649
1406.00,0.0656
1405.00,0.0668
1404.00,0.0681
1403.00,0.0691
1402.00,0.0698
1401.00,0.0699
1400.00,0.0695
1399.00,0.0685
1398.00,0.0668
1397.00,0.0647
1396.00,0.0622
1395.00,0.0592
1394.00,0.0564
1393.00,0.0541
1392.00,0.0524
1391.00,0.0512
1390.00,0.0506
1389.00,0.0509
1388.00,0.0520
1387.00,0.0533
1386.00,0.0542
1385.00,0.0542
1384.00,0.0539
1383.00,0.0538
1382.00,0.0542
1381.00,0.0550
1380.00,0.0560
1379.00,0.0568
1378.00,0.0572
1377.00,0.0573
1376.00,0.0568
1375.00,0.0557
1374.00,0.0544
1373.00,0.0531
1372.00,0.0521
1371.00,0.0517
1370.00,0.0518
1369.00,0.0526
1368.00,0.0538
1367.00,0.0551
1366.00,0.0562
1365.00,0.0568
1364.00,0.0569
1363.00,0.0572
1362.00,0.0580
1361.00,0.0592
1360.00,0.0597
1359.00,0.0590
1358.00,0.0569
1357.00,0.0543
1356.00,0.0517
1355.00,0.0497
1354.00,0.0482
1353.00,0.0472
1352.00,0.0465
1351.00,0.0462
1350.00,0.0460
1349.00,0.0460
1348.00,0.0461
1347.00,0.0460
1346.00,0.0458
1345.00,0.0453
1344.00,0.0447
1343.00,0.0440
1342.00,0.0432
1341.00,0.0424
1340.00,0.0415
1339.00,0.0406
1338.00,0.0400
1337.00,0.0397
1336.00,0.0397
1335.00,0.0401
1334.00,0.0408
1333.00,0.0416
1332.00,0.0426
1331.00,0.0436
1330.00,0.0446
1329.00,0.0456
1328.00,0.0465
1327.00,0.0473
1326.00,0.0481
1325.00,0.0490
1324.00,0.0498
1323.00,0.0507
1322.00,0.0517
1321.00,0.0526
1320.00,0.0533
1319.00,0.0538
1318.00,0.0539
1317.00,0.0536
1316.00,0.0531
1315.00,0.0523
1314.00,0.0515
1313.00,0.0507
1312.00,0.0500
1311.00,0.0495
1310.00,0.0494
1309.00,0.0496
1308.00,0.0503
1307.00,0.0515
1306.00,0.0532
1305.00,0.0556
1304.00,0.0587
1303.00,0.0622
1302.00,0.0658
1301.00,0.0694
1300.00,0.0726
1299.00,0.0756
1298.00,0.0789
1297.00,0.0827
1296.00,0.0873
1295.00,0.0923
1294.00,0.0974
1293.00,0.1023
1292.00,0.1067
1291.00,0.1105
1290.00,0.1138
1289.00,0.1166
1288.00,0.1189
1287.00,0.1208
1286.00,0.1221
1285.00,0.1227
1284.00,0.1224
1283.00,0.1213
1282.00,0.1194
1281.00,0.1171
1280.00,0.1145
1279.00,0.1121
1278.00,0.1100
1277.00,0.1085
1276.00,0.1075
1275.00,0.1068
1274.00,0.1062
1273.00,0.1055
1272.00,0.1045
1271.00,0.1030
1270.00,0.1011
1269.00,0.0987
1268.00,0.0961
1267.00,0.0932
1266.00,0.0902
1265.00,0.0870
1264.00,0.0838
1263.00,0.0805
1262.00,0.0774
1261.00,0.0744
1260.00,0.0716
1259.00,0.0690
1258.00,0.0667
1257.00,0.0646
1256.00,0.0628
1255.00,0.0611
1254.00,0.0598
1253.00,0.0587
1252.00,0.0579
1251.00,0.0574
1250.00,0.0573
1249.00,0.0576
1248.00,0.0582
1247.00,0.0591
1246.00,0.0602
1245.00,0.0614
1244.00,0.0625
1243.00,0.0635
1242.00,0.0644
1241.00,0.0653
1240.00,0.0663
1239.00,0.0676
1238.00,0.0693
1237.00,0.0714
1236.00,0.0735
1235.00,0.0754
1234.00,0.0767
1233.00,0.0774
1232.00,0.0771
1231.00,0.0762
1230.00,0.0747
1229.00,0.0731
1228.00,0.0714
1227.00,0.0698
1226.00,0.0685
1225.00,0.0673
1224.00,0.0663
1223.00,0.0656
1222.00,0.0652
1221.00,0.0650
1220.00,0.0651
1219.00,0.0655
1218.00,0.0660
1217.00,0.0666
1216.00,0.0671
1215.00,0.0673
1214.00,0.0670
1213.00,0.0662
1212.00,0.0647
1211.00,0.0628
1210.00,0.0607
1209.00,0.0587
1208.00,0.0569
1207.00,0.0554
1206.00,0.0544
1205.00,0.0539
1204.00,0.0539
1203.00,0.0544
1202.00,0.0555
1201.00,0.0570
1200.00,0.0587
1199.00,0.0608
1198.00,0.0631
1197.00,0.0654
1196.00,0.0675
1195.00,0.0689
1194.00,0.0694
1193.00,0.0687
1192.00,0.0672
1191.00,0.0651
1190.00,0.0625
1189.00,0.0598
1188.00,0.0571
1187.00,0.0545
1186.00,0.0522
1185.00,0.0502
1184.00,0.0486
1183.00,0.0474
1182.00,0.0464
1181.00,0.0458
1180.00,0.0453
1179.00,0.0450
1178.00,0.0449
1177.00,0.0450
1176.00,0.0451
1175.00,0.0453
1174.00,0.0456
1173.00,0.0459
1172.00,0.0462
1171.00,0.0464
1170.00,0.0465
1169.00,0.0466
1168.00,0.0466
1167.00,0.0466
1166.00,0.0466
1165.00,0.0466
1164.00,0.0468
1163.00,0.0472
1162.00,0.0480
1161.00,0.0492
1160.00,0.0512
1159.00,0.0538
1158.00,0.0572
1157.00,0.0609
1156.00,0.0641
1155.00,0.0660
1154.00,0.0659
1153.00,0.0637
1152.00,0.0598
1151.00,0.0552
1150.00,0.0507
1149.00,0.0468
1148.00,0.0438
1147.00,0.0417
1146.00,0.0401
1145.00,0.0390
1144.00,0.0382
1143.00,0.0376
1142.00,0.0372
1141.00,0.0371
1140.00,0.0371
1139.00,0.0374
1138.00,0.0380
1137.00,0.0391
1136.00,0.0407
1135.00,0.0431
1134.00,0.0464
1133.00,0.0507
1132.00,0.0558
1131.00,0.0610
1130.00,0.0655
1129.00,0.0685
1128.00,0.0697
1127.00,0.0692
1126.00,0.0673
1125.00,0.0645
1124.00,0.0612
1123.00,0.0575
1122.00,0.0539
1121.00,0.0507
1120.00,0.0480
1119.00,0.0460
1118.00,0.0447
1117.00,0.0440
1116.00,0.0437
1115.00,0.0435
1114.00,0.0434
1113.00,0.0431
1112.00,0.0427
1111.00,0.0421
1110.00,0.0416
1109.00,0.0411
1108.00,0.0409
1107.00,0.0410
1106.00,0.0415
1105.00,0.0425
1104.00,0.0443
1103.00,0.0467
1102.00,0.0496
1101.00,0.0523
1100.00,0.0542
1099.00,0.0547
1098.00,0.0539
1097.00,0.0519
1096.00,0.0492
1095.00,0.0464
1094.00,0.0438
1093.00,0.0417
1092.00,0.0401
1091.00,0.0388
1090.00,0.0380
1089.00,0.0373
1088.00,0.0369
1087.00,0.0365
1086.00,0.0362
1085.00,0.0360
1084.00,0.0359
1083.00,0.0359
1082.00,0.0360
1081.00,0.0362
1080.00,0.0364
1079.00,0.0368
1078.00,0.0371
1077.00,0.0375
1076.00,0.0378
1075.00,0.0381
1074.00,0.0384
1073.00,0.0388
1072.00,0.0392
1071.00,0.0396
1070.00,0.0401
1069.00,0.0407
1068.00,0.0414
1067.00,0.0421
1066.00,0.0430
1065.00,0.0442
1064.00,0.0456
1063.00,0.0474
1062.00,0.0498
1061.00,0.0528
1060.00,0.0565
1059.00,0.0611
1058.00,0.0663
1057.00,0.0718
1056.00,0.0769
1055.00,0.0811
1054.00,0.0839
1053.00,0.0856
1052.00,0.0863
1051.00,0.0864
1050.00,0.0861
1049.00,0.0850
1048.00,0.0831
1047.00,0.0803
1046.00,0.0767
1045.00,0.0726
1044.00,0.0683
1043.00,0.0640
1042.00,0.0601
1041.00,0.0569
1040.00,0.0543
1039.00,0.0526
1038.00,0.0517
1037.00,0.0514
1036.00,0.0517
1035.00,0.0522
1034.00,0.0530
1033.00,0.0543
1032.00,0.0564
1031.00,0.0596
1030.00,0.0639
1029.00,0.0688
1028.00,0.0734
1027.00,0.0765
1026.00,0.0774
1025.00,0.0759
1024.00,0.0726
1023.00,0.0685
1022.00,0.0643
1021.00,0.0605
1020.00,0.0573
1019.00,0.0546
1018.00,0.0522
1017.00,0.0501
1016.00,0.0481
1015.00,0.0463
1014.00,0.0448
1013.00,0.0434
1012.00,0.0424
1011.00,0.0418
1010.00,0.0418
1009.00,0.0425
1008.00,0.0438
1007.00,0.0456
1006.00,0.0477
1005.00,0.0497
1004.00,0.0513
1003.00,0.0522
1002.00,0.0522
1001.00,0.0516
1000.00,0.0505
999.00,0.0494
998.00,0.0482
997.00,0.0471
996.00,0.0462
995.00,0.0453
994.00,0.0445
993.00,0.0435
992.00,0.0424
991.00,0.0412
990.00,0.0399
989.00,0.0386
988.00,0.0375
987.00,0.0365
986.00,0.0357
985.00,0.0350
984.00,0.0344
983.00,0.0339
982.00,0.0335
981.00,0.0332
980.00,0.0329
979.00,0.0327
978.00,0.0326
977.00,0.0324
976.00,0.0323
975.00,0.0322
974.00,0.0320
973.00,0.0319
972.00,0.0317
971.00,0.0314
970.00,0.0313
969.00,0.0311
968.00,0.0310
967.00,0.0310
966.00,0.0311
965.00,0.0312
964.00,0.0315
963.00,0.0317
962.00,0.0320
961.00,0.0319
960.00,0.0316
959.00,0.0312
958.00,0.0307
957.00,0.0303
956.00,0.0300
955.00,0.0298
954.00,0.0296
953.00,0.0295
952.00,0.0294
951.00,0.0294
950.00,0.0295
949.00,0.0297
948.00,0.0299
947.00,0.0298
946.00,0.0296
945.00,0.0295
944.00,0.0295
943.00,0.0297
942.00,0.0302
941.00,0.0309
940.00,0.0316
939.00,0.0324
938.00,0.0332
937.00,0.0340
936.00,0.0346
935.00,0.0353
934.00,0.0358
933.00,0.0361
932.00,0.0359
931.00,0.0355
930.00,0.0348
929.00,0.0340
928.00,0.0335
927.00,0.0332
926.00,0.0333
925.00,0.0337
924.00,0.0343
923.00,0.0349
922.00,0.0353
921.00,0.0353
920.00,0.0347
919.00,0.0336
918.00,0.0324
917.00,0.0313
916.00,0.0303
915.00,0.0295
914.00,0.0289
913.00,0.0284
912.00,0.0281
911.00,0.0279
910.00,0.0278
909.00,0.0278
908.00,0.0279
907.00,0.0282
906.00,0.0286
905.00,0.0293
904.00,0.0303
903.00,0.0316
902.00,0.0333
901.00,0.0351
900.00,0.0366
899.00,0.0375
898.00,0.0376
897.00,0.0371
896.00,0.0362
895.00,0.0353
894.00,0.0349
893.00,0.0351
892.00,0.0359
891.00,0.0369
890.00,0.0374
889.00,0.0369
888.00,0.0354
887.00,0.0336
886.00,0.0321
885.00,0.0311
884.00,0.0306
883.00,0.0304
882.00,0.0305
881.00,0.0308
880.00,0.0313
879.00,0.0322
878.00,0.0336
877.00,0.0356
876.00,0.0381
875.00,0.0412
874.00,0.0448
873.00,0.0486
872.00,0.0522
871.00,0.0552
870.00,0.0570
869.00,0.0573
868.00,0.0561
867.00,0.0541
866.00,0.0519
865.00,0.0497
864.00,0.0477
863.00,0.0458
862.00,0.0441
861.00,0.0427
860.00,0.0418
859.00,0.0414
858.00,0.0418
857.00,0.0430
856.00,0.0448
855.00,0.0471
854.00,0.0494
853.00,0.0517
852.00,0.0541
851.00,0.0566
850.00,0.0589
849.00,0.0605
848.00,0.0609
847.00,0.0601
846.00,0.0585
845.00,0.0567
844.00,0.0550
843.00,0.0535
842.00,0.0524
841.00,0.0518
840.00,0.0516
839.00,0.0522
838.00,0.0534
837.00,0.0553
836.00,0.0574
835.00,0.0591
834.00,0.0602
833.00,0.0604
832.00,0.0597
831.00,0.0581
830.00,0.0556
829.00,0.0527
828.00,0.0496
827.00,0.0469
826.00,0.0450
825.00,0.0443
824.00,0.0454
823.00,0.0486
822.00,0.0537
821.00,0.0591
820.00,0.0629
819.00,0.0648
818.00,0.0662
817.00,0.0683
816.00,0.0702
815.00,0.0699
814.00,0.0660
813.00,0.0599
812.00,0.0537
811.00,0.0488
810.00,0.0453
809.00,0.0428
808.00,0.0410
807.00,0.0396
806.00,0.0386
805.00,0.0377
804.00,0.0371
803.00,0.0367
802.00,0.0364
801.00,0.0361
800.00,0.0360
799.00,0.0359
798.00,0.0359
797.00,0.0358
796.00,0.0358
795.00,0.0359
794.00,0.0359
793.00,0.0359
792.00,0.0360
791.00,0.0361
790.00,0.0362
789.00,0.0363
788.00,0.0365
787.00,0.0366
786.00,0.0367
785.00,0.0367
784.00,0.0368
783.00,0.0370
782.00,0.0371
781.00,0.0373
780.00,0.0376
779.00,0.0381
778.00,0.0389
777.00,0.0399
776.00,0.0412
775.00,0.0423
774.00,0.0429
773.00,0.0428
772.00,0.0422
771.00,0.0416
770.00,0.0411
769.00,0.0410
768.00,0.0411
767.00,0.0414
766.00,0.0418
765.00,0.0422
764.00,0.0427
763.00,0.0434
762.00,0.0442
761.00,0.0451
760.00,0.0460
759.00,0.0467
758.00,0.0473
757.00,0.0476
756.00,0.0479
755.00,0.0482
754.00,0.0485
753.00,0.0488
752.00,0.0492
751.00,0.0497
750.00,0.0503
749.00,0.0509
748.00,0.0515
747.00,0.0522
746.00,0.0528
745.00,0.0535
744.00,0.0543
743.00,0.0551
742.00,0.0562
741.00,0.0575
740.00,0.0592
739.00,0.0613
738.00,0.0640
737.00,0.0670
736.00,0.0699
735.00,0.0720
734.00,0.0726
733.00,0.0719
732.00,0.0707
731.00,0.0698
730.00,0.0694
729.00,0.0694
728.00,0.0690
727.00,0.0678
726.00,0.0659
725.00,0.0637
724.00,0.0616
723.00,0.0600
722.00,0.0588
721.00,0.0582
720.00,0.0579
719.00,0.0581
718.00,0.0587
717.00,0.0596
716.00,0.0605
715.00,0.0611
714.00,0.0613
713.00,0.0611
712.00,0.0605
711.00,0.0600
710.00,0.0594
709.00,0.0591
708.00,0.0589
707.00,0.0589
706.00,0.0590
705.00,0.0593
704.00,0.0597
703.00,0.0602
702.00,0.0609
701.00,0.0616
700.00,0.0625
699.00,0.0632
698.00,0.0639
697.00,0.0642
696.00,0.0643
695.00,0.0642
694.00,0.0641
693.00,0.0641
692.00,0.0646
691.00,0.0655
690.00,0.0668
689.00,0.0682
688.00,0.0692
687.00,0.0697
686.00,0.0695
685.00,0.0691
684.00,0.0688
683.00,0.0687
682.00,0.0688
681.00,0.0692
680.00,0.0698
679.00,0.0705
678.00,0.0713
677.00,0.0722
676.00,0.0734
675.00,0.0748
674.00,0.0763
673.00,0.0777
672.00,0.0790
671.00,0.0799
670.00,0.0806
669.00,0.0812
668.00,0.0819
667.00,0.0825
666.00,0.0828
665.00,0.0831
664.00,0.0839
663.00,0.0850
662.00,0.0862
661.00,0.0872
660.00,0.0878
659.00,0.0882
658.00,0.0884
657.00,0.0885
656.00,0.0888
655.00,0.0892
654.00,0.0897
653.00,0.0903
652.00,0.0910
651.00,0.0916
650.00,0.0921
649.00,0.0925
648.00,0.0928
647.00,0.0929
646.00,0.0927
645.00,0.0925
644.00,0.0922
643.00,0.0917
642.00,0.0912
641.00,0.0906
640.00,0.0900
639.00,0.0894
638.00,0.0889
637.00,0.0884
636.00,0.0878
635.00,0.0873
634.00,0.0868
633.00,0.0865
632.00,0.0862
631.00,0.0859
630.00,0.0856
629.00,0.0855
628.00,0.0855
627.00,0.0856
626.00,0.0858
625.00,0.0861
624.00,0.0865
623.00,0.0872
622.00,0.0878
621.00,0.0885
620.00,0.0888
619.00,0.0888
618.00,0.0884
617.00,0.0877
616.00,0.0869
615.00,0.0860
614.00,0.0852
613.00,0.0845
612.00,0.0841
611.00,0.0840
610.00,0.0844
609.00,0.0852
608.00,0.0867
607.00,0.0886
606.00,0.0906
605.00,0.0925
604.00,0.0942
603.00,0.0955
602.00,0.0963
601.00,0.0968
600.00,0.0971
599.00,0.0975
598.00,0.0977
597.00,0.0980
596.00,0.0983
595.00,0.0985
594.00,0.0986
593.00,0.0986
592.00,0.0986
591.00,0.0987
590.00,0.0988
589.00,0.0990
588.00,0.0993
587.00,0.0998
586.00,0.1005
585.00,0.1014
584.00,0.1025
583.00,0.1036
582.00,0.1047
581.00,0.1060
580.00,0.1076
579.00,0.1095
578.00,0.1116
577.00,0.1134
576.00,0.1146
575.00,0.1148
574.00,0.1141
573.00,0.1129
572.00,0.1116
571.00,0.1104
570.00,0.1092
569.00,0.1083
568.00,0.1076
567.00,0.1073
566.00,0.1072
565.00,0.1075
564.00,0.1079
563.00,0.1086
562.00,0.1095
561.00,0.1105
560.00,0.1111
559.00,0.1109
558.00,0.1101
557.00,0.1088
556.00,0.1074
555.00,0.1062
554.00,0.1052
553.00,0.1046
552.00,0.1045
551.00,0.1048
550.00,0.1055
549.00,0.1066
548.00,0.1079
547.00,0.1091
546.00,0.1096
545.00,0.1093
544.00,0.1085
543.00,0.1073
542.00,0.1060
541.00,0.1048
540.00,0.1037
539.00,0.1027
538.00,0.1020
537.00,0.1018
536.00,0.1021
535.00,0.1028
534.00,0.1038
533.00,0.1049
532.00,0.1060
531.00,0.1066
530.00,0.1066
529.00,0.1060
528.00,0.1050
527.00,0.1038
526.00,0.1026
525.00,0.1015
524.00,0.1005
523.00,0.0996
522.00,0.0987
521.00,0.0979
520.00,0.0974
519.00,0.0970
518.00,0.0968
517.00,0.0966
516.00,0.0965
515.00,0.0964
514.00,0.0961
513.00,0.0960
512.00,0.0960
511.00,0.0961
510.00,0.0963
509.00,0.0964
508.00,0.0966
507.00,0.0969
506.00,0.0972
505.00,0.0971
504.00,0.0968
503.00,0.0964
502.00,0.0959
501.00,0.0957
500.00,0.0956
499.00,0.0956
498.00,0.0958
497.00,0.0961
496.00,0.0964
495.00,0.0968
494.00,0.0973
493.00,0.0978
492.00,0.0983
491.00,0.0984
490.00,0.0983
489.00,0.0979
488.00,0.0976
487.00,0.0975
486.00,0.0974
485.00,0.0974
484.00,0.0973
483.00,0.0971
482.00,0.0968
481.00,0.0965
480.00,0.0962
479.00,0.0961
478.00,0.0962
477.00,0.0962
476.00,0.0963
475.00,0.0962
474.00,0.0961
473.00,0.0962
472.00,0.0963
471.00,0.0964
470.00,0.0963
469.00,0.0960
468.00,0.0957
467.00,0.0953
466.00,0.0949
465.00,0.0947
464.00,0.0947
463.00,0.0947
462.00,0.0945
461.00,0.0943
460.00,0.0941
459.00,0.0939
458.00,0.0938
457.00,0.0935
456.00,0.0931
455.00,0.0927
454.00,0.0924
453.00,0.0921
452.00,0.0918
451.00,0.0914
450.00,0.0909
449.00,0.0903
448.00,0.0897
447.00,0.0892
446.00,0.0889
445.00,0.0887
444.00,0.0886
443.00,0.0885
442.00,0.0886
441.00,0.0887
440.00,0.0886
439.00,0.0885
438.00,0.0882
437.00,0.0879
436.00,0.0871
435.00,0.0859
434.00,0.0846
433.00,0.0837
432.00,0.0832
431.00,0.0830
430.00,0.0831
429.00,0.0834
428.00,0.0838
427.00,0.0838
426.00,0.0836
425.00,0.0834
424.00,0.0830
423.00,0.0821
422.00,0.0806
421.00,0.0787
420.00,0.0771
419.00,0.0767
418.00,0.0774
417.00,0.0785
416.00,0.0792
415.00,0.0795
414.00,0.0796
413.00,0.0798
412.00,0.0804
411.00,0.0813
410.00,0.0821
409.00,0.0826
408.00,0.0828
407.00,0.0827
406.00,0.0826
405.00,0.0825
404.00,0.0824
403.00,0.0821
402.00,0.0817
401.00,0.0809
400.00,0.0799
