Created as New Dataset,Sample 1054 By YargerLab Date Monday, August 04 2025
cm-1,A
4000.00,0.0033
3999.00,0.0033
3998.00,0.0033
3997.00,0.0033
3996.00,0.0033
3995.00,0.0032
3994.00,0.0032
3993.00,0.0032
3992.00,0.0032
3991.00,0.0032
3990.00,0.0032
3989.00,0.0032
3988.00,0.0032
3987.00,0.0033
3986.00,0.0033
3985.00,0.0033
3984.00,0.0033
3983.00,0.0033
3982.00,0.0033
3981.00,0.0033
3980.00,0.0032
3979.00,0.0032
3978.00,0.0032
3977.00,0.0033
3976.00,0.0033
3975.00,0.0033
3974.00,0.0033
3973.00,0.0033
3972.00,0.0033
3971.00,0.0033
3970.00,0.0033
3969.00,0.0033
3968.00,0.0033
3967.00,0.0033
3966.00,0.0032
3965.00,0.0032
3964.00,0.0032
3963.00,0.0032
3962.00,0.0032
3961.00,0.0032
3960.00,0.0032
3959.00,0.0032
3958.00,0.0032
3957.00,0.0032
3956.00,0.0032
3955.00,0.0032
3954.00,0.0033
3953.00,0.0033
3952.00,0.0033
3951.00,0.0033
3950.00,0.0033
3949.00,0.0032
3948.00,0.0032
3947.00,0.0032
3946.00,0.0032
3945.00,0.0032
3944.00,0.0032
3943.00,0.0032
3942.00,0.0032
3941.00,0.0032
3940.00,0.0032
3939.00,0.0032
3938.00,0.0032
3937.00,0.0033
3936.00,0.0033
3935.00,0.0033
3934.00,0.0032
3933.00,0.0032
3932.00,0.0032
3931.00,0.0032
3930.00,0.0032
3929.00,0.0032
3928.00,0.0032
3927.00,0.0032
3926.00,0.0032
3925.00,0.0032
3924.00,0.0032
3923.00,0.0032
3922.00,0.0032
3921.00,0.0032
3920.00,0.0032
3919.00,0.0032
3918.00,0.0032
3917.00,0.0032
3916.00,0.0032
3915.00,0.0032
3914.00,0.0032
3913.00,0.0032
3912.00,0.0032
3911.00,0.0032
3910.00,0.0032
3909.00,0.0032
3908.00,0.0032
3907.00,0.0032
3906.00,0.0032
3905.00,0.0032
3904.00,0.0032
3903.00,0.0032
3902.00,0.0032
3901.00,0.0032
3900.00,0.0032
3899.00,0.0032
3898.00,0.0032
3897.00,0.0031
3896.00,0.0031
3895.00,0.0031
3894.00,0.0031
3893.00,0.0032
3892.00,0.0032
3891.00,0.0032
3890.00,0.0032
3889.00,0.0031
3888.00,0.0031
3887.00,0.0031
3886.00,0.0031
3885.00,0.0031
3884.00,0.0031
3883.00,0.0031
3882.00,0.0031
3881.00,0.0031
3880.00,0.0031
3879.00,0.0030
3878.00,0.0030
3877.00,0.0030
3876.00,0.0030
3875.00,0.0030
3874.00,0.0031
3873.00,0.0031
3872.00,0.0031
3871.00,0.0031
3870.00,0.0031
3869.00,0.0031
3868.00,0.0031
3867.00,0.0031
3866.00,0.0031
3865.00,0.0031
3864.00,0.0031
3863.00,0.0031
3862.00,0.0031
3861.00,0.0031
3860.00,0.0032
3859.00,0.0032
3858.00,0.0032
3857.00,0.0032
3856.00,0.0031
3855.00,0.0031
3854.00,0.0030
3853.00,0.0030
3852.00,0.0030
3851.00,0.0030
3850.00,0.0030
3849.00,0.0031
3848.00,0.0031
3847.00,0.0031
3846.00,0.0031
3845.00,0.0031
3844.00,0.0031
3843.00,0.0031
3842.00,0.0031
3841.00,0.0031
3840.00,0.0030
3839.00,0.0030
3838.00,0.0030
3837.00,0.0030
3836.00,0.0030
3835.00,0.0030
3834.00,0.0030
3833.00,0.0030
3832.00,0.0030
3831.00,0.0031
3830.00,0.0031
3829.00,0.0031
3828.00,0.0031
3827.00,0.0031
3826.00,0.0031
3825.00,0.0031
3824.00,0.0031
3823.00,0.0030
3822.00,0.0030
3821.00,0.0030
3820.00,0.0030
3819.00,0.0030
3818.00,0.0030
3817.00,0.0030
3816.00,0.0030
3815.00,0.0030
3814.00,0.0030
3813.00,0.0030
3812.00,0.0030
3811.00,0.0030
3810.00,0.0030
3809.00,0.0030
3808.00,0.0030
3807.00,0.0031
3806.00,0.0031
3805.00,0.0031
3804.00,0.0030
3803.00,0.0030
3802.00,0.0030
3801.00,0.0031
3800.00,0.0031
3799.00,0.0030
3798.00,0.0030
3797.00,0.0030
3796.00,0.0030
3795.00,0.0030
3794.00,0.0030
3793.00,0.0030
3792.00,0.0030
3791.00,0.0030
3790.00,0.0030
3789.00,0.0030
3788.00,0.0031
3787.00,0.0031
3786.00,0.0031
3785.00,0.0031
3784.00,0.0031
3783.00,0.0031
3782.00,0.0031
3781.00,0.0031
3780.00,0.0031
3779.00,0.0031
3778.00,0.0031
3777.00,0.0031
3776.00,0.0030
3775.00,0.0030
3774.00,0.0030
3773.00,0.0030
3772.00,0.0030
3771.00,0.0030
3770.00,0.0031
3769.00,0.0031
3768.00,0.0031
3767.00,0.0031
3766.00,0.0031
3765.00,0.0031
3764.00,0.0031
3763.00,0.0031
3762.00,0.0031
3761.00,0.0031
3760.00,0.0031
3759.00,0.0031
3758.00,0.0031
3757.00,0.0031
3756.00,0.0031
3755.00,0.0031
3754.00,0.0031
3753.00,0.0031
3752.00,0.0031
3751.00,0.0031
3750.00,0.0031
3749.00,0.0030
3748.00,0.0030
3747.00,0.0030
3746.00,0.0029
3745.00,0.0029
3744.00,0.0030
3743.00,0.0030
3742.00,0.0029
3741.00,0.0029
3740.00,0.0030
3739.00,0.0030
3738.00,0.0030
3737.00,0.0029
3736.00,0.0029
3735.00,0.0029
3734.00,0.0029
3733.00,0.0029
3732.00,0.0029
3731.00,0.0029
3730.00,0.0029
3729.00,0.0029
3728.00,0.0029
3727.00,0.0029
3726.00,0.0029
3725.00,0.0029
3724.00,0.0029
3723.00,0.0029
3722.00,0.0029
3721.00,0.0029
3720.00,0.0029
3719.00,0.0029
3718.00,0.0029
3717.00,0.0029
3716.00,0.0029
3715.00,0.0029
3714.00,0.0029
3713.00,0.0029
3712.00,0.0029
3711.00,0.0029
3710.00,0.0028
3709.00,0.0028
3708.00,0.0028
3707.00,0.0028
3706.00,0.0028
3705.00,0.0028
3704.00,0.0028
3703.00,0.0028
3702.00,0.0028
3701.00,0.0028
3700.00,0.0028
3699.00,0.0028
3698.00,0.0028
3697.00,0.0028
3696.00,0.0029
3695.00,0.0029
3694.00,0.0029
3693.00,0.0028
3692.00,0.0028
3691.00,0.0028
3690.00,0.0027
3689.00,0.0028
3688.00,0.0028
3687.00,0.0028
3686.00,0.0028
3685.00,0.0029
3684.00,0.0029
3683.00,0.0029
3682.00,0.0030
3681.00,0.0030
3680.00,0.0030
3679.00,0.0030
3678.00,0.0029
3677.00,0.0029
3676.00,0.0029
3675.00,0.0029
3674.00,0.0029
3673.00,0.0029
3672.00,0.0029
3671.00,0.0029
3670.00,0.0029
3669.00,0.0029
3668.00,0.0029
3667.00,0.0029
3666.00,0.0029
3665.00,0.0029
3664.00,0.0030
3663.00,0.0030
3662.00,0.0030
3661.00,0.0030
3660.00,0.0030
3659.00,0.0030
3658.00,0.0030
3657.00,0.0030
3656.00,0.0031
3655.00,0.0031
3654.00,0.0031
3653.00,0.0031
3652.00,0.0031
3651.00,0.0031
3650.00,0.0031
3649.00,0.0031
3648.00,0.0031
3647.00,0.0031
3646.00,0.0031
3645.00,0.0031
3644.00,0.0031
3643.00,0.0031
3642.00,0.0031
3641.00,0.0032
3640.00,0.0032
3639.00,0.0032
3638.00,0.0032
3637.00,0.0032
3636.00,0.0032
3635.00,0.0032
3634.00,0.0033
3633.00,0.0033
3632.00,0.0033
3631.00,0.0033
3630.00,0.0033
3629.00,0.0033
3628.00,0.0033
3627.00,0.0033
3626.00,0.0033
3625.00,0.0034
3624.00,0.0034
3623.00,0.0035
3622.00,0.0035
3621.00,0.0036
3620.00,0.0036
3619.00,0.0036
3618.00,0.0036
3617.00,0.0036
3616.00,0.0036
3615.00,0.0037
3614.00,0.0037
3613.00,0.0037
3612.00,0.0038
3611.00,0.0038
3610.00,0.0038
3609.00,0.0038
3608.00,0.0038
3607.00,0.0038
3606.00,0.0038
3605.00,0.0038
3604.00,0.0038
3603.00,0.0038
3602.00,0.0039
3601.00,0.0039
3600.00,0.0039
3599.00,0.0040
3598.00,0.0040
3597.00,0.0040
3596.00,0.0041
3595.00,0.0041
3594.00,0.0041
3593.00,0.0042
3592.00,0.0042
3591.00,0.0043
3590.00,0.0043
3589.00,0.0043
3588.00,0.0044
3587.00,0.0044
3586.00,0.0044
3585.00,0.0044
3584.00,0.0044
3583.00,0.0045
3582.00,0.0045
3581.00,0.0045
3580.00,0.0045
3579.00,0.0046
3578.00,0.0046
3577.00,0.0046
3576.00,0.0046
3575.00,0.0047
3574.00,0.0047
3573.00,0.0048
3572.00,0.0049
3571.00,0.0049
3570.00,0.0050
3569.00,0.0050
3568.00,0.0050
3567.00,0.0051
3566.00,0.0051
3565.00,0.0051
3564.00,0.0052
3563.00,0.0052
3562.00,0.0052
3561.00,0.0053
3560.00,0.0053
3559.00,0.0054
3558.00,0.0055
3557.00,0.0055
3556.00,0.0056
3555.00,0.0057
3554.00,0.0057
3553.00,0.0057
3552.00,0.0058
3551.00,0.0058
3550.00,0.0059
3549.00,0.0060
3548.00,0.0060
3547.00,0.0061
3546.00,0.0061
3545.00,0.0062
3544.00,0.0062
3543.00,0.0063
3542.00,0.0063
3541.00,0.0063
3540.00,0.0064
3539.00,0.0064
3538.00,0.0064
3537.00,0.0065
3536.00,0.0065
3535.00,0.0066
3534.00,0.0067
3533.00,0.0068
3532.00,0.0068
3531.00,0.0069
3530.00,0.0069
3529.00,0.0070
3528.00,0.0071
3527.00,0.0071
3526.00,0.0072
3525.00,0.0072
3524.00,0.0073
3523.00,0.0073
3522.00,0.0074
3521.00,0.0074
3520.00,0.0075
3519.00,0.0075
3518.00,0.0076
3517.00,0.0077
3516.00,0.0077
3515.00,0.0078
3514.00,0.0079
3513.00,0.0079
3512.00,0.0080
3511.00,0.0080
3510.00,0.0081
3509.00,0.0082
3508.00,0.0082
3507.00,0.0083
3506.00,0.0084
3505.00,0.0085
3504.00,0.0085
3503.00,0.0086
3502.00,0.0086
3501.00,0.0087
3500.00,0.0088
3499.00,0.0088
3498.00,0.0089
3497.00,0.0090
3496.00,0.0090
3495.00,0.0091
3494.00,0.0092
3493.00,0.0093
3492.00,0.0094
3491.00,0.0095
3490.00,0.0096
3489.00,0.0097
3488.00,0.0098
3487.00,0.0099
3486.00,0.0100
3485.00,0.0101
3484.00,0.0103
3483.00,0.0104
3482.00,0.0105
3481.00,0.0106
3480.00,0.0108
3479.00,0.0109
3478.00,0.0110
3477.00,0.0111
3476.00,0.0112
3475.00,0.0113
3474.00,0.0115
3473.00,0.0116
3472.00,0.0118
3471.00,0.0119
3470.00,0.0121
3469.00,0.0122
3468.00,0.0124
3467.00,0.0126
3466.00,0.0127
3465.00,0.0129
3464.00,0.0130
3463.00,0.0132
3462.00,0.0133
3461.00,0.0135
3460.00,0.0136
3459.00,0.0138
3458.00,0.0140
3457.00,0.0141
3456.00,0.0143
3455.00,0.0145
3454.00,0.0147
3453.00,0.0148
3452.00,0.0150
3451.00,0.0152
3450.00,0.0153
3449.00,0.0155
3448.00,0.0156
3447.00,0.0158
3446.00,0.0160
3445.00,0.0162
3444.00,0.0164
3443.00,0.0166
3442.00,0.0168
3441.00,0.0171
3440.00,0.0173
3439.00,0.0175
3438.00,0.0178
3437.00,0.0180
3436.00,0.0182
3435.00,0.0185
3434.00,0.0187
3433.00,0.0189
3432.00,0.0192
3431.00,0.0195
3430.00,0.0198
3429.00,0.0200
3428.00,0.0203
3427.00,0.0205
3426.00,0.0208
3425.00,0.0210
3424.00,0.0213
3423.00,0.0216
3422.00,0.0220
3421.00,0.0223
3420.00,0.0226
3419.00,0.0229
3418.00,0.0232
3417.00,0.0234
3416.00,0.0237
3415.00,0.0239
3414.00,0.0242
3413.00,0.0244
3412.00,0.0247
3411.00,0.0249
3410.00,0.0251
3409.00,0.0253
3408.00,0.0255
3407.00,0.0256
3406.00,0.0258
3405.00,0.0259
3404.00,0.0260
3403.00,0.0261
3402.00,0.0262
3401.00,0.0263
3400.00,0.0263
3399.00,0.0263
3398.00,0.0263
3397.00,0.0262
3396.00,0.0262
3395.00,0.0261
3394.00,0.0261
3393.00,0.0260
3392.00,0.0259
3391.00,0.0258
3390.00,0.0256
3389.00,0.0255
3388.00,0.0253
3387.00,0.0252
3386.00,0.0250
3385.00,0.0248
3384.00,0.0246
3383.00,0.0244
3382.00,0.0243
3381.00,0.0241
3380.00,0.0239
3379.00,0.0237
3378.00,0.0235
3377.00,0.0233
3376.00,0.0231
3375.00,0.0229
3374.00,0.0228
3373.00,0.0226
3372.00,0.0224
3371.00,0.0223
3370.00,0.0221
3369.00,0.0219
3368.00,0.0218
3367.00,0.0216
3366.00,0.0215
3365.00,0.0213
3364.00,0.0212
3363.00,0.0210
3362.00,0.0209
3361.00,0.0207
3360.00,0.0206
3359.00,0.0205
3358.00,0.0204
3357.00,0.0203
3356.00,0.0202
3355.00,0.0201
3354.00,0.0200
3353.00,0.0199
3352.00,0.0198
3351.00,0.0197
3350.00,0.0196
3349.00,0.0195
3348.00,0.0194
3347.00,0.0194
3346.00,0.0193
3345.00,0.0192
3344.00,0.0192
3343.00,0.0191
3342.00,0.0190
3341.00,0.0190
3340.00,0.0190
3339.00,0.0189
3338.00,0.0189
3337.00,0.0188
3336.00,0.0188
3335.00,0.0188
3334.00,0.0188
3333.00,0.0188
3332.00,0.0188
3331.00,0.0188
3330.00,0.0188
3329.00,0.0188
3328.00,0.0188
3327.00,0.0188
3326.00,0.0188
3325.00,0.0188
3324.00,0.0189
3323.00,0.0189
3322.00,0.0189
3321.00,0.0189
3320.00,0.0190
3319.00,0.0190
3318.00,0.0191
3317.00,0.0191
3316.00,0.0192
3315.00,0.0193
3314.00,0.0193
3313.00,0.0194
3312.00,0.0194
3311.00,0.0195
3310.00,0.0195
3309.00,0.0196
3308.00,0.0197
3307.00,0.0198
3306.00,0.0199
3305.00,0.0199
3304.00,0.0200
3303.00,0.0201
3302.00,0.0202
3301.00,0.0203
3300.00,0.0204
3299.00,0.0205
3298.00,0.0206
3297.00,0.0207
3296.00,0.0207
3295.00,0.0208
3294.00,0.0209
3293.00,0.0210
3292.00,0.0212
3291.00,0.0213
3290.00,0.0214
3289.00,0.0215
3288.00,0.0216
3287.00,0.0218
3286.00,0.0219
3285.00,0.0220
3284.00,0.0221
3283.00,0.0221
3282.00,0.0222
3281.00,0.0224
3280.00,0.0225
3279.00,0.0226
3278.00,0.0227
3277.00,0.0228
3276.00,0.0229
3275.00,0.0230
3274.00,0.0231
3273.00,0.0232
3272.00,0.0233
3271.00,0.0234
3270.00,0.0235
3269.00,0.0236
3268.00,0.0238
3267.00,0.0239
3266.00,0.0240
3265.00,0.0241
3264.00,0.0242
3263.00,0.0243
3262.00,0.0244
3261.00,0.0245
3260.00,0.0246
3259.00,0.0247
3258.00,0.0248
3257.00,0.0249
3256.00,0.0250
3255.00,0.0251
3254.00,0.0252
3253.00,0.0253
3252.00,0.0254
3251.00,0.0256
3250.00,0.0256
3249.00,0.0257
3248.00,0.0258
3247.00,0.0258
3246.00,0.0259
3245.00,0.0260
3244.00,0.0261
3243.00,0.0262
3242.00,0.0262
3241.00,0.0263
3240.00,0.0264
3239.00,0.0264
3238.00,0.0264
3237.00,0.0264
3236.00,0.0264
3235.00,0.0264
3234.00,0.0264
3233.00,0.0264
3232.00,0.0264
3231.00,0.0264
3230.00,0.0264
3229.00,0.0264
3228.00,0.0264
3227.00,0.0263
3226.00,0.0263
3225.00,0.0263
3224.00,0.0262
3223.00,0.0262
3222.00,0.0261
3221.00,0.0261
3220.00,0.0260
3219.00,0.0259
3218.00,0.0259
3217.00,0.0258
3216.00,0.0257
3215.00,0.0256
3214.00,0.0254
3213.00,0.0253
3212.00,0.0252
3211.00,0.0251
3210.00,0.0250
3209.00,0.0248
3208.00,0.0247
3207.00,0.0245
3206.00,0.0244
3205.00,0.0242
3204.00,0.0241
3203.00,0.0239
3202.00,0.0237
3201.00,0.0236
3200.00,0.0234
3199.00,0.0232
3198.00,0.0231
3197.00,0.0229
3196.00,0.0227
3195.00,0.0225
3194.00,0.0224
3193.00,0.0222
3192.00,0.0220
3191.00,0.0218
3190.00,0.0216
3189.00,0.0215
3188.00,0.0213
3187.00,0.0211
3186.00,0.0209
3185.00,0.0208
3184.00,0.0206
3183.00,0.0204
3182.00,0.0202
3181.00,0.0200
3180.00,0.0199
3179.00,0.0197
3178.00,0.0195
3177.00,0.0193
3176.00,0.0192
3175.00,0.0190
3174.00,0.0188
3173.00,0.0186
3172.00,0.0184
3171.00,0.0182
3170.00,0.0180
3169.00,0.0178
3168.00,0.0176
3167.00,0.0174
3166.00,0.0172
3165.00,0.0170
3164.00,0.0169
3163.00,0.0167
3162.00,0.0165
3161.00,0.0164
3160.00,0.0162
3159.00,0.0161
3158.00,0.0159
3157.00,0.0157
3156.00,0.0155
3155.00,0.0153
3154.00,0.0151
3153.00,0.0149
3152.00,0.0147
3151.00,0.0145
3150.00,0.0144
3149.00,0.0143
3148.00,0.0141
3147.00,0.0140
3146.00,0.0138
3145.00,0.0137
3144.00,0.0136
3143.00,0.0134
3142.00,0.0133
3141.00,0.0131
3140.00,0.0129
3139.00,0.0128
3138.00,0.0127
3137.00,0.0126
3136.00,0.0125
3135.00,0.0124
3134.00,0.0122
3133.00,0.0121
3132.00,0.0120
3131.00,0.0119
3130.00,0.0118
3129.00,0.0117
3128.00,0.0116
3127.00,0.0115
3126.00,0.0114
3125.00,0.0114
3124.00,0.0113
3123.00,0.0112
3122.00,0.0111
3121.00,0.0110
3120.00,0.0109
3119.00,0.0108
3118.00,0.0108
3117.00,0.0107
3116.00,0.0106
3115.00,0.0105
3114.00,0.0104
3113.00,0.0103
3112.00,0.0102
3111.00,0.0101
3110.00,0.0100
3109.00,0.0098
3108.00,0.0097
3107.00,0.0096
3106.00,0.0095
3105.00,0.0094
3104.00,0.0093
3103.00,0.0092
3102.00,0.0092
3101.00,0.0091
3100.00,0.0090
3099.00,0.0090
3098.00,0.0090
3097.00,0.0090
3096.00,0.0090
3095.00,0.0090
3094.00,0.0090
3093.00,0.0090
3092.00,0.0090
3091.00,0.0090
3090.00,0.0091
3089.00,0.0091
3088.00,0.0092
3087.00,0.0092
3086.00,0.0092
3085.00,0.0092
3084.00,0.0092
3083.00,0.0092
3082.00,0.0092
3081.00,0.0091
3080.00,0.0091
3079.00,0.0091
3078.00,0.0090
3077.00,0.0090
3076.00,0.0089
3075.00,0.0089
3074.00,0.0088
3073.00,0.0088
3072.00,0.0087
3071.00,0.0087
3070.00,0.0087
3069.00,0.0087
3068.00,0.0087
3067.00,0.0087
3066.00,0.0086
3065.00,0.0087
3064.00,0.0087
3063.00,0.0087
3062.00,0.0087
3061.00,0.0087
3060.00,0.0088
3059.00,0.0088
3058.00,0.0088
3057.00,0.0088
3056.00,0.0088
3055.00,0.0089
3054.00,0.0089
3053.00,0.0089
3052.00,0.0089
3051.00,0.0089
3050.00,0.0089
3049.00,0.0089
3048.00,0.0088
3047.00,0.0088
3046.00,0.0087
3045.00,0.0087
3044.00,0.0087
3043.00,0.0087
3042.00,0.0088
3041.00,0.0089
3040.00,0.0090
3039.00,0.0091
3038.00,0.0092
3037.00,0.0093
3036.00,0.0094
3035.00,0.0095
3034.00,0.0096
3033.00,0.0097
3032.00,0.0097
3031.00,0.0096
3030.00,0.0096
3029.00,0.0095
3028.00,0.0094
3027.00,0.0092
3026.00,0.0091
3025.00,0.0089
3024.00,0.0088
3023.00,0.0086
3022.00,0.0085
3021.00,0.0084
3020.00,0.0083
3019.00,0.0083
3018.00,0.0082
3017.00,0.0082
3016.00,0.0081
3015.00,0.0081
3014.00,0.0081
3013.00,0.0082
3012.00,0.0082
3011.00,0.0083
3010.00,0.0084
3009.00,0.0085
3008.00,0.0086
3007.00,0.0088
3006.00,0.0090
3005.00,0.0092
3004.00,0.0095
3003.00,0.0098
3002.00,0.0101
3001.00,0.0105
3000.00,0.0109
2999.00,0.0113
2998.00,0.0119
2997.00,0.0124
2996.00,0.0130
2995.00,0.0136
2994.00,0.0141
2993.00,0.0146
2992.00,0.0150
2991.00,0.0153
2990.00,0.0156
2989.00,0.0159
2988.00,0.0163
2987.00,0.0167
2986.00,0.0171
2985.00,0.0177
2984.00,0.0185
2983.00,0.0194
2982.00,0.0204
2981.00,0.0215
2980.00,0.0225
2979.00,0.0233
2978.00,0.0238
2977.00,0.0241
2976.00,0.0244
2975.00,0.0249
2974.00,0.0257
2973.00,0.0268
2972.00,0.0282
2971.00,0.0295
2970.00,0.0305
2969.00,0.0313
2968.00,0.0319
2967.00,0.0323
2966.00,0.0327
2965.00,0.0333
2964.00,0.0340
2963.00,0.0347
2962.00,0.0354
2961.00,0.0359
2960.00,0.0361
2959.00,0.0359
2958.00,0.0354
2957.00,0.0345
2956.00,0.0334
2955.00,0.0322
2954.00,0.0310
2953.00,0.0299
2952.00,0.0289
2951.00,0.0281
2950.00,0.0274
2949.00,0.0271
2948.00,0.0270
2947.00,0.0271
2946.00,0.0275
2945.00,0.0280
2944.00,0.0287
2943.00,0.0295
2942.00,0.0304
2941.00,0.0315
2940.00,0.0327
2939.00,0.0340
2938.00,0.0357
2937.00,0.0375
2936.00,0.0397
2935.00,0.0420
2934.00,0.0445
2933.00,0.0471
2932.00,0.0497
2931.00,0.0522
2930.00,0.0545
2929.00,0.0565
2928.00,0.0579
2927.00,0.0588
2926.00,0.0590
2925.00,0.0587
2924.00,0.0579
2923.00,0.0567
2922.00,0.0552
2921.00,0.0535
2920.00,0.0518
2919.00,0.0499
2918.00,0.0481
2917.00,0.0462
2916.00,0.0444
2915.00,0.0426
2914.00,0.0409
2913.00,0.0394
2912.00,0.0379
2911.00,0.0366
2910.00,0.0355
2909.00,0.0343
2908.00,0.0333
2907.00,0.0324
2906.00,0.0315
2905.00,0.0306
2904.00,0.0298
2903.00,0.0291
2902.00,0.0283
2901.00,0.0276
2900.00,0.0269
2899.00,0.0262
2898.00,0.0256
2897.00,0.0250
2896.00,0.0244
2895.00,0.0240
2894.00,0.0235
2893.00,0.0231
2892.00,0.0227
2891.00,0.0223
2890.00,0.0220
2889.00,0.0216
2888.00,0.0213
2887.00,0.0210
2886.00,0.0208
2885.00,0.0205
2884.00,0.0204
2883.00,0.0204
2882.00,0.0204
2881.00,0.0207
2880.00,0.0210
2879.00,0.0216
2878.00,0.0223
2877.00,0.0232
2876.00,0.0241
2875.00,0.0250
2874.00,0.0257
2873.00,0.0263
2872.00,0.0266
2871.00,0.0267
2870.00,0.0266
2869.00,0.0264
2868.00,0.0263
2867.00,0.0263
2866.00,0.0266
2865.00,0.0272
2864.00,0.0281
2863.00,0.0295
2862.00,0.0312
2861.00,0.0332
2860.00,0.0354
2859.00,0.0375
2858.00,0.0392
2857.00,0.0405
2856.00,0.0413
2855.00,0.0417
2854.00,0.0416
2853.00,0.0411
2852.00,0.0403
2851.00,0.0391
2850.00,0.0373
2849.00,0.0352
2848.00,0.0328
2847.00,0.0303
2846.00,0.0280
2845.00,0.0258
2844.00,0.0238
2843.00,0.0221
2842.00,0.0205
2841.00,0.0192
2840.00,0.0180
2839.00,0.0170
2838.00,0.0161
2837.00,0.0153
2836.00,0.0147
2835.00,0.0141
2834.00,0.0136
2833.00,0.0132
2832.00,0.0128
2831.00,0.0124
2830.00,0.0120
2829.00,0.0117
2828.00,0.0114
2827.00,0.0111
2826.00,0.0108
2825.00,0.0106
2824.00,0.0103
2823.00,0.0101
2822.00,0.0099
2821.00,0.0098
2820.00,0.0096
2819.00,0.0094
2818.00,0.0092
2817.00,0.0091
2816.00,0.0090
2815.00,0.0088
2814.00,0.0087
2813.00,0.0086
2812.00,0.0085
2811.00,0.0084
2810.00,0.0084
2809.00,0.0083
2808.00,0.0082
2807.00,0.0081
2806.00,0.0081
2805.00,0.0080
2804.00,0.0079
2803.00,0.0079
2802.00,0.0078
2801.00,0.0077
2800.00,0.0076
2799.00,0.0075
2798.00,0.0075
2797.00,0.0074
2796.00,0.0074
2795.00,0.0073
2794.00,0.0072
2793.00,0.0071
2792.00,0.0071
2791.00,0.0070
2790.00,0.0069
2789.00,0.0069
2788.00,0.0068
2787.00,0.0068
2786.00,0.0067
2785.00,0.0067
2784.00,0.0067
2783.00,0.0066
2782.00,0.0066
2781.00,0.0065
2780.00,0.0065
2779.00,0.0064
2778.00,0.0064
2777.00,0.0063
2776.00,0.0063
2775.00,0.0063
2774.00,0.0063
2773.00,0.0063
2772.00,0.0062
2771.00,0.0062
2770.00,0.0062
2769.00,0.0062
2768.00,0.0062
2767.00,0.0062
2766.00,0.0062
2765.00,0.0062
2764.00,0.0062
2763.00,0.0062
2762.00,0.0061
2761.00,0.0061
2760.00,0.0061
2759.00,0.0062
2758.00,0.0062
2757.00,0.0062
2756.00,0.0062
2755.00,0.0062
2754.00,0.0062
2753.00,0.0062
2752.00,0.0062
2751.00,0.0062
2750.00,0.0063
2749.00,0.0063
2748.00,0.0063
2747.00,0.0063
2746.00,0.0063
2745.00,0.0064
2744.00,0.0064
2743.00,0.0064
2742.00,0.0064
2741.00,0.0065
2740.00,0.0065
2739.00,0.0066
2738.00,0.0067
2737.00,0.0067
2736.00,0.0068
2735.00,0.0069
2734.00,0.0070
2733.00,0.0071
2732.00,0.0072
2731.00,0.0072
2730.00,0.0072
2729.00,0.0072
2728.00,0.0071
2727.00,0.0071
2726.00,0.0070
2725.00,0.0070
2724.00,0.0069
2723.00,0.0069
2722.00,0.0068
2721.00,0.0067
2720.00,0.0067
2719.00,0.0067
2718.00,0.0066
2717.00,0.0066
2716.00,0.0065
2715.00,0.0065
2714.00,0.0065
2713.00,0.0065
2712.00,0.0064
2711.00,0.0064
2710.00,0.0064
2709.00,0.0064
2708.00,0.0064
2707.00,0.0064
2706.00,0.0064
2705.00,0.0064
2704.00,0.0064
2703.00,0.0064
2702.00,0.0063
2701.00,0.0063
2700.00,0.0063
2699.00,0.0063
2698.00,0.0063
2697.00,0.0062
2696.00,0.0062
2695.00,0.0062
2694.00,0.0061
2693.00,0.0061
2692.00,0.0061
2691.00,0.0060
2690.00,0.0060
2689.00,0.0060
2688.00,0.0060
2687.00,0.0059
2686.00,0.0059
2685.00,0.0059
2684.00,0.0059
2683.00,0.0059
2682.00,0.0058
2681.00,0.0058
2680.00,0.0058
2679.00,0.0058
2678.00,0.0058
2677.00,0.0058
2676.00,0.0059
2675.00,0.0059
2674.00,0.0059
2673.00,0.0059
2672.00,0.0059
2671.00,0.0060
2670.00,0.0060
2669.00,0.0060
2668.00,0.0061
2667.00,0.0061
2666.00,0.0062
2665.00,0.0062
2664.00,0.0063
2663.00,0.0064
2662.00,0.0064
2661.00,0.0065
2660.00,0.0065
2659.00,0.0065
2658.00,0.0065
2657.00,0.0065
2656.00,0.0065
2655.00,0.0066
2654.00,0.0066
2653.00,0.0066
2652.00,0.0066
2651.00,0.0066
2650.00,0.0065
2649.00,0.0065
2648.00,0.0065
2647.00,0.0065
2646.00,0.0066
2645.00,0.0066
2644.00,0.0065
2643.00,0.0065
2642.00,0.0064
2641.00,0.0064
2640.00,0.0064
2639.00,0.0064
2638.00,0.0063
2637.00,0.0063
2636.00,0.0063
2635.00,0.0062
2634.00,0.0062
2633.00,0.0061
2632.00,0.0061
2631.00,0.0060
2630.00,0.0060
2629.00,0.0060
2628.00,0.0060
2627.00,0.0059
2626.00,0.0059
2625.00,0.0058
2624.00,0.0058
2623.00,0.0057
2622.00,0.0057
2621.00,0.0057
2620.00,0.0057
2619.00,0.0057
2618.00,0.0057
2617.00,0.0057
2616.00,0.0056
2615.00,0.0056
2614.00,0.0056
2613.00,0.0056
2612.00,0.0056
2611.00,0.0056
2610.00,0.0056
2609.00,0.0056
2608.00,0.0057
2607.00,0.0057
2606.00,0.0057
2605.00,0.0057
2604.00,0.0057
2603.00,0.0057
2602.00,0.0057
2601.00,0.0058
2600.00,0.0058
2599.00,0.0058
2598.00,0.0058
2597.00,0.0059
2596.00,0.0059
2595.00,0.0059
2594.00,0.0059
2593.00,0.0059
2592.00,0.0059
2591.00,0.0059
2590.00,0.0059
2589.00,0.0059
2588.00,0.0060
2587.00,0.0059
2586.00,0.0059
2585.00,0.0060
2584.00,0.0060
2583.00,0.0059
2582.00,0.0059
2581.00,0.0059
2580.00,0.0058
2579.00,0.0058
2578.00,0.0058
2577.00,0.0058
2576.00,0.0057
2575.00,0.0057
2574.00,0.0057
2573.00,0.0057
2572.00,0.0056
2571.00,0.0056
2570.00,0.0056
2569.00,0.0056
2568.00,0.0056
2567.00,0.0057
2566.00,0.0057
2565.00,0.0056
2564.00,0.0056
2563.00,0.0056
2562.00,0.0055
2561.00,0.0055
2560.00,0.0054
2559.00,0.0054
2558.00,0.0053
2557.00,0.0052
2556.00,0.0052
2555.00,0.0052
2554.00,0.0051
2553.00,0.0051
2552.00,0.0052
2551.00,0.0052
2550.00,0.0052
2549.00,0.0053
2548.00,0.0053
2547.00,0.0053
2546.00,0.0052
2545.00,0.0052
2544.00,0.0052
2543.00,0.0052
2542.00,0.0052
2541.00,0.0052
2540.00,0.0053
2539.00,0.0053
2538.00,0.0053
2537.00,0.0054
2536.00,0.0054
2535.00,0.0054
2534.00,0.0053
2533.00,0.0053
2532.00,0.0052
2531.00,0.0052
2530.00,0.0052
2529.00,0.0051
2528.00,0.0051
2527.00,0.0051
2526.00,0.0051
2525.00,0.0051
2524.00,0.0051
2523.00,0.0050
2522.00,0.0050
2521.00,0.0049
2520.00,0.0049
2519.00,0.0049
2518.00,0.0049
2517.00,0.0049
2516.00,0.0048
2515.00,0.0048
2514.00,0.0048
2513.00,0.0047
2512.00,0.0047
2511.00,0.0047
2510.00,0.0047
2509.00,0.0047
2508.00,0.0047
2507.00,0.0047
2506.00,0.0047
2505.00,0.0046
2504.00,0.0046
2503.00,0.0046
2502.00,0.0046
2501.00,0.0046
2500.00,0.0046
2499.00,0.0045
2498.00,0.0045
2497.00,0.0045
2496.00,0.0045
2495.00,0.0045
2494.00,0.0045
2493.00,0.0044
2492.00,0.0044
2491.00,0.0044
2490.00,0.0044
2489.00,0.0044
2488.00,0.0044
2487.00,0.0044
2486.00,0.0044
2485.00,0.0044
2484.00,0.0044
2483.00,0.0044
2482.00,0.0044
2481.00,0.0044
2480.00,0.0043
2479.00,0.0043
2478.00,0.0042
2477.00,0.0042
2476.00,0.0042
2475.00,0.0042
2474.00,0.0042
2473.00,0.0042
2472.00,0.0042
2471.00,0.0042
2470.00,0.0042
2469.00,0.0042
2468.00,0.0042
2467.00,0.0042
2466.00,0.0042
2465.00,0.0043
2464.00,0.0043
2463.00,0.0043
2462.00,0.0043
2461.00,0.0043
2460.00,0.0043
2459.00,0.0043
2458.00,0.0043
2457.00,0.0043
2456.00,0.0043
2455.00,0.0043
2454.00,0.0043
2453.00,0.0043
2452.00,0.0043
2451.00,0.0043
2450.00,0.0043
2449.00,0.0043
2448.00,0.0042
2447.00,0.0042
2446.00,0.0042
2445.00,0.0042
2444.00,0.0042
2443.00,0.0042
2442.00,0.0041
2441.00,0.0041
2440.00,0.0041
2439.00,0.0041
2438.00,0.0041
2437.00,0.0041
2436.00,0.0040
2435.00,0.0040
2434.00,0.0039
2433.00,0.0039
2432.00,0.0039
2431.00,0.0040
2430.00,0.0040
2429.00,0.0040
2428.00,0.0040
2427.00,0.0040
2426.00,0.0040
2425.00,0.0039
2424.00,0.0039
2423.00,0.0039
2422.00,0.0038
2421.00,0.0039
2420.00,0.0039
2419.00,0.0039
2418.00,0.0039
2417.00,0.0039
2416.00,0.0040
2415.00,0.0040
2414.00,0.0040
2413.00,0.0040
2412.00,0.0040
2411.00,0.0040
2410.00,0.0040
2409.00,0.0039
2408.00,0.0039
2407.00,0.0039
2406.00,0.0039
2405.00,0.0039
2404.00,0.0039
2403.00,0.0039
2402.00,0.0038
2401.00,0.0038
2400.00,0.0039
2399.00,0.0039
2398.00,0.0038
2397.00,0.0038
2396.00,0.0038
2395.00,0.0038
2394.00,0.0038
2393.00,0.0038
2392.00,0.0038
2391.00,0.0038
2390.00,0.0038
2389.00,0.0037
2388.00,0.0037
2387.00,0.0037
2386.00,0.0036
2385.00,0.0036
2384.00,0.0035
2383.00,0.0034
2382.00,0.0034
2381.00,0.0033
2380.00,0.0032
2379.00,0.0032
2378.00,0.0032
2377.00,0.0032
2376.00,0.0033
2375.00,0.0033
2374.00,0.0033
2373.00,0.0033
2372.00,0.0033
2371.00,0.0033
2370.00,0.0033
2369.00,0.0032
2368.00,0.0032
2367.00,0.0032
2366.00,0.0032
2365.00,0.0032
2364.00,0.0032
2363.00,0.0032
2362.00,0.0032
2361.00,0.0033
2360.00,0.0033
2359.00,0.0033
2358.00,0.0033
2357.00,0.0033
2356.00,0.0033
2355.00,0.0034
2354.00,0.0033
2353.00,0.0033
2352.00,0.0033
2351.00,0.0033
2350.00,0.0033
2349.00,0.0034
2348.00,0.0034
2347.00,0.0035
2346.00,0.0035
2345.00,0.0034
2344.00,0.0035
2343.00,0.0035
2342.00,0.0035
2341.00,0.0036
2340.00,0.0036
2339.00,0.0036
2338.00,0.0036
2337.00,0.0036
2336.00,0.0036
2335.00,0.0036
2334.00,0.0036
2333.00,0.0036
2332.00,0.0036
2331.00,0.0036
2330.00,0.0037
2329.00,0.0039
2328.00,0.0042
2327.00,0.0045
2326.00,0.0048
2325.00,0.0049
2324.00,0.0049
2323.00,0.0047
2322.00,0.0044
2321.00,0.0043
2320.00,0.0042
2319.00,0.0041
2318.00,0.0041
2317.00,0.0041
2316.00,0.0041
2315.00,0.0040
2314.00,0.0040
2313.00,0.0039
2312.00,0.0039
2311.00,0.0038
2310.00,0.0038
2309.00,0.0038
2308.00,0.0039
2307.00,0.0039
2306.00,0.0039
2305.00,0.0039
2304.00,0.0040
2303.00,0.0040
2302.00,0.0040
2301.00,0.0040
2300.00,0.0040
2299.00,0.0040
2298.00,0.0040
2297.00,0.0041
2296.00,0.0042
2295.00,0.0043
2294.00,0.0043
2293.00,0.0044
2292.00,0.0045
2291.00,0.0046
2290.00,0.0047
2289.00,0.0049
2288.00,0.0050
2287.00,0.0050
2286.00,0.0050
2285.00,0.0049
2284.00,0.0048
2283.00,0.0047
2282.00,0.0046
2281.00,0.0045
2280.00,0.0044
2279.00,0.0043
2278.00,0.0043
2277.00,0.0043
2276.00,0.0042
2275.00,0.0042
2274.00,0.0042
2273.00,0.0042
2272.00,0.0042
2271.00,0.0041
2270.00,0.0041
2269.00,0.0040
2268.00,0.0040
2267.00,0.0039
2266.00,0.0038
2265.00,0.0037
2264.00,0.0037
2263.00,0.0036
2262.00,0.0036
2261.00,0.0036
2260.00,0.0036
2259.00,0.0036
2258.00,0.0036
2257.00,0.0036
2256.00,0.0035
2255.00,0.0035
2254.00,0.0035
2253.00,0.0035
2252.00,0.0036
2251.00,0.0036
2250.00,0.0036
2249.00,0.0037
2248.00,0.0037
2247.00,0.0037
2246.00,0.0037
2245.00,0.0036
2244.00,0.0036
2243.00,0.0036
2242.00,0.0037
2241.00,0.0038
2240.00,0.0039
2239.00,0.0039
2238.00,0.0039
2237.00,0.0038
2236.00,0.0038
2235.00,0.0037
2234.00,0.0037
2233.00,0.0038
2232.00,0.0038
2231.00,0.0037
2230.00,0.0036
2229.00,0.0036
2228.00,0.0037
2227.00,0.0037
2226.00,0.0037
2225.00,0.0036
2224.00,0.0036
2223.00,0.0035
2222.00,0.0035
2221.00,0.0036
2220.00,0.0036
2219.00,0.0037
2218.00,0.0037
2217.00,0.0037
2216.00,0.0037
2215.00,0.0037
2214.00,0.0036
2213.00,0.0036
2212.00,0.0035
2211.00,0.0035
2210.00,0.0036
2209.00,0.0036
2208.00,0.0037
2207.00,0.0037
2206.00,0.0037
2205.00,0.0037
2204.00,0.0037
2203.00,0.0037
2202.00,0.0037
2201.00,0.0037
2200.00,0.0037
2199.00,0.0038
2198.00,0.0038
2197.00,0.0038
2196.00,0.0038
2195.00,0.0038
2194.00,0.0037
2193.00,0.0037
2192.00,0.0038
2191.00,0.0039
2190.00,0.0040
2189.00,0.0040
2188.00,0.0041
2187.00,0.0041
2186.00,0.0040
2185.00,0.0037
2184.00,0.0035
2183.00,0.0032
2182.00,0.0031
2181.00,0.0031
2180.00,0.0033
2179.00,0.0035
2178.00,0.0036
2177.00,0.0035
2176.00,0.0034
2175.00,0.0034
2174.00,0.0034
2173.00,0.0036
2172.00,0.0038
2171.00,0.0041
2170.00,0.0043
2169.00,0.0045
2168.00,0.0046
2167.00,0.0047
2166.00,0.0047
2165.00,0.0048
2164.00,0.0050
2163.00,0.0050
2162.00,0.0045
2161.00,0.0034
2160.00,0.0020
2159.00,0.0007
2158.00,0.0000
2157.00,-0.0000
2156.00,0.0004
2155.00,0.0008
2154.00,0.0013
2153.00,0.0016
2152.00,0.0018
2151.00,0.0018
2150.00,0.0018
2149.00,0.0018
2148.00,0.0018
2147.00,0.0018
2146.00,0.0019
2145.00,0.0019
2144.00,0.0020
2143.00,0.0019
2142.00,0.0018
2141.00,0.0018
2140.00,0.0018
2139.00,0.0017
2138.00,0.0017
2137.00,0.0016
2136.00,0.0015
2135.00,0.0014
2134.00,0.0014
2133.00,0.0015
2132.00,0.0016
2131.00,0.0018
2130.00,0.0019
2129.00,0.0021
2128.00,0.0022
2127.00,0.0023
2126.00,0.0024
2125.00,0.0025
2124.00,0.0025
2123.00,0.0025
2122.00,0.0025
2121.00,0.0025
2120.00,0.0026
2119.00,0.0028
2118.00,0.0029
2117.00,0.0030
2116.00,0.0031
2115.00,0.0032
2114.00,0.0032
2113.00,0.0031
2112.00,0.0030
2111.00,0.0030
2110.00,0.0029
2109.00,0.0029
2108.00,0.0029
2107.00,0.0029
2106.00,0.0029
2105.00,0.0029
2104.00,0.0029
2103.00,0.0029
2102.00,0.0029
2101.00,0.0029
2100.00,0.0029
2099.00,0.0029
2098.00,0.0027
2097.00,0.0026
2096.00,0.0024
2095.00,0.0023
2094.00,0.0023
2093.00,0.0024
2092.00,0.0025
2091.00,0.0027
2090.00,0.0027
2089.00,0.0028
2088.00,0.0029
2087.00,0.0030
2086.00,0.0031
2085.00,0.0032
2084.00,0.0033
2083.00,0.0033
2082.00,0.0033
2081.00,0.0033
2080.00,0.0033
2079.00,0.0032
2078.00,0.0032
2077.00,0.0031
2076.00,0.0031
2075.00,0.0031
2074.00,0.0031
2073.00,0.0031
2072.00,0.0031
2071.00,0.0031
2070.00,0.0031
2069.00,0.0031
2068.00,0.0030
2067.00,0.0029
2066.00,0.0028
2065.00,0.0028
2064.00,0.0028
2063.00,0.0029
2062.00,0.0029
2061.00,0.0030
2060.00,0.0030
2059.00,0.0029
2058.00,0.0028
2057.00,0.0027
2056.00,0.0025
2055.00,0.0024
2054.00,0.0025
2053.00,0.0029
2052.00,0.0034
2051.00,0.0035
2050.00,0.0032
2049.00,0.0028
2048.00,0.0025
2047.00,0.0025
2046.00,0.0026
2045.00,0.0028
2044.00,0.0030
2043.00,0.0031
2042.00,0.0031
2041.00,0.0030
2040.00,0.0030
2039.00,0.0030
2038.00,0.0031
2037.00,0.0032
2036.00,0.0032
2035.00,0.0030
2034.00,0.0028
2033.00,0.0026
2032.00,0.0025
2031.00,0.0025
2030.00,0.0025
2029.00,0.0025
2028.00,0.0025
2027.00,0.0025
2026.00,0.0024
2025.00,0.0023
2024.00,0.0023
2023.00,0.0023
2022.00,0.0023
2021.00,0.0021
2020.00,0.0020
2019.00,0.0020
2018.00,0.0020
2017.00,0.0020
2016.00,0.0021
2015.00,0.0022
2014.00,0.0021
2013.00,0.0020
2012.00,0.0020
2011.00,0.0020
2010.00,0.0019
2009.00,0.0017
2008.00,0.0015
2007.00,0.0014
2006.00,0.0013
2005.00,0.0012
2004.00,0.0014
2003.00,0.0016
2002.00,0.0019
2001.00,0.0021
2000.00,0.0023
1999.00,0.0024
1998.00,0.0024
1997.00,0.0024
1996.00,0.0025
1995.00,0.0025
1994.00,0.0024
1993.00,0.0024
1992.00,0.0025
1991.00,0.0027
1990.00,0.0028
1989.00,0.0029
1988.00,0.0030
1987.00,0.0030
1986.00,0.0030
1985.00,0.0031
1984.00,0.0033
1983.00,0.0036
1982.00,0.0038
1981.00,0.0039
1980.00,0.0037
1979.00,0.0032
1978.00,0.0026
1977.00,0.0021
1976.00,0.0019
1975.00,0.0018
1974.00,0.0019
1973.00,0.0018
1972.00,0.0018
1971.00,0.0017
1970.00,0.0017
1969.00,0.0018
1968.00,0.0020
1967.00,0.0021
1966.00,0.0022
1965.00,0.0022
1964.00,0.0022
1963.00,0.0022
1962.00,0.0020
1961.00,0.0018
1960.00,0.0016
1959.00,0.0015
1958.00,0.0015
1957.00,0.0016
1956.00,0.0017
1955.00,0.0018
1954.00,0.0019
1953.00,0.0019
1952.00,0.0020
1951.00,0.0021
1950.00,0.0021
1949.00,0.0021
1948.00,0.0021
1947.00,0.0021
1946.00,0.0021
1945.00,0.0022
1944.00,0.0022
1943.00,0.0023
1942.00,0.0023
1941.00,0.0023
1940.00,0.0023
1939.00,0.0023
1938.00,0.0023
1937.00,0.0023
1936.00,0.0023
1935.00,0.0024
1934.00,0.0024
1933.00,0.0024
1932.00,0.0024
1931.00,0.0024
1930.00,0.0024
1929.00,0.0024
1928.00,0.0025
1927.00,0.0025
1926.00,0.0025
1925.00,0.0025
1924.00,0.0025
1923.00,0.0027
1922.00,0.0027
1921.00,0.0028
1920.00,0.0028
1919.00,0.0029
1918.00,0.0029
1917.00,0.0029
1916.00,0.0029
1915.00,0.0029
1914.00,0.0030
1913.00,0.0032
1912.00,0.0034
1911.00,0.0038
1910.00,0.0041
1909.00,0.0044
1908.00,0.0045
1907.00,0.0044
1906.00,0.0042
1905.00,0.0038
1904.00,0.0036
1903.00,0.0034
1902.00,0.0033
1901.00,0.0033
1900.00,0.0032
1899.00,0.0032
1898.00,0.0032
1897.00,0.0033
1896.00,0.0035
1895.00,0.0036
1894.00,0.0037
1893.00,0.0036
1892.00,0.0035
1891.00,0.0034
1890.00,0.0033
1889.00,0.0032
1888.00,0.0031
1887.00,0.0030
1886.00,0.0029
1885.00,0.0030
1884.00,0.0030
1883.00,0.0030
1882.00,0.0030
1881.00,0.0030
1880.00,0.0030
1879.00,0.0031
1878.00,0.0030
1877.00,0.0030
1876.00,0.0030
1875.00,0.0030
1874.00,0.0030
1873.00,0.0029
1872.00,0.0028
1871.00,0.0028
1870.00,0.0028
1869.00,0.0028
1868.00,0.0029
1867.00,0.0029
1866.00,0.0030
1865.00,0.0030
1864.00,0.0031
1863.00,0.0031
1862.00,0.0031
1861.00,0.0031
1860.00,0.0032
1859.00,0.0032
1858.00,0.0031
1857.00,0.0031
1856.00,0.0032
1855.00,0.0032
1854.00,0.0032
1853.00,0.0033
1852.00,0.0034
1851.00,0.0034
1850.00,0.0035
1849.00,0.0035
1848.00,0.0035
1847.00,0.0036
1846.00,0.0036
1845.00,0.0037
1844.00,0.0038
1843.00,0.0037
1842.00,0.0036
1841.00,0.0035
1840.00,0.0034
1839.00,0.0033
1838.00,0.0033
1837.00,0.0033
1836.00,0.0032
1835.00,0.0032
1834.00,0.0031
1833.00,0.0031
1832.00,0.0030
1831.00,0.0030
1830.00,0.0030
1829.00,0.0030
1828.00,0.0030
1827.00,0.0030
1826.00,0.0030
1825.00,0.0030
1824.00,0.0031
1823.00,0.0031
1822.00,0.0031
1821.00,0.0031
1820.00,0.0031
1819.00,0.0030
1818.00,0.0029
1817.00,0.0029
1816.00,0.0029
1815.00,0.0030
1814.00,0.0030
1813.00,0.0030
1812.00,0.0031
1811.00,0.0032
1810.00,0.0032
1809.00,0.0032
1808.00,0.0033
1807.00,0.0033
1806.00,0.0033
1805.00,0.0032
1804.00,0.0032
1803.00,0.0032
1802.00,0.0032
1801.00,0.0033
1800.00,0.0033
1799.00,0.0034
1798.00,0.0035
1797.00,0.0036
1796.00,0.0036
1795.00,0.0035
1794.00,0.0035
1793.00,0.0035
1792.00,0.0036
1791.00,0.0037
1790.00,0.0037
1789.00,0.0037
1788.00,0.0037
1787.00,0.0037
1786.00,0.0037
1785.00,0.0037
1784.00,0.0036
1783.00,0.0036
1782.00,0.0036
1781.00,0.0036
1780.00,0.0037
1779.00,0.0038
1778.00,0.0038
1777.00,0.0039
1776.00,0.0039
1775.00,0.0039
1774.00,0.0040
1773.00,0.0040
1772.00,0.0040
1771.00,0.0040
1770.00,0.0040
1769.00,0.0040
1768.00,0.0041
1767.00,0.0041
1766.00,0.0040
1765.00,0.0040
1764.00,0.0040
1763.00,0.0041
1762.00,0.0042
1761.00,0.0043
1760.00,0.0043
1759.00,0.0044
1758.00,0.0043
1757.00,0.0043
1756.00,0.0042
1755.00,0.0041
1754.00,0.0040
1753.00,0.0040
1752.00,0.0039
1751.00,0.0039
1750.00,0.0039
1749.00,0.0039
1748.00,0.0039
1747.00,0.0040
1746.00,0.0041
1745.00,0.0042
1744.00,0.0042
1743.00,0.0042
1742.00,0.0042
1741.00,0.0042
1740.00,0.0043
1739.00,0.0043
1738.00,0.0043
1737.00,0.0042
1736.00,0.0043
1735.00,0.0044
1734.00,0.0046
1733.00,0.0047
1732.00,0.0048
1731.00,0.0049
1730.00,0.0051
1729.00,0.0052
1728.00,0.0053
1727.00,0.0054
1726.00,0.0055
1725.00,0.0056
1724.00,0.0057
1723.00,0.0058
1722.00,0.0057
1721.00,0.0056
1720.00,0.0056
1719.00,0.0056
1718.00,0.0058
1717.00,0.0059
1716.00,0.0061
1715.00,0.0063
1714.00,0.0065
1713.00,0.0067
1712.00,0.0070
1711.00,0.0072
1710.00,0.0073
1709.00,0.0074
1708.00,0.0074
1707.00,0.0076
1706.00,0.0078
1705.00,0.0080
1704.00,0.0081
1703.00,0.0083
1702.00,0.0084
1701.00,0.0088
1700.00,0.0094
1699.00,0.0101
1698.00,0.0107
1697.00,0.0115
1696.00,0.0125
1695.00,0.0134
1694.00,0.0142
1693.00,0.0149
1692.00,0.0156
1691.00,0.0164
1690.00,0.0172
1689.00,0.0180
1688.00,0.0187
1687.00,0.0194
1686.00,0.0201
1685.00,0.0208
1684.00,0.0216
1683.00,0.0224
1682.00,0.0231
1681.00,0.0239
1680.00,0.0247
1679.00,0.0254
1678.00,0.0259
1677.00,0.0265
1676.00,0.0271
1675.00,0.0277
1674.00,0.0282
1673.00,0.0288
1672.00,0.0293
1671.00,0.0299
1670.00,0.0305
1669.00,0.0311
1668.00,0.0317
1667.00,0.0324
1666.00,0.0330
1665.00,0.0335
1664.00,0.0340
1663.00,0.0345
1662.00,0.0349
1661.00,0.0354
1660.00,0.0359
1659.00,0.0363
1658.00,0.0366
1657.00,0.0368
1656.00,0.0370
1655.00,0.0372
1654.00,0.0371
1653.00,0.0368
1652.00,0.0366
1651.00,0.0367
1650.00,0.0369
1649.00,0.0371
1648.00,0.0371
1647.00,0.0370
1646.00,0.0368
1645.00,0.0367
1644.00,0.0369
1643.00,0.0370
1642.00,0.0370
1641.00,0.0370
1640.00,0.0368
1639.00,0.0365
1638.00,0.0361
1637.00,0.0358
1636.00,0.0355
1635.00,0.0356
1634.00,0.0361
1633.00,0.0372
1632.00,0.0388
1631.00,0.0411
1630.00,0.0441
1629.00,0.0481
1628.00,0.0531
1627.00,0.0585
1626.00,0.0634
1625.00,0.0678
1624.00,0.0717
1623.00,0.0749
1622.00,0.0770
1621.00,0.0779
1620.00,0.0777
1619.00,0.0764
1618.00,0.0734
1617.00,0.0689
1616.00,0.0644
1615.00,0.0615
1614.00,0.0604
1613.00,0.0605
1612.00,0.0610
1611.00,0.0615
1610.00,0.0611
1609.00,0.0597
1608.00,0.0572
1607.00,0.0540
1606.00,0.0504
1605.00,0.0467
1604.00,0.0431
1603.00,0.0397
1602.00,0.0367
1601.00,0.0341
1600.00,0.0319
1599.00,0.0302
1598.00,0.0290
1597.00,0.0282
1596.00,0.0278
1595.00,0.0280
1594.00,0.0288
1593.00,0.0302
1592.00,0.0324
1591.00,0.0353
1590.00,0.0388
1589.00,0.0427
1588.00,0.0467
1587.00,0.0504
1586.00,0.0535
1585.00,0.0559
1584.00,0.0573
1583.00,0.0578
1582.00,0.0575
1581.00,0.0564
1580.00,0.0550
1579.00,0.0532
1578.00,0.0511
1577.00,0.0482
1576.00,0.0449
1575.00,0.0418
1574.00,0.0396
1573.00,0.0379
1572.00,0.0366
1571.00,0.0355
1570.00,0.0343
1569.00,0.0332
1568.00,0.0321
1567.00,0.0309
1566.00,0.0294
1565.00,0.0275
1564.00,0.0254
1563.00,0.0235
1562.00,0.0219
1561.00,0.0202
1560.00,0.0185
1559.00,0.0167
1558.00,0.0154
1557.00,0.0147
1556.00,0.0145
1555.00,0.0143
1554.00,0.0140
1553.00,0.0137
1552.00,0.0134
1551.00,0.0132
1550.00,0.0130
1549.00,0.0128
1548.00,0.0125
1547.00,0.0123
1546.00,0.0121
1545.00,0.0118
1544.00,0.0114
1543.00,0.0110
1542.00,0.0108
1541.00,0.0106
1540.00,0.0106
1539.00,0.0107
1538.00,0.0108
1537.00,0.0107
1536.00,0.0105
1535.00,0.0104
1534.00,0.0103
1533.00,0.0103
1532.00,0.0103
1531.00,0.0103
1530.00,0.0103
1529.00,0.0103
1528.00,0.0103
1527.00,0.0103
1526.00,0.0104
1525.00,0.0104
1524.00,0.0105
1523.00,0.0107
1522.00,0.0111
1521.00,0.0116
1520.00,0.0120
1519.00,0.0124
1518.00,0.0129
1517.00,0.0137
1516.00,0.0145
1515.00,0.0152
1514.00,0.0159
1513.00,0.0165
1512.00,0.0170
1511.00,0.0174
1510.00,0.0176
1509.00,0.0177
1508.00,0.0178
1507.00,0.0181
1506.00,0.0185
1505.00,0.0192
1504.00,0.0199
1503.00,0.0208
1502.00,0.0219
1501.00,0.0236
1500.00,0.0261
1499.00,0.0296
1498.00,0.0336
1497.00,0.0375
1496.00,0.0399
1495.00,0.0402
1494.00,0.0389
1493.00,0.0366
1492.00,0.0337
1491.00,0.0304
1490.00,0.0273
1489.00,0.0246
1488.00,0.0225
1487.00,0.0209
1486.00,0.0196
1485.00,0.0186
1484.00,0.0177
1483.00,0.0171
1482.00,0.0165
1481.00,0.0162
1480.00,0.0160
1479.00,0.0159
1478.00,0.0159
1477.00,0.0161
1476.00,0.0164
1475.00,0.0169
1474.00,0.0179
1473.00,0.0195
1472.00,0.0219
1471.00,0.0249
1470.00,0.0284
1469.00,0.0322
1468.00,0.0361
1467.00,0.0395
1466.00,0.0420
1465.00,0.0434
1464.00,0.0437
1463.00,0.0436
1462.00,0.0436
1461.00,0.0436
1460.00,0.0437
1459.00,0.0437
1458.00,0.0432
1457.00,0.0420
1456.00,0.0405
1455.00,0.0392
1454.00,0.0383
1453.00,0.0378
1452.00,0.0376
1451.00,0.0377
1450.00,0.0381
1449.00,0.0388
1448.00,0.0397
1447.00,0.0409
1446.00,0.0424
1445.00,0.0442
1444.00,0.0462
1443.00,0.0482
1442.00,0.0502
1441.00,0.0519
1440.00,0.0534
1439.00,0.0545
1438.00,0.0555
1437.00,0.0565
1436.00,0.0577
1435.00,0.0592
1434.00,0.0607
1433.00,0.0624
1432.00,0.0639
1431.00,0.0651
1430.00,0.0659
1429.00,0.0664
1428.00,0.0666
1427.00,0.0664
1426.00,0.0660
1425.00,0.0653
1424.00,0.0645
1423.00,0.0636
1422.00,0.0628
1421.00,0.0617
1420.00,0.0601
1419.00,0.0578
1418.00,0.0554
1417.00,0.0532
1416.00,0.0514
1415.00,0.0497
1414.00,0.0483
1413.00,0.0472
1412.00,0.0465
1411.00,0.0464
1410.00,0.0470
1409.00,0.0482
1408.00,0.0499
1407.00,0.0523
1406.00,0.0552
1405.00,0.0587
1404.00,0.0621
1403.00,0.0652
1402.00,0.0676
1401.00,0.0692
1400.00,0.0699
1399.00,0.0692
1398.00,0.0674
1397.00,0.0648
1396.00,0.0615
1395.00,0.0574
1394.00,0.0532
1393.00,0.0496
1392.00,0.0467
1391.00,0.0447
1390.00,0.0436
1389.00,0.0438
1388.00,0.0451
1387.00,0.0465
1386.00,0.0470
1385.00,0.0461
1384.00,0.0445
1383.00,0.0431
1382.00,0.0425
1381.00,0.0426
1380.00,0.0430
1379.00,0.0433
1378.00,0.0432
1377.00,0.0425
1376.00,0.0412
1375.00,0.0392
1374.00,0.0368
1373.00,0.0348
1372.00,0.0335
1371.00,0.0333
1370.00,0.0341
1369.00,0.0360
1368.00,0.0388
1367.00,0.0420
1366.00,0.0449
1365.00,0.0468
1364.00,0.0480
1363.00,0.0494
1362.00,0.0518
1361.00,0.0548
1360.00,0.0569
1359.00,0.0568
1358.00,0.0545
1357.00,0.0510
1356.00,0.0475
1355.00,0.0448
1354.00,0.0430
1353.00,0.0418
1352.00,0.0411
1351.00,0.0409
1350.00,0.0409
1349.00,0.0412
1348.00,0.0415
1347.00,0.0415
1346.00,0.0412
1345.00,0.0405
1344.00,0.0394
1343.00,0.0380
1342.00,0.0364
1341.00,0.0348
1340.00,0.0331
1339.00,0.0316
1338.00,0.0305
1337.00,0.0298
1336.00,0.0296
1335.00,0.0299
1334.00,0.0305
1333.00,0.0314
1332.00,0.0323
1331.00,0.0331
1330.00,0.0337
1329.00,0.0340
1328.00,0.0340
1327.00,0.0338
1326.00,0.0334
1325.00,0.0330
1324.00,0.0327
1323.00,0.0324
1322.00,0.0323
1321.00,0.0323
1320.00,0.0322
1319.00,0.0319
1318.00,0.0315
1317.00,0.0309
1316.00,0.0302
1315.00,0.0295
1314.00,0.0289
1313.00,0.0285
1312.00,0.0285
1311.00,0.0288
1310.00,0.0295
1309.00,0.0307
1308.00,0.0323
1307.00,0.0343
1306.00,0.0370
1305.00,0.0402
1304.00,0.0439
1303.00,0.0477
1302.00,0.0511
1301.00,0.0534
1300.00,0.0544
1299.00,0.0542
1298.00,0.0537
1297.00,0.0533
1296.00,0.0534
1295.00,0.0540
1294.00,0.0548
1293.00,0.0555
1292.00,0.0558
1291.00,0.0561
1290.00,0.0566
1289.00,0.0574
1288.00,0.0588
1287.00,0.0606
1286.00,0.0626
1285.00,0.0645
1284.00,0.0659
1283.00,0.0663
1282.00,0.0656
1281.00,0.0638
1280.00,0.0612
1279.00,0.0582
1278.00,0.0552
1277.00,0.0525
1276.00,0.0504
1275.00,0.0487
1274.00,0.0474
1273.00,0.0463
1272.00,0.0452
1271.00,0.0441
1270.00,0.0430
1269.00,0.0420
1268.00,0.0409
1267.00,0.0399
1266.00,0.0389
1265.00,0.0378
1264.00,0.0366
1263.00,0.0353
1262.00,0.0341
1261.00,0.0328
1260.00,0.0317
1259.00,0.0306
1258.00,0.0297
1257.00,0.0290
1256.00,0.0284
1255.00,0.0280
1254.00,0.0277
1253.00,0.0277
1252.00,0.0279
1251.00,0.0285
1250.00,0.0295
1249.00,0.0309
1248.00,0.0327
1247.00,0.0347
1246.00,0.0369
1245.00,0.0391
1244.00,0.0409
1243.00,0.0424
1242.00,0.0436
1241.00,0.0446
1240.00,0.0458
1239.00,0.0474
1238.00,0.0497
1237.00,0.0523
1236.00,0.0551
1235.00,0.0575
1234.00,0.0591
1233.00,0.0596
1232.00,0.0589
1231.00,0.0571
1230.00,0.0546
1229.00,0.0519
1228.00,0.0492
1227.00,0.0468
1226.00,0.0447
1225.00,0.0430
1224.00,0.0416
1223.00,0.0407
1222.00,0.0401
1221.00,0.0399
1220.00,0.0402
1219.00,0.0410
1218.00,0.0421
1217.00,0.0434
1216.00,0.0447
1215.00,0.0457
1214.00,0.0461
1213.00,0.0455
1212.00,0.0441
1211.00,0.0420
1210.00,0.0396
1209.00,0.0373
1208.00,0.0353
1207.00,0.0339
1206.00,0.0331
1205.00,0.0331
1204.00,0.0339
1203.00,0.0355
1202.00,0.0379
1201.00,0.0408
1200.00,0.0442
1199.00,0.0479
1198.00,0.0520
1197.00,0.0561
1196.00,0.0597
1195.00,0.0622
1194.00,0.0631
1193.00,0.0624
1192.00,0.0603
1191.00,0.0571
1190.00,0.0533
1189.00,0.0492
1188.00,0.0450
1187.00,0.0410
1186.00,0.0374
1185.00,0.0344
1184.00,0.0318
1183.00,0.0298
1182.00,0.0282
1181.00,0.0269
1180.00,0.0260
1179.00,0.0252
1178.00,0.0247
1177.00,0.0242
1176.00,0.0239
1175.00,0.0237
1174.00,0.0236
1173.00,0.0235
1172.00,0.0234
1171.00,0.0234
1170.00,0.0234
1169.00,0.0235
1168.00,0.0235
1167.00,0.0237
1166.00,0.0240
1165.00,0.0244
1164.00,0.0251
1163.00,0.0263
1162.00,0.0280
1161.00,0.0305
1160.00,0.0340
1159.00,0.0389
1158.00,0.0448
1157.00,0.0513
1156.00,0.0571
1155.00,0.0609
1154.00,0.0616
1153.00,0.0588
1152.00,0.0533
1151.00,0.0464
1150.00,0.0397
1149.00,0.0340
1148.00,0.0297
1147.00,0.0268
1146.00,0.0249
1145.00,0.0237
1144.00,0.0230
1143.00,0.0226
1142.00,0.0225
1141.00,0.0226
1140.00,0.0229
1139.00,0.0236
1138.00,0.0248
1137.00,0.0266
1136.00,0.0291
1135.00,0.0327
1134.00,0.0377
1133.00,0.0440
1132.00,0.0515
1131.00,0.0593
1130.00,0.0662
1129.00,0.0710
1128.00,0.0730
1127.00,0.0724
1126.00,0.0698
1125.00,0.0657
1124.00,0.0605
1123.00,0.0547
1122.00,0.0489
1121.00,0.0437
1120.00,0.0393
1119.00,0.0360
1118.00,0.0338
1117.00,0.0325
1116.00,0.0319
1115.00,0.0315
1114.00,0.0313
1113.00,0.0308
1112.00,0.0300
1111.00,0.0290
1110.00,0.0280
1109.00,0.0272
1108.00,0.0268
1107.00,0.0269
1106.00,0.0277
1105.00,0.0294
1104.00,0.0322
1103.00,0.0359
1102.00,0.0403
1101.00,0.0444
1100.00,0.0473
1099.00,0.0482
1098.00,0.0467
1097.00,0.0434
1096.00,0.0390
1095.00,0.0345
1094.00,0.0304
1093.00,0.0271
1092.00,0.0245
1091.00,0.0227
1090.00,0.0214
1089.00,0.0204
1088.00,0.0197
1087.00,0.0191
1086.00,0.0188
1085.00,0.0185
1084.00,0.0183
1083.00,0.0183
1082.00,0.0183
1081.00,0.0183
1080.00,0.0184
1079.00,0.0186
1078.00,0.0189
1077.00,0.0191
1076.00,0.0194
1075.00,0.0197
1074.00,0.0201
1073.00,0.0206
1072.00,0.0211
1071.00,0.0218
1070.00,0.0227
1069.00,0.0236
1068.00,0.0245
1067.00,0.0256
1066.00,0.0269
1065.00,0.0285
1064.00,0.0304
1063.00,0.0330
1062.00,0.0365
1061.00,0.0409
1060.00,0.0464
1059.00,0.0533
1058.00,0.0612
1057.00,0.0697
1056.00,0.0778
1055.00,0.0847
1054.00,0.0898
1053.00,0.0932
1052.00,0.0953
1051.00,0.0967
1050.00,0.0974
1049.00,0.0971
1048.00,0.0952
1047.00,0.0915
1046.00,0.0864
1045.00,0.0800
1044.00,0.0731
1043.00,0.0662
1042.00,0.0599
1041.00,0.0546
1040.00,0.0504
1039.00,0.0476
1038.00,0.0461
1037.00,0.0457
1036.00,0.0461
1035.00,0.0468
1034.00,0.0480
1033.00,0.0499
1032.00,0.0529
1031.00,0.0578
1030.00,0.0644
1029.00,0.0721
1028.00,0.0794
1027.00,0.0845
1026.00,0.0858
1025.00,0.0830
1024.00,0.0768
1023.00,0.0690
1022.00,0.0611
1021.00,0.0539
1020.00,0.0479
1019.00,0.0430
1018.00,0.0391
1017.00,0.0359
1016.00,0.0333
1015.00,0.0312
1014.00,0.0296
1013.00,0.0284
1012.00,0.0277
1011.00,0.0275
1010.00,0.0282
1009.00,0.0296
1008.00,0.0318
1007.00,0.0345
1006.00,0.0375
1005.00,0.0401
1004.00,0.0420
1003.00,0.0429
1002.00,0.0426
1001.00,0.0415
1000.00,0.0399
999.00,0.0382
998.00,0.0366
997.00,0.0352
996.00,0.0340
995.00,0.0330
994.00,0.0321
993.00,0.0310
992.00,0.0296
991.00,0.0279
990.00,0.0262
989.00,0.0246
988.00,0.0231
987.00,0.0219
986.00,0.0209
985.00,0.0202
984.00,0.0195
983.00,0.0190
982.00,0.0187
981.00,0.0185
980.00,0.0183
979.00,0.0183
978.00,0.0183
977.00,0.0184
976.00,0.0184
975.00,0.0184
974.00,0.0184
973.00,0.0183
972.00,0.0182
971.00,0.0180
970.00,0.0179
969.00,0.0179
968.00,0.0178
967.00,0.0178
966.00,0.0180
965.00,0.0184
964.00,0.0188
963.00,0.0192
962.00,0.0194
961.00,0.0192
960.00,0.0184
959.00,0.0173
958.00,0.0162
957.00,0.0153
956.00,0.0146
955.00,0.0140
954.00,0.0136
953.00,0.0134
952.00,0.0133
951.00,0.0134
950.00,0.0138
949.00,0.0143
948.00,0.0146
947.00,0.0146
946.00,0.0146
945.00,0.0145
944.00,0.0147
943.00,0.0152
942.00,0.0160
941.00,0.0168
940.00,0.0177
939.00,0.0185
938.00,0.0193
937.00,0.0199
936.00,0.0204
935.00,0.0209
934.00,0.0215
933.00,0.0220
932.00,0.0221
931.00,0.0218
930.00,0.0213
929.00,0.0207
928.00,0.0202
927.00,0.0200
926.00,0.0204
925.00,0.0212
924.00,0.0223
923.00,0.0235
922.00,0.0243
921.00,0.0244
920.00,0.0235
919.00,0.0219
918.00,0.0201
917.00,0.0183
916.00,0.0168
915.00,0.0157
914.00,0.0149
913.00,0.0144
912.00,0.0140
911.00,0.0137
910.00,0.0136
909.00,0.0137
908.00,0.0139
907.00,0.0142
906.00,0.0148
905.00,0.0157
904.00,0.0170
903.00,0.0188
902.00,0.0211
901.00,0.0235
900.00,0.0254
899.00,0.0264
898.00,0.0262
897.00,0.0251
896.00,0.0235
895.00,0.0221
894.00,0.0215
893.00,0.0221
892.00,0.0237
891.00,0.0256
890.00,0.0268
889.00,0.0262
888.00,0.0241
887.00,0.0213
886.00,0.0191
885.00,0.0177
884.00,0.0171
883.00,0.0170
882.00,0.0174
881.00,0.0181
880.00,0.0190
879.00,0.0205
878.00,0.0229
877.00,0.0260
876.00,0.0301
875.00,0.0349
874.00,0.0404
873.00,0.0463
872.00,0.0518
871.00,0.0563
870.00,0.0589
869.00,0.0589
868.00,0.0566
867.00,0.0529
866.00,0.0489
865.00,0.0451
864.00,0.0415
863.00,0.0381
862.00,0.0350
861.00,0.0323
860.00,0.0302
859.00,0.0290
858.00,0.0290
857.00,0.0303
856.00,0.0326
855.00,0.0355
854.00,0.0384
853.00,0.0412
852.00,0.0440
851.00,0.0469
850.00,0.0497
849.00,0.0512
848.00,0.0508
847.00,0.0487
846.00,0.0457
845.00,0.0426
844.00,0.0397
843.00,0.0375
842.00,0.0360
841.00,0.0354
840.00,0.0355
839.00,0.0368
838.00,0.0393
837.00,0.0428
836.00,0.0465
835.00,0.0497
834.00,0.0519
833.00,0.0526
832.00,0.0518
831.00,0.0495
830.00,0.0460
829.00,0.0416
828.00,0.0370
827.00,0.0331
826.00,0.0306
825.00,0.0300
824.00,0.0322
823.00,0.0377
822.00,0.0461
821.00,0.0547
820.00,0.0608
819.00,0.0639
818.00,0.0663
817.00,0.0696
816.00,0.0724
815.00,0.0710
814.00,0.0638
813.00,0.0531
812.00,0.0425
811.00,0.0345
810.00,0.0292
809.00,0.0257
808.00,0.0232
807.00,0.0215
806.00,0.0203
805.00,0.0193
804.00,0.0186
803.00,0.0182
802.00,0.0179
801.00,0.0176
800.00,0.0174
799.00,0.0172
798.00,0.0171
797.00,0.0169
796.00,0.0168
795.00,0.0167
794.00,0.0167
793.00,0.0167
792.00,0.0166
791.00,0.0166
790.00,0.0167
789.00,0.0167
788.00,0.0166
787.00,0.0166
786.00,0.0166
785.00,0.0167
784.00,0.0168
783.00,0.0169
782.00,0.0172
781.00,0.0174
780.00,0.0177
779.00,0.0183
778.00,0.0193
777.00,0.0208
776.00,0.0225
775.00,0.0242
774.00,0.0250
773.00,0.0246
772.00,0.0233
771.00,0.0219
770.00,0.0209
769.00,0.0204
768.00,0.0201
767.00,0.0200
766.00,0.0201
765.00,0.0204
764.00,0.0209
763.00,0.0216
762.00,0.0226
761.00,0.0235
760.00,0.0242
759.00,0.0246
758.00,0.0247
757.00,0.0245
756.00,0.0241
755.00,0.0238
754.00,0.0237
753.00,0.0237
752.00,0.0238
751.00,0.0240
750.00,0.0243
749.00,0.0246
748.00,0.0249
747.00,0.0253
746.00,0.0258
745.00,0.0263
744.00,0.0269
743.00,0.0277
742.00,0.0287
741.00,0.0301
740.00,0.0319
739.00,0.0344
738.00,0.0379
737.00,0.0420
736.00,0.0460
735.00,0.0487
734.00,0.0495
733.00,0.0486
732.00,0.0470
731.00,0.0461
730.00,0.0460
729.00,0.0463
728.00,0.0460
727.00,0.0446
726.00,0.0421
725.00,0.0391
724.00,0.0363
723.00,0.0342
722.00,0.0329
721.00,0.0323
720.00,0.0323
719.00,0.0329
718.00,0.0341
717.00,0.0357
716.00,0.0371
715.00,0.0381
714.00,0.0384
713.00,0.0380
712.00,0.0371
711.00,0.0360
710.00,0.0351
709.00,0.0343
708.00,0.0338
707.00,0.0335
706.00,0.0337
705.00,0.0340
704.00,0.0346
703.00,0.0353
702.00,0.0363
701.00,0.0373
700.00,0.0382
699.00,0.0390
698.00,0.0396
697.00,0.0397
696.00,0.0392
695.00,0.0384
694.00,0.0378
693.00,0.0375
692.00,0.0378
691.00,0.0389
690.00,0.0406
689.00,0.0422
688.00,0.0432
687.00,0.0432
686.00,0.0424
685.00,0.0413
684.00,0.0403
683.00,0.0397
682.00,0.0396
681.00,0.0398
680.00,0.0402
679.00,0.0409
678.00,0.0418
677.00,0.0430
676.00,0.0443
675.00,0.0458
674.00,0.0475
673.00,0.0491
672.00,0.0504
671.00,0.0513
670.00,0.0518
669.00,0.0517
668.00,0.0510
667.00,0.0501
666.00,0.0497
665.00,0.0499
664.00,0.0504
663.00,0.0513
662.00,0.0522
661.00,0.0525
660.00,0.0522
659.00,0.0514
658.00,0.0504
657.00,0.0494
656.00,0.0486
655.00,0.0480
654.00,0.0479
653.00,0.0478
652.00,0.0478
651.00,0.0478
650.00,0.0480
649.00,0.0482
648.00,0.0482
647.00,0.0482
646.00,0.0483
645.00,0.0482
644.00,0.0480
643.00,0.0477
642.00,0.0475
641.00,0.0473
640.00,0.0470
639.00,0.0467
638.00,0.0465
637.00,0.0462
636.00,0.0460
635.00,0.0458
634.00,0.0457
633.00,0.0457
632.00,0.0456
631.00,0.0455
630.00,0.0456
629.00,0.0458
628.00,0.0460
627.00,0.0463
626.00,0.0468
625.00,0.0475
624.00,0.0484
623.00,0.0494
622.00,0.0506
621.00,0.0517
620.00,0.0522
619.00,0.0521
618.00,0.0515
617.00,0.0503
616.00,0.0489
615.00,0.0475
614.00,0.0464
613.00,0.0456
612.00,0.0451
611.00,0.0451
610.00,0.0458
609.00,0.0472
608.00,0.0491
607.00,0.0516
606.00,0.0544
605.00,0.0571
604.00,0.0593
603.00,0.0610
602.00,0.0621
601.00,0.0626
600.00,0.0627
599.00,0.0626
598.00,0.0626
597.00,0.0625
596.00,0.0623
595.00,0.0621
594.00,0.0620
593.00,0.0618
592.00,0.0613
591.00,0.0609
590.00,0.0605
589.00,0.0602
588.00,0.0598
587.00,0.0596
586.00,0.0596
585.00,0.0597
584.00,0.0600
583.00,0.0605
582.00,0.0613
581.00,0.0622
580.00,0.0634
579.00,0.0651
578.00,0.0675
577.00,0.0696
576.00,0.0706
575.00,0.0702
574.00,0.0688
573.00,0.0670
572.00,0.0650
571.00,0.0632
570.00,0.0619
569.00,0.0608
568.00,0.0601
567.00,0.0600
566.00,0.0605
565.00,0.0613
564.00,0.0624
563.00,0.0637
562.00,0.0655
561.00,0.0671
560.00,0.0680
559.00,0.0682
558.00,0.0676
557.00,0.0665
556.00,0.0650
555.00,0.0636
554.00,0.0627
553.00,0.0623
552.00,0.0623
551.00,0.0629
550.00,0.0643
549.00,0.0662
548.00,0.0681
547.00,0.0696
546.00,0.0706
545.00,0.0707
544.00,0.0698
543.00,0.0683
542.00,0.0668
541.00,0.0653
540.00,0.0638
539.00,0.0627
538.00,0.0622
537.00,0.0620
536.00,0.0621
535.00,0.0629
534.00,0.0643
533.00,0.0661
532.00,0.0676
531.00,0.0684
530.00,0.0685
529.00,0.0676
528.00,0.0659
527.00,0.0638
526.00,0.0619
525.00,0.0603
524.00,0.0589
523.00,0.0578
522.00,0.0570
521.00,0.0563
520.00,0.0555
519.00,0.0549
518.00,0.0546
517.00,0.0544
516.00,0.0541
515.00,0.0539
514.00,0.0539
513.00,0.0539
512.00,0.0539
511.00,0.0540
510.00,0.0545
509.00,0.0550
508.00,0.0552
507.00,0.0554
506.00,0.0558
505.00,0.0560
504.00,0.0557
503.00,0.0553
502.00,0.0549
501.00,0.0545
500.00,0.0538
499.00,0.0532
498.00,0.0531
497.00,0.0533
496.00,0.0537
495.00,0.0544
494.00,0.0555
493.00,0.0564
492.00,0.0566
491.00,0.0564
490.00,0.0561
489.00,0.0555
488.00,0.0546
487.00,0.0539
486.00,0.0538
485.00,0.0536
484.00,0.0530
483.00,0.0526
482.00,0.0526
481.00,0.0526
480.00,0.0524
479.00,0.0523
478.00,0.0526
477.00,0.0528
476.00,0.0525
475.00,0.0521
474.00,0.0519
473.00,0.0519
472.00,0.0517
471.00,0.0517
470.00,0.0519
469.00,0.0518
468.00,0.0515
467.00,0.0514
466.00,0.0518
465.00,0.0521
464.00,0.0518
463.00,0.0516
462.00,0.0519
461.00,0.0520
460.00,0.0514
459.00,0.0510
458.00,0.0513
457.00,0.0519
456.00,0.0520
455.00,0.0520
454.00,0.0521
453.00,0.0518
452.00,0.0511
451.00,0.0507
450.00,0.0509
449.00,0.0512
448.00,0.0509
447.00,0.0503
446.00,0.0500
445.00,0.0494
444.00,0.0487
443.00,0.0486
442.00,0.0494
441.00,0.0502
440.00,0.0501
439.00,0.0497
438.00,0.0495
437.00,0.0490
436.00,0.0481
435.00,0.0477
434.00,0.0482
433.00,0.0486
432.00,0.0481
431.00,0.0475
430.00,0.0476
429.00,0.0478
428.00,0.0473
427.00,0.0466
426.00,0.0464
425.00,0.0462
424.00,0.0456
423.00,0.0453
422.00,0.0457
421.00,0.0461
420.00,0.0457
419.00,0.0457
418.00,0.0466
417.00,0.0469
416.00,0.0461
415.00,0.0459
414.00,0.0470
413.00,0.0481
412.00,0.0480
411.00,0.0480
410.00,0.0491
409.00,0.0499
408.00,0.0492
407.00,0.0484
406.00,0.0489
405.00,0.0494
404.00,0.0483
403.00,0.0469
402.00,0.0468
401.00,0.0466
400.00,0.0447
