Created as New Dataset,Sample 702 By YargerLab Date Wednesday, June 18 2025
cm-1,A
4000.00,0.0099
3999.00,0.0099
3998.00,0.0099
3997.00,0.0099
3996.00,0.0099
3995.00,0.0099
3994.00,0.0099
3993.00,0.0099
3992.00,0.0099
3991.00,0.0099
3990.00,0.0099
3989.00,0.0099
3988.00,0.0099
3987.00,0.0099
3986.00,0.0099
3985.00,0.0099
3984.00,0.0099
3983.00,0.0099
3982.00,0.0099
3981.00,0.0099
3980.00,0.0099
3979.00,0.0099
3978.00,0.0099
3977.00,0.0099
3976.00,0.0099
3975.00,0.0099
3974.00,0.0099
3973.00,0.0099
3972.00,0.0100
3971.00,0.0100
3970.00,0.0100
3969.00,0.0100
3968.00,0.0100
3967.00,0.0100
3966.00,0.0101
3965.00,0.0101
3964.00,0.0101
3963.00,0.0101
3962.00,0.0101
3961.00,0.0100
3960.00,0.0100
3959.00,0.0100
3958.00,0.0100
3957.00,0.0100
3956.00,0.0101
3955.00,0.0101
3954.00,0.0101
3953.00,0.0101
3952.00,0.0101
3951.00,0.0100
3950.00,0.0100
3949.00,0.0100
3948.00,0.0100
3947.00,0.0100
3946.00,0.0100
3945.00,0.0100
3944.00,0.0100
3943.00,0.0100
3942.00,0.0100
3941.00,0.0100
3940.00,0.0100
3939.00,0.0100
3938.00,0.0100
3937.00,0.0100
3936.00,0.0100
3935.00,0.0100
3934.00,0.0100
3933.00,0.0100
3932.00,0.0100
3931.00,0.0100
3930.00,0.0100
3929.00,0.0100
3928.00,0.0100
3927.00,0.0100
3926.00,0.0100
3925.00,0.0101
3924.00,0.0101
3923.00,0.0101
3922.00,0.0101
3921.00,0.0101
3920.00,0.0101
3919.00,0.0100
3918.00,0.0100
3917.00,0.0100
3916.00,0.0100
3915.00,0.0100
3914.00,0.0100
3913.00,0.0100
3912.00,0.0100
3911.00,0.0100
3910.00,0.0100
3909.00,0.0100
3908.00,0.0100
3907.00,0.0100
3906.00,0.0099
3905.00,0.0099
3904.00,0.0098
3903.00,0.0098
3902.00,0.0098
3901.00,0.0098
3900.00,0.0098
3899.00,0.0098
3898.00,0.0098
3897.00,0.0098
3896.00,0.0098
3895.00,0.0098
3894.00,0.0098
3893.00,0.0098
3892.00,0.0098
3891.00,0.0098
3890.00,0.0098
3889.00,0.0098
3888.00,0.0098
3887.00,0.0098
3886.00,0.0098
3885.00,0.0098
3884.00,0.0098
3883.00,0.0097
3882.00,0.0097
3881.00,0.0097
3880.00,0.0097
3879.00,0.0097
3878.00,0.0097
3877.00,0.0097
3876.00,0.0097
3875.00,0.0097
3874.00,0.0097
3873.00,0.0098
3872.00,0.0098
3871.00,0.0098
3870.00,0.0098
3869.00,0.0097
3868.00,0.0097
3867.00,0.0097
3866.00,0.0097
3865.00,0.0097
3864.00,0.0097
3863.00,0.0097
3862.00,0.0098
3861.00,0.0098
3860.00,0.0097
3859.00,0.0097
3858.00,0.0097
3857.00,0.0097
3856.00,0.0097
3855.00,0.0097
3854.00,0.0097
3853.00,0.0096
3852.00,0.0096
3851.00,0.0096
3850.00,0.0096
3849.00,0.0096
3848.00,0.0096
3847.00,0.0096
3846.00,0.0096
3845.00,0.0096
3844.00,0.0096
3843.00,0.0096
3842.00,0.0096
3841.00,0.0096
3840.00,0.0096
3839.00,0.0096
3838.00,0.0096
3837.00,0.0096
3836.00,0.0096
3835.00,0.0096
3834.00,0.0096
3833.00,0.0096
3832.00,0.0096
3831.00,0.0096
3830.00,0.0096
3829.00,0.0096
3828.00,0.0096
3827.00,0.0096
3826.00,0.0096
3825.00,0.0096
3824.00,0.0096
3823.00,0.0095
3822.00,0.0096
3821.00,0.0096
3820.00,0.0096
3819.00,0.0096
3818.00,0.0096
3817.00,0.0096
3816.00,0.0096
3815.00,0.0096
3814.00,0.0096
3813.00,0.0096
3812.00,0.0096
3811.00,0.0096
3810.00,0.0096
3809.00,0.0096
3808.00,0.0096
3807.00,0.0096
3806.00,0.0096
3805.00,0.0096
3804.00,0.0095
3803.00,0.0095
3802.00,0.0095
3801.00,0.0095
3800.00,0.0094
3799.00,0.0094
3798.00,0.0094
3797.00,0.0094
3796.00,0.0095
3795.00,0.0095
3794.00,0.0095
3793.00,0.0095
3792.00,0.0095
3791.00,0.0095
3790.00,0.0095
3789.00,0.0095
3788.00,0.0095
3787.00,0.0095
3786.00,0.0095
3785.00,0.0095
3784.00,0.0095
3783.00,0.0095
3782.00,0.0095
3781.00,0.0095
3780.00,0.0095
3779.00,0.0095
3778.00,0.0095
3777.00,0.0095
3776.00,0.0095
3775.00,0.0095
3774.00,0.0094
3773.00,0.0094
3772.00,0.0094
3771.00,0.0094
3770.00,0.0094
3769.00,0.0094
3768.00,0.0094
3767.00,0.0094
3766.00,0.0094
3765.00,0.0094
3764.00,0.0094
3763.00,0.0094
3762.00,0.0094
3761.00,0.0094
3760.00,0.0094
3759.00,0.0094
3758.00,0.0094
3757.00,0.0094
3756.00,0.0094
3755.00,0.0094
3754.00,0.0094
3753.00,0.0094
3752.00,0.0093
3751.00,0.0093
3750.00,0.0093
3749.00,0.0092
3748.00,0.0093
3747.00,0.0093
3746.00,0.0093
3745.00,0.0092
3744.00,0.0092
3743.00,0.0092
3742.00,0.0092
3741.00,0.0092
3740.00,0.0092
3739.00,0.0092
3738.00,0.0091
3737.00,0.0091
3736.00,0.0091
3735.00,0.0091
3734.00,0.0091
3733.00,0.0091
3732.00,0.0091
3731.00,0.0091
3730.00,0.0091
3729.00,0.0091
3728.00,0.0091
3727.00,0.0091
3726.00,0.0091
3725.00,0.0091
3724.00,0.0090
3723.00,0.0090
3722.00,0.0090
3721.00,0.0090
3720.00,0.0091
3719.00,0.0091
3718.00,0.0091
3717.00,0.0091
3716.00,0.0091
3715.00,0.0091
3714.00,0.0091
3713.00,0.0091
3712.00,0.0091
3711.00,0.0091
3710.00,0.0091
3709.00,0.0090
3708.00,0.0090
3707.00,0.0090
3706.00,0.0090
3705.00,0.0090
3704.00,0.0090
3703.00,0.0090
3702.00,0.0090
3701.00,0.0090
3700.00,0.0090
3699.00,0.0090
3698.00,0.0090
3697.00,0.0090
3696.00,0.0090
3695.00,0.0090
3694.00,0.0090
3693.00,0.0090
3692.00,0.0090
3691.00,0.0089
3690.00,0.0089
3689.00,0.0089
3688.00,0.0088
3687.00,0.0088
3686.00,0.0088
3685.00,0.0087
3684.00,0.0087
3683.00,0.0087
3682.00,0.0086
3681.00,0.0086
3680.00,0.0086
3679.00,0.0085
3678.00,0.0085
3677.00,0.0084
3676.00,0.0083
3675.00,0.0083
3674.00,0.0082
3673.00,0.0081
3672.00,0.0081
3671.00,0.0081
3670.00,0.0081
3669.00,0.0081
3668.00,0.0080
3667.00,0.0080
3666.00,0.0080
3665.00,0.0080
3664.00,0.0080
3663.00,0.0080
3662.00,0.0079
3661.00,0.0079
3660.00,0.0079
3659.00,0.0079
3658.00,0.0079
3657.00,0.0079
3656.00,0.0079
3655.00,0.0079
3654.00,0.0079
3653.00,0.0079
3652.00,0.0079
3651.00,0.0079
3650.00,0.0079
3649.00,0.0079
3648.00,0.0079
3647.00,0.0079
3646.00,0.0079
3645.00,0.0079
3644.00,0.0080
3643.00,0.0081
3642.00,0.0081
3641.00,0.0082
3640.00,0.0082
3639.00,0.0081
3638.00,0.0081
3637.00,0.0081
3636.00,0.0082
3635.00,0.0082
3634.00,0.0083
3633.00,0.0083
3632.00,0.0083
3631.00,0.0084
3630.00,0.0084
3629.00,0.0084
3628.00,0.0085
3627.00,0.0085
3626.00,0.0085
3625.00,0.0085
3624.00,0.0085
3623.00,0.0085
3622.00,0.0085
3621.00,0.0086
3620.00,0.0086
3619.00,0.0086
3618.00,0.0086
3617.00,0.0086
3616.00,0.0086
3615.00,0.0087
3614.00,0.0087
3613.00,0.0088
3612.00,0.0088
3611.00,0.0087
3610.00,0.0087
3609.00,0.0087
3608.00,0.0086
3607.00,0.0086
3606.00,0.0087
3605.00,0.0087
3604.00,0.0087
3603.00,0.0087
3602.00,0.0088
3601.00,0.0088
3600.00,0.0088
3599.00,0.0088
3598.00,0.0088
3597.00,0.0088
3596.00,0.0088
3595.00,0.0088
3594.00,0.0088
3593.00,0.0088
3592.00,0.0088
3591.00,0.0088
3590.00,0.0088
3589.00,0.0089
3588.00,0.0089
3587.00,0.0089
3586.00,0.0089
3585.00,0.0089
3584.00,0.0089
3583.00,0.0089
3582.00,0.0090
3581.00,0.0090
3580.00,0.0091
3579.00,0.0091
3578.00,0.0092
3577.00,0.0092
3576.00,0.0093
3575.00,0.0094
3574.00,0.0094
3573.00,0.0095
3572.00,0.0095
3571.00,0.0095
3570.00,0.0095
3569.00,0.0095
3568.00,0.0095
3567.00,0.0095
3566.00,0.0096
3565.00,0.0096
3564.00,0.0097
3563.00,0.0098
3562.00,0.0099
3561.00,0.0100
3560.00,0.0101
3559.00,0.0102
3558.00,0.0103
3557.00,0.0103
3556.00,0.0104
3555.00,0.0105
3554.00,0.0107
3553.00,0.0108
3552.00,0.0110
3551.00,0.0111
3550.00,0.0113
3549.00,0.0115
3548.00,0.0117
3547.00,0.0120
3546.00,0.0122
3545.00,0.0126
3544.00,0.0129
3543.00,0.0133
3542.00,0.0137
3541.00,0.0142
3540.00,0.0146
3539.00,0.0152
3538.00,0.0158
3537.00,0.0166
3536.00,0.0175
3535.00,0.0185
3534.00,0.0197
3533.00,0.0210
3532.00,0.0225
3531.00,0.0244
3530.00,0.0266
3529.00,0.0291
3528.00,0.0319
3527.00,0.0348
3526.00,0.0379
3525.00,0.0408
3524.00,0.0435
3523.00,0.0459
3522.00,0.0477
3521.00,0.0488
3520.00,0.0493
3519.00,0.0492
3518.00,0.0485
3517.00,0.0473
3516.00,0.0458
3515.00,0.0440
3514.00,0.0420
3513.00,0.0400
3512.00,0.0379
3511.00,0.0360
3510.00,0.0341
3509.00,0.0324
3508.00,0.0309
3507.00,0.0297
3506.00,0.0286
3505.00,0.0276
3504.00,0.0268
3503.00,0.0261
3502.00,0.0256
3501.00,0.0252
3500.00,0.0249
3499.00,0.0247
3498.00,0.0245
3497.00,0.0244
3496.00,0.0243
3495.00,0.0243
3494.00,0.0243
3493.00,0.0243
3492.00,0.0244
3491.00,0.0245
3490.00,0.0246
3489.00,0.0248
3488.00,0.0249
3487.00,0.0251
3486.00,0.0253
3485.00,0.0256
3484.00,0.0258
3483.00,0.0261
3482.00,0.0264
3481.00,0.0267
3480.00,0.0270
3479.00,0.0273
3478.00,0.0277
3477.00,0.0281
3476.00,0.0285
3475.00,0.0290
3474.00,0.0294
3473.00,0.0299
3472.00,0.0303
3471.00,0.0308
3470.00,0.0313
3469.00,0.0319
3468.00,0.0324
3467.00,0.0330
3466.00,0.0336
3465.00,0.0342
3464.00,0.0348
3463.00,0.0354
3462.00,0.0361
3461.00,0.0368
3460.00,0.0374
3459.00,0.0380
3458.00,0.0387
3457.00,0.0393
3456.00,0.0399
3455.00,0.0405
3454.00,0.0412
3453.00,0.0418
3452.00,0.0424
3451.00,0.0430
3450.00,0.0436
3449.00,0.0442
3448.00,0.0448
3447.00,0.0454
3446.00,0.0460
3445.00,0.0466
3444.00,0.0471
3443.00,0.0477
3442.00,0.0482
3441.00,0.0488
3440.00,0.0494
3439.00,0.0500
3438.00,0.0506
3437.00,0.0511
3436.00,0.0517
3435.00,0.0522
3434.00,0.0527
3433.00,0.0532
3432.00,0.0537
3431.00,0.0542
3430.00,0.0548
3429.00,0.0553
3428.00,0.0558
3427.00,0.0564
3426.00,0.0569
3425.00,0.0575
3424.00,0.0582
3423.00,0.0589
3422.00,0.0597
3421.00,0.0605
3420.00,0.0614
3419.00,0.0623
3418.00,0.0633
3417.00,0.0643
3416.00,0.0653
3415.00,0.0663
3414.00,0.0673
3413.00,0.0682
3412.00,0.0690
3411.00,0.0697
3410.00,0.0702
3409.00,0.0705
3408.00,0.0706
3407.00,0.0705
3406.00,0.0701
3405.00,0.0695
3404.00,0.0687
3403.00,0.0677
3402.00,0.0665
3401.00,0.0650
3400.00,0.0633
3399.00,0.0615
3398.00,0.0596
3397.00,0.0576
3396.00,0.0557
3395.00,0.0538
3394.00,0.0520
3393.00,0.0502
3392.00,0.0484
3391.00,0.0467
3390.00,0.0451
3389.00,0.0436
3388.00,0.0423
3387.00,0.0410
3386.00,0.0398
3385.00,0.0387
3384.00,0.0376
3383.00,0.0367
3382.00,0.0357
3381.00,0.0349
3380.00,0.0341
3379.00,0.0333
3378.00,0.0326
3377.00,0.0319
3376.00,0.0312
3375.00,0.0305
3374.00,0.0299
3373.00,0.0293
3372.00,0.0288
3371.00,0.0283
3370.00,0.0278
3369.00,0.0273
3368.00,0.0268
3367.00,0.0263
3366.00,0.0258
3365.00,0.0254
3364.00,0.0249
3363.00,0.0245
3362.00,0.0241
3361.00,0.0237
3360.00,0.0234
3359.00,0.0230
3358.00,0.0227
3357.00,0.0224
3356.00,0.0221
3355.00,0.0218
3354.00,0.0215
3353.00,0.0212
3352.00,0.0209
3351.00,0.0206
3350.00,0.0204
3349.00,0.0201
3348.00,0.0199
3347.00,0.0196
3346.00,0.0194
3345.00,0.0192
3344.00,0.0190
3343.00,0.0188
3342.00,0.0186
3341.00,0.0184
3340.00,0.0182
3339.00,0.0180
3338.00,0.0178
3337.00,0.0177
3336.00,0.0175
3335.00,0.0173
3334.00,0.0172
3333.00,0.0170
3332.00,0.0169
3331.00,0.0168
3330.00,0.0166
3329.00,0.0165
3328.00,0.0164
3327.00,0.0162
3326.00,0.0161
3325.00,0.0159
3324.00,0.0158
3323.00,0.0157
3322.00,0.0156
3321.00,0.0155
3320.00,0.0154
3319.00,0.0153
3318.00,0.0153
3317.00,0.0152
3316.00,0.0151
3315.00,0.0150
3314.00,0.0149
3313.00,0.0148
3312.00,0.0147
3311.00,0.0147
3310.00,0.0146
3309.00,0.0145
3308.00,0.0144
3307.00,0.0143
3306.00,0.0142
3305.00,0.0141
3304.00,0.0141
3303.00,0.0140
3302.00,0.0139
3301.00,0.0138
3300.00,0.0138
3299.00,0.0137
3298.00,0.0136
3297.00,0.0135
3296.00,0.0135
3295.00,0.0134
3294.00,0.0133
3293.00,0.0132
3292.00,0.0132
3291.00,0.0131
3290.00,0.0131
3289.00,0.0130
3288.00,0.0130
3287.00,0.0129
3286.00,0.0129
3285.00,0.0128
3284.00,0.0127
3283.00,0.0126
3282.00,0.0126
3281.00,0.0125
3280.00,0.0124
3279.00,0.0124
3278.00,0.0123
3277.00,0.0123
3276.00,0.0123
3275.00,0.0122
3274.00,0.0122
3273.00,0.0122
3272.00,0.0121
3271.00,0.0121
3270.00,0.0121
3269.00,0.0121
3268.00,0.0121
3267.00,0.0121
3266.00,0.0121
3265.00,0.0121
3264.00,0.0120
3263.00,0.0120
3262.00,0.0120
3261.00,0.0120
3260.00,0.0119
3259.00,0.0119
3258.00,0.0118
3257.00,0.0118
3256.00,0.0117
3255.00,0.0117
3254.00,0.0118
3253.00,0.0118
3252.00,0.0117
3251.00,0.0117
3250.00,0.0117
3249.00,0.0116
3248.00,0.0116
3247.00,0.0116
3246.00,0.0116
3245.00,0.0116
3244.00,0.0116
3243.00,0.0116
3242.00,0.0116
3241.00,0.0115
3240.00,0.0115
3239.00,0.0115
3238.00,0.0115
3237.00,0.0114
3236.00,0.0113
3235.00,0.0113
3234.00,0.0112
3233.00,0.0112
3232.00,0.0112
3231.00,0.0112
3230.00,0.0112
3229.00,0.0112
3228.00,0.0112
3227.00,0.0112
3226.00,0.0111
3225.00,0.0111
3224.00,0.0111
3223.00,0.0111
3222.00,0.0111
3221.00,0.0111
3220.00,0.0110
3219.00,0.0110
3218.00,0.0110
3217.00,0.0110
3216.00,0.0110
3215.00,0.0110
3214.00,0.0110
3213.00,0.0110
3212.00,0.0110
3211.00,0.0110
3210.00,0.0110
3209.00,0.0110
3208.00,0.0110
3207.00,0.0110
3206.00,0.0110
3205.00,0.0109
3204.00,0.0109
3203.00,0.0109
3202.00,0.0109
3201.00,0.0109
3200.00,0.0109
3199.00,0.0109
3198.00,0.0109
3197.00,0.0108
3196.00,0.0108
3195.00,0.0108
3194.00,0.0108
3193.00,0.0108
3192.00,0.0108
3191.00,0.0107
3190.00,0.0107
3189.00,0.0107
3188.00,0.0107
3187.00,0.0107
3186.00,0.0107
3185.00,0.0107
3184.00,0.0107
3183.00,0.0107
3182.00,0.0107
3181.00,0.0107
3180.00,0.0108
3179.00,0.0108
3178.00,0.0108
3177.00,0.0108
3176.00,0.0108
3175.00,0.0108
3174.00,0.0108
3173.00,0.0109
3172.00,0.0109
3171.00,0.0109
3170.00,0.0109
3169.00,0.0109
3168.00,0.0109
3167.00,0.0110
3166.00,0.0110
3165.00,0.0110
3164.00,0.0110
3163.00,0.0110
3162.00,0.0110
3161.00,0.0110
3160.00,0.0110
3159.00,0.0110
3158.00,0.0110
3157.00,0.0109
3156.00,0.0109
3155.00,0.0108
3154.00,0.0108
3153.00,0.0107
3152.00,0.0107
3151.00,0.0107
3150.00,0.0108
3149.00,0.0108
3148.00,0.0108
3147.00,0.0108
3146.00,0.0107
3145.00,0.0107
3144.00,0.0107
3143.00,0.0107
3142.00,0.0107
3141.00,0.0107
3140.00,0.0107
3139.00,0.0107
3138.00,0.0107
3137.00,0.0107
3136.00,0.0107
3135.00,0.0107
3134.00,0.0107
3133.00,0.0106
3132.00,0.0106
3131.00,0.0107
3130.00,0.0107
3129.00,0.0106
3128.00,0.0106
3127.00,0.0106
3126.00,0.0106
3125.00,0.0106
3124.00,0.0106
3123.00,0.0106
3122.00,0.0106
3121.00,0.0106
3120.00,0.0106
3119.00,0.0106
3118.00,0.0106
3117.00,0.0106
3116.00,0.0106
3115.00,0.0105
3114.00,0.0106
3113.00,0.0105
3112.00,0.0105
3111.00,0.0105
3110.00,0.0105
3109.00,0.0105
3108.00,0.0105
3107.00,0.0105
3106.00,0.0105
3105.00,0.0105
3104.00,0.0105
3103.00,0.0106
3102.00,0.0106
3101.00,0.0106
3100.00,0.0106
3099.00,0.0106
3098.00,0.0107
3097.00,0.0107
3096.00,0.0107
3095.00,0.0108
3094.00,0.0108
3093.00,0.0108
3092.00,0.0109
3091.00,0.0109
3090.00,0.0109
3089.00,0.0110
3088.00,0.0111
3087.00,0.0112
3086.00,0.0113
3085.00,0.0115
3084.00,0.0117
3083.00,0.0120
3082.00,0.0125
3081.00,0.0131
3080.00,0.0139
3079.00,0.0149
3078.00,0.0161
3077.00,0.0173
3076.00,0.0184
3075.00,0.0191
3074.00,0.0192
3073.00,0.0188
3072.00,0.0180
3071.00,0.0170
3070.00,0.0159
3069.00,0.0149
3068.00,0.0141
3067.00,0.0134
3066.00,0.0130
3065.00,0.0126
3064.00,0.0124
3063.00,0.0122
3062.00,0.0120
3061.00,0.0119
3060.00,0.0118
3059.00,0.0117
3058.00,0.0116
3057.00,0.0115
3056.00,0.0115
3055.00,0.0114
3054.00,0.0114
3053.00,0.0114
3052.00,0.0114
3051.00,0.0114
3050.00,0.0114
3049.00,0.0115
3048.00,0.0116
3047.00,0.0116
3046.00,0.0118
3045.00,0.0119
3044.00,0.0120
3043.00,0.0121
3042.00,0.0122
3041.00,0.0123
3040.00,0.0124
3039.00,0.0126
3038.00,0.0127
3037.00,0.0128
3036.00,0.0130
3035.00,0.0131
3034.00,0.0133
3033.00,0.0134
3032.00,0.0135
3031.00,0.0134
3030.00,0.0133
3029.00,0.0132
3028.00,0.0130
3027.00,0.0128
3026.00,0.0126
3025.00,0.0124
3024.00,0.0123
3023.00,0.0122
3022.00,0.0121
3021.00,0.0120
3020.00,0.0119
3019.00,0.0118
3018.00,0.0117
3017.00,0.0116
3016.00,0.0116
3015.00,0.0115
3014.00,0.0115
3013.00,0.0114
3012.00,0.0114
3011.00,0.0113
3010.00,0.0112
3009.00,0.0111
3008.00,0.0110
3007.00,0.0109
3006.00,0.0107
3005.00,0.0105
3004.00,0.0103
3003.00,0.0102
3002.00,0.0100
3001.00,0.0099
3000.00,0.0098
2999.00,0.0097
2998.00,0.0097
2997.00,0.0096
2996.00,0.0096
2995.00,0.0097
2994.00,0.0098
2993.00,0.0099
2992.00,0.0101
2991.00,0.0103
2990.00,0.0105
2989.00,0.0106
2988.00,0.0107
2987.00,0.0107
2986.00,0.0105
2985.00,0.0101
2984.00,0.0095
2983.00,0.0090
2982.00,0.0089
2981.00,0.0093
2980.00,0.0102
2979.00,0.0115
2978.00,0.0130
2977.00,0.0147
2976.00,0.0165
2975.00,0.0184
2974.00,0.0203
2973.00,0.0224
2972.00,0.0246
2971.00,0.0270
2970.00,0.0296
2969.00,0.0321
2968.00,0.0343
2967.00,0.0361
2966.00,0.0374
2965.00,0.0381
2964.00,0.0385
2963.00,0.0386
2962.00,0.0385
2961.00,0.0382
2960.00,0.0378
2959.00,0.0372
2958.00,0.0363
2957.00,0.0353
2956.00,0.0342
2955.00,0.0331
2954.00,0.0321
2953.00,0.0312
2952.00,0.0305
2951.00,0.0302
2950.00,0.0302
2949.00,0.0306
2948.00,0.0314
2947.00,0.0328
2946.00,0.0346
2945.00,0.0366
2944.00,0.0388
2943.00,0.0410
2942.00,0.0429
2941.00,0.0447
2940.00,0.0463
2939.00,0.0478
2938.00,0.0495
2937.00,0.0512
2936.00,0.0532
2935.00,0.0552
2934.00,0.0574
2933.00,0.0598
2932.00,0.0622
2931.00,0.0647
2930.00,0.0672
2929.00,0.0696
2928.00,0.0719
2927.00,0.0738
2926.00,0.0752
2925.00,0.0760
2924.00,0.0763
2923.00,0.0760
2922.00,0.0754
2921.00,0.0747
2920.00,0.0740
2919.00,0.0734
2918.00,0.0728
2917.00,0.0722
2916.00,0.0714
2915.00,0.0705
2914.00,0.0693
2913.00,0.0677
2912.00,0.0658
2911.00,0.0637
2910.00,0.0615
2909.00,0.0592
2908.00,0.0569
2907.00,0.0548
2906.00,0.0528
2905.00,0.0511
2904.00,0.0496
2903.00,0.0483
2902.00,0.0471
2901.00,0.0460
2900.00,0.0450
2899.00,0.0439
2898.00,0.0426
2897.00,0.0412
2896.00,0.0398
2895.00,0.0384
2894.00,0.0371
2893.00,0.0360
2892.00,0.0350
2891.00,0.0341
2890.00,0.0335
2889.00,0.0330
2888.00,0.0326
2887.00,0.0323
2886.00,0.0321
2885.00,0.0320
2884.00,0.0320
2883.00,0.0320
2882.00,0.0321
2881.00,0.0324
2880.00,0.0327
2879.00,0.0331
2878.00,0.0337
2877.00,0.0342
2876.00,0.0349
2875.00,0.0356
2874.00,0.0363
2873.00,0.0369
2872.00,0.0373
2871.00,0.0374
2870.00,0.0373
2869.00,0.0369
2868.00,0.0365
2867.00,0.0363
2866.00,0.0363
2865.00,0.0367
2864.00,0.0376
2863.00,0.0391
2862.00,0.0413
2861.00,0.0441
2860.00,0.0474
2859.00,0.0510
2858.00,0.0544
2857.00,0.0571
2856.00,0.0588
2855.00,0.0589
2854.00,0.0576
2853.00,0.0552
2852.00,0.0519
2851.00,0.0484
2850.00,0.0448
2849.00,0.0414
2848.00,0.0382
2847.00,0.0354
2846.00,0.0330
2845.00,0.0309
2844.00,0.0291
2843.00,0.0276
2842.00,0.0265
2841.00,0.0255
2840.00,0.0248
2839.00,0.0244
2838.00,0.0242
2837.00,0.0244
2836.00,0.0249
2835.00,0.0258
2834.00,0.0273
2833.00,0.0290
2832.00,0.0310
2831.00,0.0328
2830.00,0.0341
2829.00,0.0344
2828.00,0.0337
2827.00,0.0322
2826.00,0.0300
2825.00,0.0277
2824.00,0.0255
2823.00,0.0236
2822.00,0.0221
2821.00,0.0208
2820.00,0.0198
2819.00,0.0190
2818.00,0.0184
2817.00,0.0179
2816.00,0.0175
2815.00,0.0171
2814.00,0.0168
2813.00,0.0165
2812.00,0.0163
2811.00,0.0160
2810.00,0.0158
2809.00,0.0157
2808.00,0.0155
2807.00,0.0154
2806.00,0.0152
2805.00,0.0151
2804.00,0.0150
2803.00,0.0148
2802.00,0.0147
2801.00,0.0145
2800.00,0.0144
2799.00,0.0143
2798.00,0.0142
2797.00,0.0141
2796.00,0.0139
2795.00,0.0138
2794.00,0.0138
2793.00,0.0137
2792.00,0.0136
2791.00,0.0136
2790.00,0.0135
2789.00,0.0135
2788.00,0.0134
2787.00,0.0133
2786.00,0.0132
2785.00,0.0132
2784.00,0.0131
2783.00,0.0131
2782.00,0.0130
2781.00,0.0129
2780.00,0.0129
2779.00,0.0129
2778.00,0.0128
2777.00,0.0127
2776.00,0.0127
2775.00,0.0126
2774.00,0.0126
2773.00,0.0126
2772.00,0.0125
2771.00,0.0125
2770.00,0.0125
2769.00,0.0124
2768.00,0.0123
2767.00,0.0123
2766.00,0.0122
2765.00,0.0122
2764.00,0.0122
2763.00,0.0121
2762.00,0.0121
2761.00,0.0121
2760.00,0.0121
2759.00,0.0120
2758.00,0.0120
2757.00,0.0120
2756.00,0.0120
2755.00,0.0120
2754.00,0.0120
2753.00,0.0120
2752.00,0.0120
2751.00,0.0120
2750.00,0.0120
2749.00,0.0120
2748.00,0.0120
2747.00,0.0120
2746.00,0.0120
2745.00,0.0120
2744.00,0.0120
2743.00,0.0121
2742.00,0.0121
2741.00,0.0122
2740.00,0.0123
2739.00,0.0123
2738.00,0.0124
2737.00,0.0124
2736.00,0.0125
2735.00,0.0126
2734.00,0.0128
2733.00,0.0129
2732.00,0.0131
2731.00,0.0132
2730.00,0.0134
2729.00,0.0135
2728.00,0.0135
2727.00,0.0134
2726.00,0.0133
2725.00,0.0131
2724.00,0.0129
2723.00,0.0128
2722.00,0.0127
2721.00,0.0126
2720.00,0.0125
2719.00,0.0124
2718.00,0.0123
2717.00,0.0122
2716.00,0.0121
2715.00,0.0120
2714.00,0.0120
2713.00,0.0119
2712.00,0.0119
2711.00,0.0118
2710.00,0.0118
2709.00,0.0117
2708.00,0.0117
2707.00,0.0117
2706.00,0.0116
2705.00,0.0116
2704.00,0.0116
2703.00,0.0116
2702.00,0.0115
2701.00,0.0115
2700.00,0.0115
2699.00,0.0115
2698.00,0.0114
2697.00,0.0114
2696.00,0.0114
2695.00,0.0114
2694.00,0.0114
2693.00,0.0114
2692.00,0.0114
2691.00,0.0114
2690.00,0.0114
2689.00,0.0114
2688.00,0.0114
2687.00,0.0114
2686.00,0.0115
2685.00,0.0115
2684.00,0.0115
2683.00,0.0115
2682.00,0.0116
2681.00,0.0116
2680.00,0.0116
2679.00,0.0117
2678.00,0.0117
2677.00,0.0118
2676.00,0.0118
2675.00,0.0118
2674.00,0.0119
2673.00,0.0119
2672.00,0.0119
2671.00,0.0119
2670.00,0.0119
2669.00,0.0119
2668.00,0.0120
2667.00,0.0120
2666.00,0.0120
2665.00,0.0121
2664.00,0.0121
2663.00,0.0121
2662.00,0.0121
2661.00,0.0121
2660.00,0.0121
2659.00,0.0121
2658.00,0.0121
2657.00,0.0121
2656.00,0.0121
2655.00,0.0121
2654.00,0.0121
2653.00,0.0120
2652.00,0.0120
2651.00,0.0119
2650.00,0.0119
2649.00,0.0119
2648.00,0.0119
2647.00,0.0118
2646.00,0.0118
2645.00,0.0118
2644.00,0.0117
2643.00,0.0117
2642.00,0.0117
2641.00,0.0117
2640.00,0.0116
2639.00,0.0116
2638.00,0.0116
2637.00,0.0116
2636.00,0.0116
2635.00,0.0116
2634.00,0.0116
2633.00,0.0116
2632.00,0.0116
2631.00,0.0116
2630.00,0.0116
2629.00,0.0116
2628.00,0.0116
2627.00,0.0116
2626.00,0.0116
2625.00,0.0116
2624.00,0.0116
2623.00,0.0116
2622.00,0.0116
2621.00,0.0116
2620.00,0.0116
2619.00,0.0115
2618.00,0.0115
2617.00,0.0115
2616.00,0.0115
2615.00,0.0114
2614.00,0.0114
2613.00,0.0114
2612.00,0.0115
2611.00,0.0115
2610.00,0.0114
2609.00,0.0114
2608.00,0.0114
2607.00,0.0114
2606.00,0.0114
2605.00,0.0114
2604.00,0.0113
2603.00,0.0114
2602.00,0.0114
2601.00,0.0114
2600.00,0.0113
2599.00,0.0113
2598.00,0.0113
2597.00,0.0113
2596.00,0.0113
2595.00,0.0112
2594.00,0.0112
2593.00,0.0112
2592.00,0.0112
2591.00,0.0112
2590.00,0.0112
2589.00,0.0112
2588.00,0.0112
2587.00,0.0112
2586.00,0.0112
2585.00,0.0112
2584.00,0.0112
2583.00,0.0112
2582.00,0.0112
2581.00,0.0112
2580.00,0.0112
2579.00,0.0112
2578.00,0.0112
2577.00,0.0111
2576.00,0.0111
2575.00,0.0111
2574.00,0.0111
2573.00,0.0111
2572.00,0.0111
2571.00,0.0111
2570.00,0.0111
2569.00,0.0111
2568.00,0.0111
2567.00,0.0111
2566.00,0.0111
2565.00,0.0111
2564.00,0.0111
2563.00,0.0111
2562.00,0.0111
2561.00,0.0112
2560.00,0.0111
2559.00,0.0111
2558.00,0.0111
2557.00,0.0110
2556.00,0.0110
2555.00,0.0110
2554.00,0.0110
2553.00,0.0110
2552.00,0.0110
2551.00,0.0110
2550.00,0.0110
2549.00,0.0109
2548.00,0.0109
2547.00,0.0109
2546.00,0.0108
2545.00,0.0108
2544.00,0.0108
2543.00,0.0108
2542.00,0.0108
2541.00,0.0108
2540.00,0.0109
2539.00,0.0109
2538.00,0.0109
2537.00,0.0109
2536.00,0.0108
2535.00,0.0108
2534.00,0.0108
2533.00,0.0108
2532.00,0.0109
2531.00,0.0109
2530.00,0.0109
2529.00,0.0109
2528.00,0.0108
2527.00,0.0108
2526.00,0.0108
2525.00,0.0108
2524.00,0.0108
2523.00,0.0108
2522.00,0.0108
2521.00,0.0108
2520.00,0.0108
2519.00,0.0108
2518.00,0.0108
2517.00,0.0108
2516.00,0.0108
2515.00,0.0108
2514.00,0.0108
2513.00,0.0108
2512.00,0.0108
2511.00,0.0108
2510.00,0.0108
2509.00,0.0108
2508.00,0.0108
2507.00,0.0107
2506.00,0.0107
2505.00,0.0107
2504.00,0.0107
2503.00,0.0107
2502.00,0.0108
2501.00,0.0108
2500.00,0.0108
2499.00,0.0108
2498.00,0.0108
2497.00,0.0108
2496.00,0.0108
2495.00,0.0107
2494.00,0.0107
2493.00,0.0107
2492.00,0.0107
2491.00,0.0107
2490.00,0.0107
2489.00,0.0107
2488.00,0.0107
2487.00,0.0107
2486.00,0.0107
2485.00,0.0107
2484.00,0.0107
2483.00,0.0107
2482.00,0.0107
2481.00,0.0108
2480.00,0.0108
2479.00,0.0108
2478.00,0.0108
2477.00,0.0108
2476.00,0.0108
2475.00,0.0108
2474.00,0.0108
2473.00,0.0108
2472.00,0.0108
2471.00,0.0108
2470.00,0.0108
2469.00,0.0108
2468.00,0.0108
2467.00,0.0108
2466.00,0.0107
2465.00,0.0107
2464.00,0.0107
2463.00,0.0108
2462.00,0.0108
2461.00,0.0109
2460.00,0.0109
2459.00,0.0110
2458.00,0.0110
2457.00,0.0110
2456.00,0.0110
2455.00,0.0110
2454.00,0.0110
2453.00,0.0110
2452.00,0.0110
2451.00,0.0110
2450.00,0.0110
2449.00,0.0110
2448.00,0.0110
2447.00,0.0110
2446.00,0.0110
2445.00,0.0109
2444.00,0.0109
2443.00,0.0108
2442.00,0.0107
2441.00,0.0106
2440.00,0.0106
2439.00,0.0105
2438.00,0.0104
2437.00,0.0104
2436.00,0.0104
2435.00,0.0103
2434.00,0.0103
2433.00,0.0103
2432.00,0.0103
2431.00,0.0103
2430.00,0.0102
2429.00,0.0102
2428.00,0.0101
2427.00,0.0101
2426.00,0.0100
2425.00,0.0100
2424.00,0.0100
2423.00,0.0100
2422.00,0.0100
2421.00,0.0100
2420.00,0.0100
2419.00,0.0100
2418.00,0.0100
2417.00,0.0100
2416.00,0.0099
2415.00,0.0099
2414.00,0.0099
2413.00,0.0099
2412.00,0.0099
2411.00,0.0099
2410.00,0.0099
2409.00,0.0098
2408.00,0.0098
2407.00,0.0097
2406.00,0.0097
2405.00,0.0097
2404.00,0.0097
2403.00,0.0097
2402.00,0.0097
2401.00,0.0097
2400.00,0.0097
2399.00,0.0097
2398.00,0.0097
2397.00,0.0097
2396.00,0.0097
2395.00,0.0096
2394.00,0.0096
2393.00,0.0096
2392.00,0.0096
2391.00,0.0096
2390.00,0.0096
2389.00,0.0096
2388.00,0.0096
2387.00,0.0096
2386.00,0.0096
2385.00,0.0095
2384.00,0.0094
2383.00,0.0094
2382.00,0.0093
2381.00,0.0092
2380.00,0.0092
2379.00,0.0093
2378.00,0.0093
2377.00,0.0093
2376.00,0.0093
2375.00,0.0093
2374.00,0.0094
2373.00,0.0094
2372.00,0.0093
2371.00,0.0093
2370.00,0.0092
2369.00,0.0092
2368.00,0.0092
2367.00,0.0092
2366.00,0.0093
2365.00,0.0094
2364.00,0.0094
2363.00,0.0094
2362.00,0.0094
2361.00,0.0094
2360.00,0.0094
2359.00,0.0094
2358.00,0.0095
2357.00,0.0096
2356.00,0.0096
2355.00,0.0096
2354.00,0.0095
2353.00,0.0095
2352.00,0.0094
2351.00,0.0094
2350.00,0.0095
2349.00,0.0095
2348.00,0.0095
2347.00,0.0095
2346.00,0.0095
2345.00,0.0095
2344.00,0.0095
2343.00,0.0095
2342.00,0.0096
2341.00,0.0096
2340.00,0.0097
2339.00,0.0097
2338.00,0.0097
2337.00,0.0097
2336.00,0.0097
2335.00,0.0097
2334.00,0.0097
2333.00,0.0096
2332.00,0.0096
2331.00,0.0096
2330.00,0.0096
2329.00,0.0098
2328.00,0.0101
2327.00,0.0105
2326.00,0.0108
2325.00,0.0108
2324.00,0.0107
2323.00,0.0105
2322.00,0.0103
2321.00,0.0101
2320.00,0.0101
2319.00,0.0100
2318.00,0.0100
2317.00,0.0100
2316.00,0.0099
2315.00,0.0098
2314.00,0.0098
2313.00,0.0097
2312.00,0.0096
2311.00,0.0096
2310.00,0.0095
2309.00,0.0095
2308.00,0.0095
2307.00,0.0095
2306.00,0.0095
2305.00,0.0095
2304.00,0.0096
2303.00,0.0096
2302.00,0.0096
2301.00,0.0096
2300.00,0.0097
2299.00,0.0097
2298.00,0.0098
2297.00,0.0098
2296.00,0.0099
2295.00,0.0099
2294.00,0.0100
2293.00,0.0101
2292.00,0.0102
2291.00,0.0103
2290.00,0.0104
2289.00,0.0105
2288.00,0.0105
2287.00,0.0105
2286.00,0.0105
2285.00,0.0104
2284.00,0.0104
2283.00,0.0103
2282.00,0.0102
2281.00,0.0101
2280.00,0.0101
2279.00,0.0100
2278.00,0.0100
2277.00,0.0099
2276.00,0.0099
2275.00,0.0099
2274.00,0.0099
2273.00,0.0099
2272.00,0.0099
2271.00,0.0098
2270.00,0.0098
2269.00,0.0097
2268.00,0.0097
2267.00,0.0096
2266.00,0.0096
2265.00,0.0096
2264.00,0.0096
2263.00,0.0096
2262.00,0.0096
2261.00,0.0097
2260.00,0.0098
2259.00,0.0098
2258.00,0.0098
2257.00,0.0097
2256.00,0.0096
2255.00,0.0095
2254.00,0.0095
2253.00,0.0095
2252.00,0.0095
2251.00,0.0095
2250.00,0.0095
2249.00,0.0096
2248.00,0.0096
2247.00,0.0096
2246.00,0.0095
2245.00,0.0095
2244.00,0.0094
2243.00,0.0094
2242.00,0.0094
2241.00,0.0095
2240.00,0.0096
2239.00,0.0096
2238.00,0.0096
2237.00,0.0096
2236.00,0.0096
2235.00,0.0095
2234.00,0.0094
2233.00,0.0094
2232.00,0.0095
2231.00,0.0096
2230.00,0.0096
2229.00,0.0096
2228.00,0.0096
2227.00,0.0096
2226.00,0.0095
2225.00,0.0094
2224.00,0.0094
2223.00,0.0093
2222.00,0.0093
2221.00,0.0093
2220.00,0.0093
2219.00,0.0094
2218.00,0.0093
2217.00,0.0093
2216.00,0.0093
2215.00,0.0093
2214.00,0.0094
2213.00,0.0094
2212.00,0.0094
2211.00,0.0093
2210.00,0.0092
2209.00,0.0092
2208.00,0.0093
2207.00,0.0093
2206.00,0.0093
2205.00,0.0093
2204.00,0.0093
2203.00,0.0093
2202.00,0.0093
2201.00,0.0093
2200.00,0.0093
2199.00,0.0093
2198.00,0.0093
2197.00,0.0093
2196.00,0.0093
2195.00,0.0092
2194.00,0.0092
2193.00,0.0092
2192.00,0.0093
2191.00,0.0094
2190.00,0.0094
2189.00,0.0094
2188.00,0.0094
2187.00,0.0094
2186.00,0.0094
2185.00,0.0093
2184.00,0.0092
2183.00,0.0090
2182.00,0.0089
2181.00,0.0090
2180.00,0.0092
2179.00,0.0092
2178.00,0.0091
2177.00,0.0089
2176.00,0.0088
2175.00,0.0087
2174.00,0.0088
2173.00,0.0090
2172.00,0.0093
2171.00,0.0095
2170.00,0.0098
2169.00,0.0100
2168.00,0.0102
2167.00,0.0102
2166.00,0.0102
2165.00,0.0103
2164.00,0.0105
2163.00,0.0104
2162.00,0.0098
2161.00,0.0085
2160.00,0.0071
2159.00,0.0060
2158.00,0.0056
2157.00,0.0059
2156.00,0.0063
2155.00,0.0067
2154.00,0.0070
2153.00,0.0072
2152.00,0.0074
2151.00,0.0074
2150.00,0.0074
2149.00,0.0073
2148.00,0.0073
2147.00,0.0072
2146.00,0.0071
2145.00,0.0072
2144.00,0.0073
2143.00,0.0074
2142.00,0.0075
2141.00,0.0075
2140.00,0.0075
2139.00,0.0075
2138.00,0.0075
2137.00,0.0074
2136.00,0.0072
2135.00,0.0070
2134.00,0.0069
2133.00,0.0070
2132.00,0.0071
2131.00,0.0073
2130.00,0.0073
2129.00,0.0074
2128.00,0.0075
2127.00,0.0076
2126.00,0.0077
2125.00,0.0078
2124.00,0.0080
2123.00,0.0081
2122.00,0.0081
2121.00,0.0082
2120.00,0.0083
2119.00,0.0084
2118.00,0.0085
2117.00,0.0086
2116.00,0.0087
2115.00,0.0087
2114.00,0.0087
2113.00,0.0087
2112.00,0.0087
2111.00,0.0087
2110.00,0.0086
2109.00,0.0085
2108.00,0.0085
2107.00,0.0084
2106.00,0.0084
2105.00,0.0084
2104.00,0.0084
2103.00,0.0084
2102.00,0.0084
2101.00,0.0084
2100.00,0.0085
2099.00,0.0084
2098.00,0.0083
2097.00,0.0082
2096.00,0.0080
2095.00,0.0080
2094.00,0.0080
2093.00,0.0082
2092.00,0.0084
2091.00,0.0086
2090.00,0.0086
2089.00,0.0087
2088.00,0.0087
2087.00,0.0087
2086.00,0.0086
2085.00,0.0087
2084.00,0.0087
2083.00,0.0087
2082.00,0.0087
2081.00,0.0086
2080.00,0.0086
2079.00,0.0086
2078.00,0.0086
2077.00,0.0086
2076.00,0.0085
2075.00,0.0085
2074.00,0.0084
2073.00,0.0084
2072.00,0.0085
2071.00,0.0084
2070.00,0.0083
2069.00,0.0082
2068.00,0.0082
2067.00,0.0081
2066.00,0.0081
2065.00,0.0080
2064.00,0.0080
2063.00,0.0079
2062.00,0.0079
2061.00,0.0079
2060.00,0.0080
2059.00,0.0081
2058.00,0.0082
2057.00,0.0082
2056.00,0.0082
2055.00,0.0083
2054.00,0.0084
2053.00,0.0088
2052.00,0.0091
2051.00,0.0091
2050.00,0.0089
2049.00,0.0086
2048.00,0.0083
2047.00,0.0082
2046.00,0.0081
2045.00,0.0080
2044.00,0.0080
2043.00,0.0079
2042.00,0.0078
2041.00,0.0077
2040.00,0.0077
2039.00,0.0077
2038.00,0.0076
2037.00,0.0076
2036.00,0.0076
2035.00,0.0075
2034.00,0.0074
2033.00,0.0074
2032.00,0.0074
2031.00,0.0074
2030.00,0.0075
2029.00,0.0075
2028.00,0.0076
2027.00,0.0075
2026.00,0.0074
2025.00,0.0073
2024.00,0.0073
2023.00,0.0072
2022.00,0.0071
2021.00,0.0071
2020.00,0.0072
2019.00,0.0074
2018.00,0.0074
2017.00,0.0075
2016.00,0.0075
2015.00,0.0075
2014.00,0.0076
2013.00,0.0077
2012.00,0.0078
2011.00,0.0077
2010.00,0.0075
2009.00,0.0073
2008.00,0.0070
2007.00,0.0067
2006.00,0.0064
2005.00,0.0064
2004.00,0.0065
2003.00,0.0068
2002.00,0.0071
2001.00,0.0073
2000.00,0.0076
1999.00,0.0077
1998.00,0.0077
1997.00,0.0077
1996.00,0.0077
1995.00,0.0076
1994.00,0.0075
1993.00,0.0076
1992.00,0.0077
1991.00,0.0079
1990.00,0.0081
1989.00,0.0082
1988.00,0.0083
1987.00,0.0084
1986.00,0.0085
1985.00,0.0087
1984.00,0.0089
1983.00,0.0092
1982.00,0.0094
1981.00,0.0094
1980.00,0.0090
1979.00,0.0083
1978.00,0.0075
1977.00,0.0071
1976.00,0.0070
1975.00,0.0071
1974.00,0.0071
1973.00,0.0071
1972.00,0.0070
1971.00,0.0070
1970.00,0.0068
1969.00,0.0067
1968.00,0.0066
1967.00,0.0066
1966.00,0.0066
1965.00,0.0067
1964.00,0.0068
1963.00,0.0068
1962.00,0.0068
1961.00,0.0068
1960.00,0.0068
1959.00,0.0067
1958.00,0.0067
1957.00,0.0069
1956.00,0.0071
1955.00,0.0072
1954.00,0.0072
1953.00,0.0073
1952.00,0.0073
1951.00,0.0073
1950.00,0.0073
1949.00,0.0074
1948.00,0.0075
1947.00,0.0076
1946.00,0.0075
1945.00,0.0075
1944.00,0.0075
1943.00,0.0075
1942.00,0.0075
1941.00,0.0075
1940.00,0.0075
1939.00,0.0075
1938.00,0.0075
1937.00,0.0075
1936.00,0.0075
1935.00,0.0075
1934.00,0.0074
1933.00,0.0074
1932.00,0.0075
1931.00,0.0075
1930.00,0.0075
1929.00,0.0076
1928.00,0.0076
1927.00,0.0075
1926.00,0.0074
1925.00,0.0074
1924.00,0.0074
1923.00,0.0075
1922.00,0.0076
1921.00,0.0077
1920.00,0.0077
1919.00,0.0077
1918.00,0.0077
1917.00,0.0077
1916.00,0.0077
1915.00,0.0077
1914.00,0.0077
1913.00,0.0077
1912.00,0.0078
1911.00,0.0079
1910.00,0.0079
1909.00,0.0079
1908.00,0.0079
1907.00,0.0079
1906.00,0.0080
1905.00,0.0080
1904.00,0.0080
1903.00,0.0080
1902.00,0.0079
1901.00,0.0080
1900.00,0.0080
1899.00,0.0081
1898.00,0.0081
1897.00,0.0080
1896.00,0.0081
1895.00,0.0081
1894.00,0.0080
1893.00,0.0080
1892.00,0.0080
1891.00,0.0080
1890.00,0.0080
1889.00,0.0080
1888.00,0.0080
1887.00,0.0080
1886.00,0.0080
1885.00,0.0080
1884.00,0.0081
1883.00,0.0081
1882.00,0.0082
1881.00,0.0082
1880.00,0.0082
1879.00,0.0082
1878.00,0.0081
1877.00,0.0081
1876.00,0.0081
1875.00,0.0081
1874.00,0.0081
1873.00,0.0081
1872.00,0.0081
1871.00,0.0081
1870.00,0.0080
1869.00,0.0080
1868.00,0.0080
1867.00,0.0080
1866.00,0.0080
1865.00,0.0081
1864.00,0.0081
1863.00,0.0082
1862.00,0.0081
1861.00,0.0081
1860.00,0.0081
1859.00,0.0081
1858.00,0.0081
1857.00,0.0081
1856.00,0.0081
1855.00,0.0081
1854.00,0.0081
1853.00,0.0081
1852.00,0.0081
1851.00,0.0081
1850.00,0.0081
1849.00,0.0081
1848.00,0.0080
1847.00,0.0080
1846.00,0.0080
1845.00,0.0081
1844.00,0.0081
1843.00,0.0081
1842.00,0.0081
1841.00,0.0081
1840.00,0.0082
1839.00,0.0082
1838.00,0.0082
1837.00,0.0082
1836.00,0.0082
1835.00,0.0082
1834.00,0.0083
1833.00,0.0083
1832.00,0.0083
1831.00,0.0083
1830.00,0.0083
1829.00,0.0083
1828.00,0.0084
1827.00,0.0084
1826.00,0.0083
1825.00,0.0084
1824.00,0.0084
1823.00,0.0084
1822.00,0.0084
1821.00,0.0084
1820.00,0.0083
1819.00,0.0083
1818.00,0.0082
1817.00,0.0082
1816.00,0.0083
1815.00,0.0084
1814.00,0.0084
1813.00,0.0085
1812.00,0.0086
1811.00,0.0087
1810.00,0.0087
1809.00,0.0088
1808.00,0.0089
1807.00,0.0090
1806.00,0.0090
1805.00,0.0091
1804.00,0.0092
1803.00,0.0092
1802.00,0.0092
1801.00,0.0093
1800.00,0.0093
1799.00,0.0093
1798.00,0.0093
1797.00,0.0093
1796.00,0.0092
1795.00,0.0091
1794.00,0.0090
1793.00,0.0089
1792.00,0.0089
1791.00,0.0089
1790.00,0.0089
1789.00,0.0088
1788.00,0.0088
1787.00,0.0088
1786.00,0.0089
1785.00,0.0089
1784.00,0.0089
1783.00,0.0089
1782.00,0.0089
1781.00,0.0089
1780.00,0.0089
1779.00,0.0090
1778.00,0.0091
1777.00,0.0091
1776.00,0.0092
1775.00,0.0093
1774.00,0.0094
1773.00,0.0095
1772.00,0.0096
1771.00,0.0096
1770.00,0.0096
1769.00,0.0095
1768.00,0.0094
1767.00,0.0093
1766.00,0.0092
1765.00,0.0091
1764.00,0.0090
1763.00,0.0090
1762.00,0.0089
1761.00,0.0089
1760.00,0.0088
1759.00,0.0088
1758.00,0.0088
1757.00,0.0088
1756.00,0.0088
1755.00,0.0088
1754.00,0.0087
1753.00,0.0087
1752.00,0.0087
1751.00,0.0086
1750.00,0.0086
1749.00,0.0086
1748.00,0.0087
1747.00,0.0087
1746.00,0.0087
1745.00,0.0088
1744.00,0.0088
1743.00,0.0088
1742.00,0.0088
1741.00,0.0088
1740.00,0.0088
1739.00,0.0089
1738.00,0.0089
1737.00,0.0089
1736.00,0.0089
1735.00,0.0089
1734.00,0.0090
1733.00,0.0090
1732.00,0.0090
1731.00,0.0090
1730.00,0.0090
1729.00,0.0090
1728.00,0.0091
1727.00,0.0091
1726.00,0.0091
1725.00,0.0092
1724.00,0.0092
1723.00,0.0092
1722.00,0.0092
1721.00,0.0092
1720.00,0.0092
1719.00,0.0092
1718.00,0.0092
1717.00,0.0092
1716.00,0.0092
1715.00,0.0093
1714.00,0.0093
1713.00,0.0094
1712.00,0.0095
1711.00,0.0095
1710.00,0.0095
1709.00,0.0095
1708.00,0.0096
1707.00,0.0096
1706.00,0.0097
1705.00,0.0098
1704.00,0.0098
1703.00,0.0099
1702.00,0.0099
1701.00,0.0099
1700.00,0.0099
1699.00,0.0099
1698.00,0.0099
1697.00,0.0100
1696.00,0.0101
1695.00,0.0101
1694.00,0.0101
1693.00,0.0100
1692.00,0.0100
1691.00,0.0100
1690.00,0.0100
1689.00,0.0100
1688.00,0.0099
1687.00,0.0099
1686.00,0.0099
1685.00,0.0098
1684.00,0.0098
1683.00,0.0098
1682.00,0.0098
1681.00,0.0098
1680.00,0.0099
1679.00,0.0100
1678.00,0.0100
1677.00,0.0101
1676.00,0.0101
1675.00,0.0102
1674.00,0.0103
1673.00,0.0104
1672.00,0.0105
1671.00,0.0106
1670.00,0.0108
1669.00,0.0110
1668.00,0.0113
1667.00,0.0116
1666.00,0.0119
1665.00,0.0122
1664.00,0.0125
1663.00,0.0127
1662.00,0.0129
1661.00,0.0129
1660.00,0.0129
1659.00,0.0129
1658.00,0.0129
1657.00,0.0129
1656.00,0.0131
1655.00,0.0134
1654.00,0.0139
1653.00,0.0149
1652.00,0.0161
1651.00,0.0171
1650.00,0.0182
1649.00,0.0199
1648.00,0.0228
1647.00,0.0274
1646.00,0.0326
1645.00,0.0370
1644.00,0.0397
1643.00,0.0405
1642.00,0.0397
1641.00,0.0382
1640.00,0.0367
1639.00,0.0359
1638.00,0.0362
1637.00,0.0382
1636.00,0.0421
1635.00,0.0472
1634.00,0.0517
1633.00,0.0553
1632.00,0.0581
1631.00,0.0604
1630.00,0.0622
1629.00,0.0638
1628.00,0.0658
1627.00,0.0683
1626.00,0.0714
1625.00,0.0749
1624.00,0.0782
1623.00,0.0800
1622.00,0.0790
1621.00,0.0757
1620.00,0.0710
1619.00,0.0653
1618.00,0.0587
1617.00,0.0515
1616.00,0.0450
1615.00,0.0402
1614.00,0.0368
1613.00,0.0343
1612.00,0.0320
1611.00,0.0299
1610.00,0.0281
1609.00,0.0265
1608.00,0.0252
1607.00,0.0242
1606.00,0.0233
1605.00,0.0227
1604.00,0.0223
1603.00,0.0220
1602.00,0.0219
1601.00,0.0220
1600.00,0.0222
1599.00,0.0227
1598.00,0.0233
1597.00,0.0243
1596.00,0.0257
1595.00,0.0275
1594.00,0.0299
1593.00,0.0332
1592.00,0.0375
1591.00,0.0429
1590.00,0.0494
1589.00,0.0567
1588.00,0.0643
1587.00,0.0717
1586.00,0.0785
1585.00,0.0846
1584.00,0.0899
1583.00,0.0941
1582.00,0.0966
1581.00,0.0968
1580.00,0.0949
1579.00,0.0911
1578.00,0.0855
1577.00,0.0779
1576.00,0.0693
1575.00,0.0615
1574.00,0.0557
1573.00,0.0513
1572.00,0.0474
1571.00,0.0434
1570.00,0.0392
1569.00,0.0353
1568.00,0.0322
1567.00,0.0297
1566.00,0.0276
1565.00,0.0257
1564.00,0.0240
1563.00,0.0227
1562.00,0.0218
1561.00,0.0209
1560.00,0.0200
1559.00,0.0191
1558.00,0.0184
1557.00,0.0179
1556.00,0.0176
1555.00,0.0173
1554.00,0.0170
1553.00,0.0167
1552.00,0.0164
1551.00,0.0161
1550.00,0.0158
1549.00,0.0155
1548.00,0.0152
1547.00,0.0150
1546.00,0.0148
1545.00,0.0146
1544.00,0.0144
1543.00,0.0142
1542.00,0.0141
1541.00,0.0141
1540.00,0.0141
1539.00,0.0141
1538.00,0.0141
1537.00,0.0141
1536.00,0.0141
1535.00,0.0140
1534.00,0.0140
1533.00,0.0141
1532.00,0.0141
1531.00,0.0141
1530.00,0.0141
1529.00,0.0142
1528.00,0.0143
1527.00,0.0145
1526.00,0.0147
1525.00,0.0151
1524.00,0.0155
1523.00,0.0161
1522.00,0.0172
1521.00,0.0188
1520.00,0.0205
1519.00,0.0220
1518.00,0.0236
1517.00,0.0253
1516.00,0.0268
1515.00,0.0279
1514.00,0.0282
1513.00,0.0280
1512.00,0.0272
1511.00,0.0260
1510.00,0.0247
1509.00,0.0234
1508.00,0.0222
1507.00,0.0209
1506.00,0.0199
1505.00,0.0194
1504.00,0.0190
1503.00,0.0188
1502.00,0.0185
1501.00,0.0182
1500.00,0.0178
1499.00,0.0174
1498.00,0.0169
1497.00,0.0163
1496.00,0.0158
1495.00,0.0153
1494.00,0.0149
1493.00,0.0145
1492.00,0.0142
1491.00,0.0138
1490.00,0.0135
1489.00,0.0133
1488.00,0.0131
1487.00,0.0130
1486.00,0.0130
1485.00,0.0129
1484.00,0.0130
1483.00,0.0130
1482.00,0.0130
1481.00,0.0131
1480.00,0.0133
1479.00,0.0134
1478.00,0.0136
1477.00,0.0138
1476.00,0.0141
1475.00,0.0145
1474.00,0.0151
1473.00,0.0163
1472.00,0.0182
1471.00,0.0207
1470.00,0.0236
1469.00,0.0267
1468.00,0.0299
1467.00,0.0325
1466.00,0.0343
1465.00,0.0355
1464.00,0.0364
1463.00,0.0374
1462.00,0.0386
1461.00,0.0399
1460.00,0.0410
1459.00,0.0420
1458.00,0.0431
1457.00,0.0448
1456.00,0.0470
1455.00,0.0496
1454.00,0.0527
1453.00,0.0569
1452.00,0.0621
1451.00,0.0682
1450.00,0.0751
1449.00,0.0831
1448.00,0.0917
1447.00,0.0999
1446.00,0.1067
1445.00,0.1117
1444.00,0.1150
1443.00,0.1164
1442.00,0.1163
1441.00,0.1154
1440.00,0.1139
1439.00,0.1120
1438.00,0.1094
1437.00,0.1061
1436.00,0.1022
1435.00,0.0981
1434.00,0.0943
1433.00,0.0906
1432.00,0.0863
1431.00,0.0812
1430.00,0.0752
1429.00,0.0684
1428.00,0.0613
1427.00,0.0545
1426.00,0.0482
1425.00,0.0425
1424.00,0.0376
1423.00,0.0337
1422.00,0.0309
1421.00,0.0286
1420.00,0.0265
1419.00,0.0247
1418.00,0.0233
1417.00,0.0221
1416.00,0.0212
1415.00,0.0205
1414.00,0.0199
1413.00,0.0193
1412.00,0.0187
1411.00,0.0182
1410.00,0.0178
1409.00,0.0174
1408.00,0.0170
1407.00,0.0167
1406.00,0.0164
1405.00,0.0162
1404.00,0.0159
1403.00,0.0156
1402.00,0.0154
1401.00,0.0150
1400.00,0.0147
1399.00,0.0144
1398.00,0.0141
1397.00,0.0138
1396.00,0.0135
1395.00,0.0133
1394.00,0.0130
1393.00,0.0128
1392.00,0.0127
1391.00,0.0127
1390.00,0.0128
1389.00,0.0129
1388.00,0.0131
1387.00,0.0135
1386.00,0.0141
1385.00,0.0149
1384.00,0.0161
1383.00,0.0177
1382.00,0.0201
1381.00,0.0232
1380.00,0.0274
1379.00,0.0325
1378.00,0.0382
1377.00,0.0435
1376.00,0.0476
1375.00,0.0496
1374.00,0.0492
1373.00,0.0470
1372.00,0.0440
1371.00,0.0411
1370.00,0.0384
1369.00,0.0359
1368.00,0.0338
1367.00,0.0320
1366.00,0.0305
1365.00,0.0291
1364.00,0.0277
1363.00,0.0264
1362.00,0.0252
1361.00,0.0243
1360.00,0.0237
1359.00,0.0233
1358.00,0.0230
1357.00,0.0228
1356.00,0.0227
1355.00,0.0227
1354.00,0.0228
1353.00,0.0230
1352.00,0.0232
1351.00,0.0234
1350.00,0.0238
1349.00,0.0242
1348.00,0.0248
1347.00,0.0255
1346.00,0.0264
1345.00,0.0272
1344.00,0.0279
1343.00,0.0285
1342.00,0.0288
1341.00,0.0288
1340.00,0.0283
1339.00,0.0274
1338.00,0.0264
1337.00,0.0256
1336.00,0.0250
1335.00,0.0249
1334.00,0.0253
1333.00,0.0260
1332.00,0.0269
1331.00,0.0281
1330.00,0.0293
1329.00,0.0304
1328.00,0.0315
1327.00,0.0325
1326.00,0.0336
1325.00,0.0345
1324.00,0.0351
1323.00,0.0350
1322.00,0.0343
1321.00,0.0331
1320.00,0.0319
1319.00,0.0312
1318.00,0.0315
1317.00,0.0328
1316.00,0.0353
1315.00,0.0388
1314.00,0.0427
1313.00,0.0464
1312.00,0.0491
1311.00,0.0504
1310.00,0.0502
1309.00,0.0490
1308.00,0.0476
1307.00,0.0467
1306.00,0.0465
1305.00,0.0472
1304.00,0.0484
1303.00,0.0497
1302.00,0.0507
1301.00,0.0512
1300.00,0.0512
1299.00,0.0507
1298.00,0.0500
1297.00,0.0490
1296.00,0.0477
1295.00,0.0463
1294.00,0.0448
1293.00,0.0433
1292.00,0.0419
1291.00,0.0406
1290.00,0.0395
1289.00,0.0388
1288.00,0.0387
1287.00,0.0392
1286.00,0.0403
1285.00,0.0420
1284.00,0.0440
1283.00,0.0461
1282.00,0.0481
1281.00,0.0497
1280.00,0.0509
1279.00,0.0516
1278.00,0.0516
1277.00,0.0511
1276.00,0.0500
1275.00,0.0483
1274.00,0.0462
1273.00,0.0437
1272.00,0.0408
1271.00,0.0377
1270.00,0.0346
1269.00,0.0316
1268.00,0.0289
1267.00,0.0266
1266.00,0.0246
1265.00,0.0230
1264.00,0.0217
1263.00,0.0207
1262.00,0.0198
1261.00,0.0191
1260.00,0.0184
1259.00,0.0179
1258.00,0.0175
1257.00,0.0172
1256.00,0.0170
1255.00,0.0170
1254.00,0.0173
1253.00,0.0177
1252.00,0.0185
1251.00,0.0197
1250.00,0.0210
1249.00,0.0222
1248.00,0.0231
1247.00,0.0238
1246.00,0.0245
1245.00,0.0256
1244.00,0.0275
1243.00,0.0304
1242.00,0.0344
1241.00,0.0393
1240.00,0.0449
1239.00,0.0505
1238.00,0.0552
1237.00,0.0584
1236.00,0.0600
1235.00,0.0601
1234.00,0.0593
1233.00,0.0578
1232.00,0.0558
1231.00,0.0537
1230.00,0.0521
1229.00,0.0518
1228.00,0.0532
1227.00,0.0564
1226.00,0.0608
1225.00,0.0660
1224.00,0.0715
1223.00,0.0773
1222.00,0.0836
1221.00,0.0910
1220.00,0.0998
1219.00,0.1101
1218.00,0.1214
1217.00,0.1323
1216.00,0.1414
1215.00,0.1472
1214.00,0.1489
1213.00,0.1464
1212.00,0.1406
1211.00,0.1325
1210.00,0.1233
1209.00,0.1141
1208.00,0.1056
1207.00,0.0979
1206.00,0.0912
1205.00,0.0849
1204.00,0.0788
1203.00,0.0727
1202.00,0.0666
1201.00,0.0607
1200.00,0.0552
1199.00,0.0504
1198.00,0.0463
1197.00,0.0429
1196.00,0.0403
1195.00,0.0384
1194.00,0.0371
1193.00,0.0364
1192.00,0.0362
1191.00,0.0365
1190.00,0.0371
1189.00,0.0379
1188.00,0.0388
1187.00,0.0397
1186.00,0.0408
1185.00,0.0419
1184.00,0.0429
1183.00,0.0439
1182.00,0.0446
1181.00,0.0451
1180.00,0.0455
1179.00,0.0459
1178.00,0.0462
1177.00,0.0465
1176.00,0.0470
1175.00,0.0480
1174.00,0.0498
1173.00,0.0519
1172.00,0.0530
1171.00,0.0519
1170.00,0.0483
1169.00,0.0433
1168.00,0.0380
1167.00,0.0333
1166.00,0.0297
1165.00,0.0268
1164.00,0.0246
1163.00,0.0230
1162.00,0.0219
1161.00,0.0212
1160.00,0.0208
1159.00,0.0208
1158.00,0.0212
1157.00,0.0222
1156.00,0.0242
1155.00,0.0277
1154.00,0.0329
1153.00,0.0397
1152.00,0.0470
1151.00,0.0525
1150.00,0.0541
1149.00,0.0510
1148.00,0.0447
1147.00,0.0375
1146.00,0.0312
1145.00,0.0266
1144.00,0.0235
1143.00,0.0215
1142.00,0.0203
1141.00,0.0197
1140.00,0.0194
1139.00,0.0196
1138.00,0.0201
1137.00,0.0207
1136.00,0.0213
1135.00,0.0217
1134.00,0.0217
1133.00,0.0212
1132.00,0.0204
1131.00,0.0194
1130.00,0.0185
1129.00,0.0176
1128.00,0.0168
1127.00,0.0162
1126.00,0.0158
1125.00,0.0155
1124.00,0.0152
1123.00,0.0151
1122.00,0.0150
1121.00,0.0150
1120.00,0.0150
1119.00,0.0151
1118.00,0.0152
1117.00,0.0154
1116.00,0.0156
1115.00,0.0159
1114.00,0.0162
1113.00,0.0165
1112.00,0.0168
1111.00,0.0171
1110.00,0.0176
1109.00,0.0181
1108.00,0.0188
1107.00,0.0196
1106.00,0.0205
1105.00,0.0215
1104.00,0.0226
1103.00,0.0238
1102.00,0.0252
1101.00,0.0268
1100.00,0.0282
1099.00,0.0290
1098.00,0.0289
1097.00,0.0279
1096.00,0.0261
1095.00,0.0241
1094.00,0.0224
1093.00,0.0210
1092.00,0.0199
1091.00,0.0191
1090.00,0.0185
1089.00,0.0181
1088.00,0.0178
1087.00,0.0179
1086.00,0.0184
1085.00,0.0192
1084.00,0.0206
1083.00,0.0224
1082.00,0.0245
1081.00,0.0266
1080.00,0.0281
1079.00,0.0286
1078.00,0.0280
1077.00,0.0266
1076.00,0.0248
1075.00,0.0231
1074.00,0.0216
1073.00,0.0205
1072.00,0.0196
1071.00,0.0190
1070.00,0.0185
1069.00,0.0182
1068.00,0.0180
1067.00,0.0179
1066.00,0.0180
1065.00,0.0183
1064.00,0.0186
1063.00,0.0192
1062.00,0.0200
1061.00,0.0210
1060.00,0.0226
1059.00,0.0248
1058.00,0.0281
1057.00,0.0328
1056.00,0.0390
1055.00,0.0462
1054.00,0.0535
1053.00,0.0594
1052.00,0.0631
1051.00,0.0645
1050.00,0.0637
1049.00,0.0607
1048.00,0.0561
1047.00,0.0504
1046.00,0.0450
1045.00,0.0408
1044.00,0.0381
1043.00,0.0369
1042.00,0.0368
1041.00,0.0375
1040.00,0.0387
1039.00,0.0405
1038.00,0.0431
1037.00,0.0468
1036.00,0.0520
1035.00,0.0583
1034.00,0.0650
1033.00,0.0707
1032.00,0.0738
1031.00,0.0738
1030.00,0.0709
1029.00,0.0666
1028.00,0.0621
1027.00,0.0588
1026.00,0.0573
1025.00,0.0581
1024.00,0.0615
1023.00,0.0672
1022.00,0.0748
1021.00,0.0829
1020.00,0.0897
1019.00,0.0935
1018.00,0.0934
1017.00,0.0897
1016.00,0.0837
1015.00,0.0770
1014.00,0.0703
1013.00,0.0643
1012.00,0.0593
1011.00,0.0557
1010.00,0.0535
1009.00,0.0526
1008.00,0.0527
1007.00,0.0538
1006.00,0.0560
1005.00,0.0589
1004.00,0.0620
1003.00,0.0644
1002.00,0.0657
1001.00,0.0651
1000.00,0.0627
999.00,0.0585
998.00,0.0533
997.00,0.0478
996.00,0.0429
995.00,0.0391
994.00,0.0364
993.00,0.0346
992.00,0.0338
991.00,0.0337
990.00,0.0343
989.00,0.0353
988.00,0.0364
987.00,0.0375
986.00,0.0384
985.00,0.0387
984.00,0.0383
983.00,0.0370
982.00,0.0351
981.00,0.0330
980.00,0.0312
979.00,0.0299
978.00,0.0290
977.00,0.0283
976.00,0.0275
975.00,0.0268
974.00,0.0262
973.00,0.0258
972.00,0.0257
971.00,0.0261
970.00,0.0269
969.00,0.0280
968.00,0.0293
967.00,0.0309
966.00,0.0326
965.00,0.0348
964.00,0.0372
963.00,0.0397
962.00,0.0417
961.00,0.0424
960.00,0.0414
959.00,0.0388
958.00,0.0353
957.00,0.0316
956.00,0.0282
955.00,0.0254
954.00,0.0232
953.00,0.0216
952.00,0.0205
951.00,0.0196
950.00,0.0190
949.00,0.0185
948.00,0.0181
947.00,0.0178
946.00,0.0175
945.00,0.0173
944.00,0.0171
943.00,0.0169
942.00,0.0168
941.00,0.0166
940.00,0.0166
939.00,0.0166
938.00,0.0166
937.00,0.0167
936.00,0.0168
935.00,0.0170
934.00,0.0174
933.00,0.0178
932.00,0.0184
931.00,0.0190
930.00,0.0196
929.00,0.0200
928.00,0.0203
927.00,0.0204
926.00,0.0204
925.00,0.0204
924.00,0.0204
923.00,0.0203
922.00,0.0203
921.00,0.0205
920.00,0.0209
919.00,0.0215
918.00,0.0224
917.00,0.0234
916.00,0.0243
915.00,0.0248
914.00,0.0249
913.00,0.0247
912.00,0.0244
911.00,0.0243
910.00,0.0246
909.00,0.0254
908.00,0.0268
907.00,0.0287
906.00,0.0313
905.00,0.0343
904.00,0.0378
903.00,0.0418
902.00,0.0468
901.00,0.0533
900.00,0.0617
899.00,0.0716
898.00,0.0816
897.00,0.0891
896.00,0.0921
895.00,0.0898
894.00,0.0835
893.00,0.0755
892.00,0.0677
891.00,0.0614
890.00,0.0576
889.00,0.0568
888.00,0.0598
887.00,0.0668
886.00,0.0775
885.00,0.0897
884.00,0.1001
883.00,0.1047
882.00,0.1018
881.00,0.0925
880.00,0.0803
879.00,0.0684
878.00,0.0586
877.00,0.0515
876.00,0.0467
875.00,0.0439
874.00,0.0428
873.00,0.0431
872.00,0.0445
871.00,0.0465
870.00,0.0480
869.00,0.0483
868.00,0.0475
867.00,0.0464
866.00,0.0462
865.00,0.0479
864.00,0.0512
863.00,0.0552
862.00,0.0586
861.00,0.0603
860.00,0.0604
859.00,0.0597
858.00,0.0591
857.00,0.0595
856.00,0.0608
855.00,0.0626
854.00,0.0645
853.00,0.0663
852.00,0.0676
851.00,0.0683
850.00,0.0679
849.00,0.0662
848.00,0.0635
847.00,0.0606
846.00,0.0580
845.00,0.0562
844.00,0.0550
843.00,0.0540
842.00,0.0529
841.00,0.0516
840.00,0.0504
839.00,0.0496
838.00,0.0495
837.00,0.0499
836.00,0.0510
835.00,0.0525
834.00,0.0545
833.00,0.0569
832.00,0.0593
831.00,0.0617
830.00,0.0639
829.00,0.0656
828.00,0.0665
827.00,0.0664
826.00,0.0648
825.00,0.0619
824.00,0.0580
823.00,0.0536
822.00,0.0491
821.00,0.0448
820.00,0.0408
819.00,0.0373
818.00,0.0345
817.00,0.0323
816.00,0.0307
815.00,0.0295
814.00,0.0287
813.00,0.0280
812.00,0.0275
811.00,0.0275
810.00,0.0283
809.00,0.0304
808.00,0.0344
807.00,0.0403
806.00,0.0472
805.00,0.0529
804.00,0.0552
803.00,0.0536
802.00,0.0493
801.00,0.0441
800.00,0.0393
799.00,0.0355
798.00,0.0325
797.00,0.0303
796.00,0.0288
795.00,0.0278
794.00,0.0273
793.00,0.0271
792.00,0.0269
791.00,0.0267
790.00,0.0263
789.00,0.0261
788.00,0.0261
787.00,0.0263
786.00,0.0265
785.00,0.0264
784.00,0.0260
783.00,0.0252
782.00,0.0244
781.00,0.0238
780.00,0.0234
779.00,0.0233
778.00,0.0233
777.00,0.0232
776.00,0.0230
775.00,0.0228
774.00,0.0226
773.00,0.0226
772.00,0.0227
771.00,0.0228
770.00,0.0229
769.00,0.0226
768.00,0.0220
767.00,0.0212
766.00,0.0204
765.00,0.0197
764.00,0.0192
763.00,0.0188
762.00,0.0185
761.00,0.0183
760.00,0.0183
759.00,0.0184
758.00,0.0187
757.00,0.0192
756.00,0.0200
755.00,0.0214
754.00,0.0231
753.00,0.0251
752.00,0.0267
751.00,0.0279
750.00,0.0286
749.00,0.0291
748.00,0.0288
747.00,0.0278
746.00,0.0261
745.00,0.0242
744.00,0.0225
743.00,0.0211
742.00,0.0201
741.00,0.0194
740.00,0.0190
739.00,0.0188
738.00,0.0189
737.00,0.0193
736.00,0.0199
735.00,0.0210
734.00,0.0224
733.00,0.0242
732.00,0.0260
731.00,0.0272
730.00,0.0272
729.00,0.0262
728.00,0.0248
727.00,0.0234
726.00,0.0225
725.00,0.0219
724.00,0.0216
723.00,0.0213
722.00,0.0210
721.00,0.0208
720.00,0.0207
719.00,0.0205
718.00,0.0201
717.00,0.0195
716.00,0.0188
715.00,0.0181
714.00,0.0177
713.00,0.0175
712.00,0.0175
711.00,0.0175
710.00,0.0173
709.00,0.0170
708.00,0.0166
707.00,0.0162
706.00,0.0158
705.00,0.0155
704.00,0.0152
703.00,0.0151
702.00,0.0151
701.00,0.0150
700.00,0.0150
699.00,0.0150
698.00,0.0150
697.00,0.0150
696.00,0.0150
695.00,0.0150
694.00,0.0150
693.00,0.0150
692.00,0.0150
691.00,0.0150
690.00,0.0150
689.00,0.0151
688.00,0.0152
687.00,0.0153
686.00,0.0154
685.00,0.0155
684.00,0.0157
683.00,0.0159
682.00,0.0161
681.00,0.0164
680.00,0.0167
679.00,0.0171
678.00,0.0175
677.00,0.0179
676.00,0.0183
675.00,0.0189
674.00,0.0197
673.00,0.0207
672.00,0.0219
671.00,0.0234
670.00,0.0249
669.00,0.0264
668.00,0.0277
667.00,0.0282
666.00,0.0283
665.00,0.0285
664.00,0.0288
663.00,0.0291
662.00,0.0292
661.00,0.0292
660.00,0.0291
659.00,0.0291
658.00,0.0290
657.00,0.0287
656.00,0.0283
655.00,0.0280
654.00,0.0280
653.00,0.0283
652.00,0.0290
651.00,0.0300
650.00,0.0310
649.00,0.0317
648.00,0.0317
647.00,0.0311
646.00,0.0299
645.00,0.0285
644.00,0.0270
643.00,0.0256
642.00,0.0245
641.00,0.0237
640.00,0.0232
639.00,0.0229
638.00,0.0228
637.00,0.0228
636.00,0.0229
635.00,0.0231
634.00,0.0234
633.00,0.0238
632.00,0.0243
631.00,0.0249
630.00,0.0255
629.00,0.0261
628.00,0.0268
627.00,0.0275
626.00,0.0281
625.00,0.0286
624.00,0.0289
623.00,0.0289
622.00,0.0285
621.00,0.0277
620.00,0.0265
619.00,0.0251
618.00,0.0237
617.00,0.0229
616.00,0.0229
615.00,0.0239
614.00,0.0260
613.00,0.0288
612.00,0.0316
611.00,0.0336
610.00,0.0341
609.00,0.0334
608.00,0.0323
607.00,0.0316
606.00,0.0316
605.00,0.0322
604.00,0.0330
603.00,0.0338
602.00,0.0347
601.00,0.0358
600.00,0.0370
599.00,0.0382
598.00,0.0387
597.00,0.0386
596.00,0.0383
595.00,0.0381
594.00,0.0385
593.00,0.0396
592.00,0.0413
591.00,0.0435
590.00,0.0460
589.00,0.0486
588.00,0.0509
587.00,0.0523
586.00,0.0525
585.00,0.0517
584.00,0.0501
583.00,0.0480
582.00,0.0457
581.00,0.0434
580.00,0.0413
579.00,0.0396
578.00,0.0384
577.00,0.0378
576.00,0.0376
575.00,0.0377
574.00,0.0382
573.00,0.0387
572.00,0.0394
571.00,0.0400
570.00,0.0407
569.00,0.0414
568.00,0.0419
567.00,0.0424
566.00,0.0427
565.00,0.0429
564.00,0.0430
563.00,0.0431
562.00,0.0431
561.00,0.0431
560.00,0.0432
559.00,0.0431
558.00,0.0430
557.00,0.0429
556.00,0.0428
555.00,0.0429
554.00,0.0433
553.00,0.0441
552.00,0.0454
551.00,0.0468
550.00,0.0482
549.00,0.0492
548.00,0.0502
547.00,0.0514
546.00,0.0529
545.00,0.0545
544.00,0.0557
543.00,0.0564
542.00,0.0568
541.00,0.0578
540.00,0.0596
539.00,0.0625
538.00,0.0660
537.00,0.0693
536.00,0.0716
535.00,0.0725
534.00,0.0719
533.00,0.0705
532.00,0.0688
531.00,0.0673
530.00,0.0660
529.00,0.0656
528.00,0.0664
527.00,0.0688
526.00,0.0726
525.00,0.0773
524.00,0.0822
523.00,0.0866
522.00,0.0890
521.00,0.0882
520.00,0.0838
519.00,0.0769
518.00,0.0697
517.00,0.0637
516.00,0.0594
515.00,0.0565
514.00,0.0549
513.00,0.0541
512.00,0.0540
511.00,0.0546
510.00,0.0557
509.00,0.0574
508.00,0.0597
507.00,0.0624
506.00,0.0653
505.00,0.0685
504.00,0.0719
503.00,0.0755
502.00,0.0794
501.00,0.0833
500.00,0.0869
499.00,0.0901
498.00,0.0927
497.00,0.0947
496.00,0.0963
495.00,0.0972
494.00,0.0976
493.00,0.0975
492.00,0.0970
491.00,0.0963
490.00,0.0956
489.00,0.0948
488.00,0.0943
487.00,0.0938
486.00,0.0933
485.00,0.0929
484.00,0.0924
483.00,0.0914
482.00,0.0897
481.00,0.0874
480.00,0.0850
479.00,0.0826
478.00,0.0806
477.00,0.0792
476.00,0.0784
475.00,0.0781
474.00,0.0783
473.00,0.0790
472.00,0.0802
471.00,0.0816
470.00,0.0830
469.00,0.0846
468.00,0.0863
467.00,0.0876
466.00,0.0884
465.00,0.0887
464.00,0.0887
463.00,0.0885
462.00,0.0879
461.00,0.0871
460.00,0.0863
459.00,0.0857
458.00,0.0851
457.00,0.0849
456.00,0.0850
455.00,0.0851
454.00,0.0851
453.00,0.0849
452.00,0.0844
451.00,0.0832
450.00,0.0815
449.00,0.0797
448.00,0.0783
447.00,0.0771
446.00,0.0759
445.00,0.0745
444.00,0.0730
443.00,0.0715
442.00,0.0701
441.00,0.0692
440.00,0.0690
439.00,0.0690
438.00,0.0689
437.00,0.0685
436.00,0.0678
435.00,0.0673
434.00,0.0671
433.00,0.0673
432.00,0.0677
431.00,0.0683
430.00,0.0695
429.00,0.0719
428.00,0.0756
427.00,0.0800
426.00,0.0840
425.00,0.0869
424.00,0.0884
423.00,0.0884
422.00,0.0874
421.00,0.0860
420.00,0.0846
419.00,0.0832
418.00,0.0819
417.00,0.0812
416.00,0.0810
415.00,0.0810
414.00,0.0812
413.00,0.0819
412.00,0.0835
411.00,0.0853
410.00,0.0869
409.00,0.0884
408.00,0.0904
407.00,0.0929
406.00,0.0957
405.00,0.0987
404.00,0.1015
403.00,0.1034
402.00,0.1041
401.00,0.1043
400.00,0.1054
