Created as New Dataset,Sample 063 By YargerLab Date Wednesday, August 13 2025
cm-1,A
4000.00,0.0034
3999.00,0.0034
3998.00,0.0034
3997.00,0.0034
3996.00,0.0034
3995.00,0.0034
3994.00,0.0034
3993.00,0.0034
3992.00,0.0034
3991.00,0.0034
3990.00,0.0034
3989.00,0.0034
3988.00,0.0034
3987.00,0.0034
3986.00,0.0034
3985.00,0.0034
3984.00,0.0034
3983.00,0.0033
3982.00,0.0033
3981.00,0.0033
3980.00,0.0033
3979.00,0.0033
3978.00,0.0034
3977.00,0.0034
3976.00,0.0034
3975.00,0.0034
3974.00,0.0033
3973.00,0.0033
3972.00,0.0033
3971.00,0.0033
3970.00,0.0033
3969.00,0.0033
3968.00,0.0033
3967.00,0.0034
3966.00,0.0034
3965.00,0.0034
3964.00,0.0034
3963.00,0.0034
3962.00,0.0034
3961.00,0.0033
3960.00,0.0033
3959.00,0.0033
3958.00,0.0033
3957.00,0.0033
3956.00,0.0033
3955.00,0.0033
3954.00,0.0033
3953.00,0.0033
3952.00,0.0033
3951.00,0.0033
3950.00,0.0033
3949.00,0.0033
3948.00,0.0033
3947.00,0.0033
3946.00,0.0033
3945.00,0.0033
3944.00,0.0033
3943.00,0.0033
3942.00,0.0033
3941.00,0.0032
3940.00,0.0032
3939.00,0.0032
3938.00,0.0032
3937.00,0.0032
3936.00,0.0033
3935.00,0.0033
3934.00,0.0033
3933.00,0.0033
3932.00,0.0033
3931.00,0.0033
3930.00,0.0033
3929.00,0.0033
3928.00,0.0033
3927.00,0.0033
3926.00,0.0033
3925.00,0.0033
3924.00,0.0034
3923.00,0.0033
3922.00,0.0033
3921.00,0.0033
3920.00,0.0033
3919.00,0.0033
3918.00,0.0032
3917.00,0.0032
3916.00,0.0032
3915.00,0.0032
3914.00,0.0032
3913.00,0.0032
3912.00,0.0032
3911.00,0.0032
3910.00,0.0032
3909.00,0.0032
3908.00,0.0032
3907.00,0.0032
3906.00,0.0032
3905.00,0.0032
3904.00,0.0031
3903.00,0.0031
3902.00,0.0031
3901.00,0.0031
3900.00,0.0031
3899.00,0.0031
3898.00,0.0031
3897.00,0.0032
3896.00,0.0032
3895.00,0.0032
3894.00,0.0032
3893.00,0.0032
3892.00,0.0032
3891.00,0.0032
3890.00,0.0032
3889.00,0.0032
3888.00,0.0032
3887.00,0.0032
3886.00,0.0032
3885.00,0.0032
3884.00,0.0031
3883.00,0.0031
3882.00,0.0031
3881.00,0.0031
3880.00,0.0031
3879.00,0.0031
3878.00,0.0031
3877.00,0.0031
3876.00,0.0031
3875.00,0.0031
3874.00,0.0031
3873.00,0.0031
3872.00,0.0031
3871.00,0.0031
3870.00,0.0031
3869.00,0.0030
3868.00,0.0030
3867.00,0.0030
3866.00,0.0030
3865.00,0.0031
3864.00,0.0031
3863.00,0.0031
3862.00,0.0031
3861.00,0.0031
3860.00,0.0031
3859.00,0.0031
3858.00,0.0031
3857.00,0.0030
3856.00,0.0030
3855.00,0.0029
3854.00,0.0029
3853.00,0.0028
3852.00,0.0028
3851.00,0.0029
3850.00,0.0030
3849.00,0.0031
3848.00,0.0031
3847.00,0.0032
3846.00,0.0032
3845.00,0.0032
3844.00,0.0032
3843.00,0.0032
3842.00,0.0031
3841.00,0.0031
3840.00,0.0030
3839.00,0.0030
3838.00,0.0030
3837.00,0.0030
3836.00,0.0030
3835.00,0.0030
3834.00,0.0030
3833.00,0.0031
3832.00,0.0031
3831.00,0.0031
3830.00,0.0031
3829.00,0.0031
3828.00,0.0031
3827.00,0.0031
3826.00,0.0032
3825.00,0.0031
3824.00,0.0031
3823.00,0.0031
3822.00,0.0031
3821.00,0.0031
3820.00,0.0031
3819.00,0.0030
3818.00,0.0030
3817.00,0.0030
3816.00,0.0030
3815.00,0.0030
3814.00,0.0031
3813.00,0.0031
3812.00,0.0031
3811.00,0.0031
3810.00,0.0032
3809.00,0.0032
3808.00,0.0032
3807.00,0.0031
3806.00,0.0031
3805.00,0.0031
3804.00,0.0030
3803.00,0.0030
3802.00,0.0030
3801.00,0.0030
3800.00,0.0030
3799.00,0.0030
3798.00,0.0030
3797.00,0.0030
3796.00,0.0031
3795.00,0.0031
3794.00,0.0032
3793.00,0.0032
3792.00,0.0032
3791.00,0.0032
3790.00,0.0032
3789.00,0.0032
3788.00,0.0032
3787.00,0.0033
3786.00,0.0033
3785.00,0.0033
3784.00,0.0033
3783.00,0.0033
3782.00,0.0033
3781.00,0.0033
3780.00,0.0033
3779.00,0.0033
3778.00,0.0032
3777.00,0.0032
3776.00,0.0032
3775.00,0.0032
3774.00,0.0033
3773.00,0.0033
3772.00,0.0033
3771.00,0.0032
3770.00,0.0032
3769.00,0.0031
3768.00,0.0031
3767.00,0.0031
3766.00,0.0032
3765.00,0.0032
3764.00,0.0032
3763.00,0.0032
3762.00,0.0032
3761.00,0.0032
3760.00,0.0032
3759.00,0.0032
3758.00,0.0032
3757.00,0.0032
3756.00,0.0031
3755.00,0.0031
3754.00,0.0031
3753.00,0.0031
3752.00,0.0031
3751.00,0.0030
3750.00,0.0030
3749.00,0.0030
3748.00,0.0030
3747.00,0.0030
3746.00,0.0030
3745.00,0.0030
3744.00,0.0030
3743.00,0.0030
3742.00,0.0031
3741.00,0.0031
3740.00,0.0031
3739.00,0.0031
3738.00,0.0031
3737.00,0.0032
3736.00,0.0032
3735.00,0.0031
3734.00,0.0031
3733.00,0.0030
3732.00,0.0030
3731.00,0.0031
3730.00,0.0031
3729.00,0.0032
3728.00,0.0032
3727.00,0.0033
3726.00,0.0033
3725.00,0.0033
3724.00,0.0033
3723.00,0.0033
3722.00,0.0033
3721.00,0.0033
3720.00,0.0033
3719.00,0.0033
3718.00,0.0033
3717.00,0.0033
3716.00,0.0033
3715.00,0.0033
3714.00,0.0032
3713.00,0.0032
3712.00,0.0032
3711.00,0.0032
3710.00,0.0032
3709.00,0.0032
3708.00,0.0032
3707.00,0.0032
3706.00,0.0032
3705.00,0.0032
3704.00,0.0032
3703.00,0.0033
3702.00,0.0033
3701.00,0.0033
3700.00,0.0034
3699.00,0.0034
3698.00,0.0034
3697.00,0.0034
3696.00,0.0035
3695.00,0.0035
3694.00,0.0035
3693.00,0.0035
3692.00,0.0035
3691.00,0.0035
3690.00,0.0036
3689.00,0.0036
3688.00,0.0037
3687.00,0.0038
3686.00,0.0039
3685.00,0.0041
3684.00,0.0042
3683.00,0.0043
3682.00,0.0044
3681.00,0.0044
3680.00,0.0044
3679.00,0.0044
3678.00,0.0044
3677.00,0.0044
3676.00,0.0044
3675.00,0.0045
3674.00,0.0045
3673.00,0.0046
3672.00,0.0046
3671.00,0.0047
3670.00,0.0048
3669.00,0.0049
3668.00,0.0050
3667.00,0.0051
3666.00,0.0052
3665.00,0.0053
3664.00,0.0054
3663.00,0.0055
3662.00,0.0056
3661.00,0.0056
3660.00,0.0056
3659.00,0.0057
3658.00,0.0057
3657.00,0.0058
3656.00,0.0059
3655.00,0.0059
3654.00,0.0060
3653.00,0.0061
3652.00,0.0061
3651.00,0.0062
3650.00,0.0064
3649.00,0.0065
3648.00,0.0066
3647.00,0.0068
3646.00,0.0069
3645.00,0.0070
3644.00,0.0072
3643.00,0.0073
3642.00,0.0075
3641.00,0.0076
3640.00,0.0077
3639.00,0.0079
3638.00,0.0080
3637.00,0.0081
3636.00,0.0082
3635.00,0.0083
3634.00,0.0084
3633.00,0.0085
3632.00,0.0085
3631.00,0.0086
3630.00,0.0087
3629.00,0.0090
3628.00,0.0092
3627.00,0.0093
3626.00,0.0095
3625.00,0.0096
3624.00,0.0097
3623.00,0.0098
3622.00,0.0100
3621.00,0.0101
3620.00,0.0102
3619.00,0.0104
3618.00,0.0106
3617.00,0.0107
3616.00,0.0108
3615.00,0.0110
3614.00,0.0112
3613.00,0.0114
3612.00,0.0115
3611.00,0.0117
3610.00,0.0119
3609.00,0.0121
3608.00,0.0122
3607.00,0.0124
3606.00,0.0126
3605.00,0.0127
3604.00,0.0129
3603.00,0.0131
3602.00,0.0133
3601.00,0.0135
3600.00,0.0137
3599.00,0.0139
3598.00,0.0140
3597.00,0.0142
3596.00,0.0145
3595.00,0.0147
3594.00,0.0149
3593.00,0.0151
3592.00,0.0153
3591.00,0.0155
3590.00,0.0156
3589.00,0.0159
3588.00,0.0161
3587.00,0.0164
3586.00,0.0167
3585.00,0.0169
3584.00,0.0171
3583.00,0.0172
3582.00,0.0174
3581.00,0.0177
3580.00,0.0179
3579.00,0.0181
3578.00,0.0184
3577.00,0.0186
3576.00,0.0188
3575.00,0.0191
3574.00,0.0193
3573.00,0.0195
3572.00,0.0197
3571.00,0.0199
3570.00,0.0201
3569.00,0.0204
3568.00,0.0207
3567.00,0.0210
3566.00,0.0213
3565.00,0.0215
3564.00,0.0217
3563.00,0.0220
3562.00,0.0222
3561.00,0.0224
3560.00,0.0226
3559.00,0.0228
3558.00,0.0230
3557.00,0.0232
3556.00,0.0234
3555.00,0.0236
3554.00,0.0239
3553.00,0.0241
3552.00,0.0244
3551.00,0.0246
3550.00,0.0248
3549.00,0.0250
3548.00,0.0252
3547.00,0.0255
3546.00,0.0257
3545.00,0.0260
3544.00,0.0262
3543.00,0.0264
3542.00,0.0266
3541.00,0.0267
3540.00,0.0269
3539.00,0.0271
3538.00,0.0273
3537.00,0.0275
3536.00,0.0277
3535.00,0.0279
3534.00,0.0281
3533.00,0.0282
3532.00,0.0284
3531.00,0.0286
3530.00,0.0287
3529.00,0.0289
3528.00,0.0292
3527.00,0.0294
3526.00,0.0295
3525.00,0.0297
3524.00,0.0299
3523.00,0.0300
3522.00,0.0302
3521.00,0.0303
3520.00,0.0305
3519.00,0.0307
3518.00,0.0308
3517.00,0.0310
3516.00,0.0311
3515.00,0.0313
3514.00,0.0314
3513.00,0.0315
3512.00,0.0317
3511.00,0.0318
3510.00,0.0320
3509.00,0.0321
3508.00,0.0323
3507.00,0.0324
3506.00,0.0325
3505.00,0.0327
3504.00,0.0328
3503.00,0.0329
3502.00,0.0331
3501.00,0.0332
3500.00,0.0334
3499.00,0.0335
3498.00,0.0336
3497.00,0.0338
3496.00,0.0339
3495.00,0.0340
3494.00,0.0341
3493.00,0.0343
3492.00,0.0344
3491.00,0.0345
3490.00,0.0346
3489.00,0.0348
3488.00,0.0349
3487.00,0.0350
3486.00,0.0351
3485.00,0.0351
3484.00,0.0352
3483.00,0.0354
3482.00,0.0355
3481.00,0.0356
3480.00,0.0357
3479.00,0.0358
3478.00,0.0359
3477.00,0.0360
3476.00,0.0361
3475.00,0.0361
3474.00,0.0362
3473.00,0.0363
3472.00,0.0365
3471.00,0.0366
3470.00,0.0367
3469.00,0.0369
3468.00,0.0369
3467.00,0.0370
3466.00,0.0370
3465.00,0.0371
3464.00,0.0372
3463.00,0.0373
3462.00,0.0374
3461.00,0.0375
3460.00,0.0375
3459.00,0.0376
3458.00,0.0376
3457.00,0.0377
3456.00,0.0377
3455.00,0.0378
3454.00,0.0379
3453.00,0.0380
3452.00,0.0380
3451.00,0.0381
3450.00,0.0382
3449.00,0.0382
3448.00,0.0383
3447.00,0.0384
3446.00,0.0385
3445.00,0.0385
3444.00,0.0386
3443.00,0.0386
3442.00,0.0387
3441.00,0.0387
3440.00,0.0388
3439.00,0.0388
3438.00,0.0389
3437.00,0.0390
3436.00,0.0390
3435.00,0.0391
3434.00,0.0391
3433.00,0.0391
3432.00,0.0391
3431.00,0.0392
3430.00,0.0392
3429.00,0.0392
3428.00,0.0392
3427.00,0.0392
3426.00,0.0393
3425.00,0.0393
3424.00,0.0393
3423.00,0.0393
3422.00,0.0394
3421.00,0.0394
3420.00,0.0394
3419.00,0.0395
3418.00,0.0395
3417.00,0.0395
3416.00,0.0395
3415.00,0.0395
3414.00,0.0396
3413.00,0.0396
3412.00,0.0396
3411.00,0.0396
3410.00,0.0397
3409.00,0.0396
3408.00,0.0396
3407.00,0.0396
3406.00,0.0396
3405.00,0.0396
3404.00,0.0396
3403.00,0.0396
3402.00,0.0395
3401.00,0.0395
3400.00,0.0395
3399.00,0.0395
3398.00,0.0395
3397.00,0.0395
3396.00,0.0394
3395.00,0.0394
3394.00,0.0393
3393.00,0.0393
3392.00,0.0392
3391.00,0.0392
3390.00,0.0392
3389.00,0.0392
3388.00,0.0392
3387.00,0.0392
3386.00,0.0391
3385.00,0.0391
3384.00,0.0390
3383.00,0.0389
3382.00,0.0389
3381.00,0.0388
3380.00,0.0387
3379.00,0.0387
3378.00,0.0386
3377.00,0.0386
3376.00,0.0385
3375.00,0.0385
3374.00,0.0384
3373.00,0.0383
3372.00,0.0382
3371.00,0.0380
3370.00,0.0379
3369.00,0.0378
3368.00,0.0377
3367.00,0.0377
3366.00,0.0377
3365.00,0.0377
3364.00,0.0377
3363.00,0.0376
3362.00,0.0376
3361.00,0.0375
3360.00,0.0375
3359.00,0.0375
3358.00,0.0374
3357.00,0.0374
3356.00,0.0373
3355.00,0.0372
3354.00,0.0371
3353.00,0.0369
3352.00,0.0368
3351.00,0.0367
3350.00,0.0367
3349.00,0.0367
3348.00,0.0367
3347.00,0.0367
3346.00,0.0366
3345.00,0.0365
3344.00,0.0364
3343.00,0.0363
3342.00,0.0362
3341.00,0.0361
3340.00,0.0360
3339.00,0.0359
3338.00,0.0359
3337.00,0.0359
3336.00,0.0360
3335.00,0.0361
3334.00,0.0361
3333.00,0.0361
3332.00,0.0361
3331.00,0.0360
3330.00,0.0360
3329.00,0.0358
3328.00,0.0357
3327.00,0.0356
3326.00,0.0355
3325.00,0.0355
3324.00,0.0356
3323.00,0.0356
3322.00,0.0357
3321.00,0.0357
3320.00,0.0357
3319.00,0.0357
3318.00,0.0357
3317.00,0.0357
3316.00,0.0356
3315.00,0.0356
3314.00,0.0356
3313.00,0.0355
3312.00,0.0353
3311.00,0.0351
3310.00,0.0349
3309.00,0.0347
3308.00,0.0346
3307.00,0.0345
3306.00,0.0345
3305.00,0.0346
3304.00,0.0348
3303.00,0.0350
3302.00,0.0352
3301.00,0.0353
3300.00,0.0353
3299.00,0.0352
3298.00,0.0351
3297.00,0.0349
3296.00,0.0349
3295.00,0.0348
3294.00,0.0348
3293.00,0.0349
3292.00,0.0349
3291.00,0.0351
3290.00,0.0352
3289.00,0.0352
3288.00,0.0353
3287.00,0.0352
3286.00,0.0352
3285.00,0.0352
3284.00,0.0352
3283.00,0.0352
3282.00,0.0351
3281.00,0.0351
3280.00,0.0350
3279.00,0.0350
3278.00,0.0348
3277.00,0.0347
3276.00,0.0346
3275.00,0.0345
3274.00,0.0343
3273.00,0.0342
3272.00,0.0341
3271.00,0.0340
3270.00,0.0341
3269.00,0.0341
3268.00,0.0342
3267.00,0.0342
3266.00,0.0343
3265.00,0.0342
3264.00,0.0342
3263.00,0.0341
3262.00,0.0340
3261.00,0.0339
3260.00,0.0338
3259.00,0.0337
3258.00,0.0336
3257.00,0.0335
3256.00,0.0335
3255.00,0.0334
3254.00,0.0334
3253.00,0.0333
3252.00,0.0333
3251.00,0.0332
3250.00,0.0331
3249.00,0.0329
3248.00,0.0328
3247.00,0.0327
3246.00,0.0327
3245.00,0.0327
3244.00,0.0326
3243.00,0.0326
3242.00,0.0325
3241.00,0.0324
3240.00,0.0324
3239.00,0.0323
3238.00,0.0322
3237.00,0.0320
3236.00,0.0319
3235.00,0.0318
3234.00,0.0316
3233.00,0.0316
3232.00,0.0315
3231.00,0.0315
3230.00,0.0315
3229.00,0.0314
3228.00,0.0313
3227.00,0.0312
3226.00,0.0311
3225.00,0.0310
3224.00,0.0309
3223.00,0.0308
3222.00,0.0307
3221.00,0.0307
3220.00,0.0306
3219.00,0.0305
3218.00,0.0304
3217.00,0.0302
3216.00,0.0301
3215.00,0.0300
3214.00,0.0299
3213.00,0.0298
3212.00,0.0297
3211.00,0.0296
3210.00,0.0295
3209.00,0.0294
3208.00,0.0293
3207.00,0.0292
3206.00,0.0290
3205.00,0.0289
3204.00,0.0288
3203.00,0.0286
3202.00,0.0285
3201.00,0.0284
3200.00,0.0283
3199.00,0.0282
3198.00,0.0281
3197.00,0.0281
3196.00,0.0280
3195.00,0.0279
3194.00,0.0278
3193.00,0.0277
3192.00,0.0276
3191.00,0.0275
3190.00,0.0274
3189.00,0.0273
3188.00,0.0272
3187.00,0.0271
3186.00,0.0270
3185.00,0.0270
3184.00,0.0269
3183.00,0.0268
3182.00,0.0267
3181.00,0.0266
3180.00,0.0265
3179.00,0.0264
3178.00,0.0263
3177.00,0.0262
3176.00,0.0261
3175.00,0.0261
3174.00,0.0260
3173.00,0.0259
3172.00,0.0259
3171.00,0.0258
3170.00,0.0257
3169.00,0.0256
3168.00,0.0255
3167.00,0.0254
3166.00,0.0253
3165.00,0.0252
3164.00,0.0251
3163.00,0.0250
3162.00,0.0249
3161.00,0.0248
3160.00,0.0247
3159.00,0.0246
3158.00,0.0245
3157.00,0.0244
3156.00,0.0243
3155.00,0.0242
3154.00,0.0241
3153.00,0.0240
3152.00,0.0240
3151.00,0.0239
3150.00,0.0238
3149.00,0.0238
3148.00,0.0237
3147.00,0.0236
3146.00,0.0235
3145.00,0.0235
3144.00,0.0234
3143.00,0.0233
3142.00,0.0232
3141.00,0.0231
3140.00,0.0230
3139.00,0.0230
3138.00,0.0229
3137.00,0.0228
3136.00,0.0227
3135.00,0.0227
3134.00,0.0226
3133.00,0.0225
3132.00,0.0224
3131.00,0.0223
3130.00,0.0223
3129.00,0.0222
3128.00,0.0222
3127.00,0.0222
3126.00,0.0221
3125.00,0.0220
3124.00,0.0220
3123.00,0.0219
3122.00,0.0219
3121.00,0.0218
3120.00,0.0217
3119.00,0.0217
3118.00,0.0216
3117.00,0.0216
3116.00,0.0215
3115.00,0.0214
3114.00,0.0213
3113.00,0.0213
3112.00,0.0212
3111.00,0.0211
3110.00,0.0210
3109.00,0.0210
3108.00,0.0209
3107.00,0.0208
3106.00,0.0207
3105.00,0.0206
3104.00,0.0206
3103.00,0.0205
3102.00,0.0204
3101.00,0.0204
3100.00,0.0203
3099.00,0.0202
3098.00,0.0202
3097.00,0.0201
3096.00,0.0201
3095.00,0.0201
3094.00,0.0200
3093.00,0.0200
3092.00,0.0200
3091.00,0.0199
3090.00,0.0199
3089.00,0.0199
3088.00,0.0198
3087.00,0.0198
3086.00,0.0198
3085.00,0.0197
3084.00,0.0197
3083.00,0.0197
3082.00,0.0197
3081.00,0.0196
3080.00,0.0196
3079.00,0.0196
3078.00,0.0195
3077.00,0.0195
3076.00,0.0195
3075.00,0.0194
3074.00,0.0194
3073.00,0.0193
3072.00,0.0193
3071.00,0.0192
3070.00,0.0191
3069.00,0.0191
3068.00,0.0190
3067.00,0.0189
3066.00,0.0188
3065.00,0.0187
3064.00,0.0187
3063.00,0.0186
3062.00,0.0185
3061.00,0.0185
3060.00,0.0184
3059.00,0.0183
3058.00,0.0183
3057.00,0.0182
3056.00,0.0181
3055.00,0.0181
3054.00,0.0180
3053.00,0.0180
3052.00,0.0180
3051.00,0.0179
3050.00,0.0179
3049.00,0.0178
3048.00,0.0178
3047.00,0.0178
3046.00,0.0177
3045.00,0.0177
3044.00,0.0176
3043.00,0.0176
3042.00,0.0175
3041.00,0.0175
3040.00,0.0174
3039.00,0.0174
3038.00,0.0174
3037.00,0.0173
3036.00,0.0173
3035.00,0.0172
3034.00,0.0172
3033.00,0.0172
3032.00,0.0171
3031.00,0.0171
3030.00,0.0171
3029.00,0.0170
3028.00,0.0170
3027.00,0.0170
3026.00,0.0169
3025.00,0.0169
3024.00,0.0169
3023.00,0.0168
3022.00,0.0168
3021.00,0.0168
3020.00,0.0168
3019.00,0.0168
3018.00,0.0169
3017.00,0.0169
3016.00,0.0169
3015.00,0.0170
3014.00,0.0171
3013.00,0.0172
3012.00,0.0173
3011.00,0.0175
3010.00,0.0177
3009.00,0.0179
3008.00,0.0182
3007.00,0.0185
3006.00,0.0188
3005.00,0.0192
3004.00,0.0196
3003.00,0.0200
3002.00,0.0204
3001.00,0.0209
3000.00,0.0215
2999.00,0.0221
2998.00,0.0227
2997.00,0.0234
2996.00,0.0241
2995.00,0.0249
2994.00,0.0257
2993.00,0.0265
2992.00,0.0273
2991.00,0.0281
2990.00,0.0289
2989.00,0.0298
2988.00,0.0306
2987.00,0.0314
2986.00,0.0320
2985.00,0.0326
2984.00,0.0332
2983.00,0.0337
2982.00,0.0342
2981.00,0.0347
2980.00,0.0352
2979.00,0.0357
2978.00,0.0361
2977.00,0.0365
2976.00,0.0368
2975.00,0.0371
2974.00,0.0374
2973.00,0.0377
2972.00,0.0380
2971.00,0.0384
2970.00,0.0388
2969.00,0.0393
2968.00,0.0398
2967.00,0.0403
2966.00,0.0408
2965.00,0.0413
2964.00,0.0419
2963.00,0.0425
2962.00,0.0431
2961.00,0.0436
2960.00,0.0442
2959.00,0.0447
2958.00,0.0451
2957.00,0.0455
2956.00,0.0459
2955.00,0.0461
2954.00,0.0463
2953.00,0.0464
2952.00,0.0464
2951.00,0.0464
2950.00,0.0462
2949.00,0.0460
2948.00,0.0457
2947.00,0.0454
2946.00,0.0452
2945.00,0.0449
2944.00,0.0447
2943.00,0.0445
2942.00,0.0443
2941.00,0.0442
2940.00,0.0441
2939.00,0.0441
2938.00,0.0441
2937.00,0.0442
2936.00,0.0443
2935.00,0.0444
2934.00,0.0446
2933.00,0.0447
2932.00,0.0448
2931.00,0.0449
2930.00,0.0450
2929.00,0.0451
2928.00,0.0452
2927.00,0.0452
2926.00,0.0451
2925.00,0.0450
2924.00,0.0448
2923.00,0.0446
2922.00,0.0444
2921.00,0.0441
2920.00,0.0437
2919.00,0.0433
2918.00,0.0429
2917.00,0.0424
2916.00,0.0419
2915.00,0.0414
2914.00,0.0408
2913.00,0.0403
2912.00,0.0397
2911.00,0.0392
2910.00,0.0386
2909.00,0.0380
2908.00,0.0375
2907.00,0.0371
2906.00,0.0367
2905.00,0.0363
2904.00,0.0361
2903.00,0.0359
2902.00,0.0357
2901.00,0.0356
2900.00,0.0355
2899.00,0.0355
2898.00,0.0354
2897.00,0.0355
2896.00,0.0355
2895.00,0.0355
2894.00,0.0356
2893.00,0.0356
2892.00,0.0357
2891.00,0.0356
2890.00,0.0356
2889.00,0.0355
2888.00,0.0355
2887.00,0.0354
2886.00,0.0354
2885.00,0.0354
2884.00,0.0354
2883.00,0.0354
2882.00,0.0354
2881.00,0.0354
2880.00,0.0355
2879.00,0.0355
2878.00,0.0356
2877.00,0.0357
2876.00,0.0357
2875.00,0.0358
2874.00,0.0358
2873.00,0.0359
2872.00,0.0360
2871.00,0.0360
2870.00,0.0360
2869.00,0.0359
2868.00,0.0357
2867.00,0.0355
2866.00,0.0353
2865.00,0.0351
2864.00,0.0349
2863.00,0.0348
2862.00,0.0346
2861.00,0.0344
2860.00,0.0341
2859.00,0.0338
2858.00,0.0334
2857.00,0.0328
2856.00,0.0322
2855.00,0.0314
2854.00,0.0306
2853.00,0.0297
2852.00,0.0289
2851.00,0.0281
2850.00,0.0273
2849.00,0.0266
2848.00,0.0259
2847.00,0.0253
2846.00,0.0247
2845.00,0.0242
2844.00,0.0236
2843.00,0.0230
2842.00,0.0224
2841.00,0.0218
2840.00,0.0212
2839.00,0.0207
2838.00,0.0203
2837.00,0.0200
2836.00,0.0197
2835.00,0.0193
2834.00,0.0190
2833.00,0.0187
2832.00,0.0185
2831.00,0.0182
2830.00,0.0179
2829.00,0.0176
2828.00,0.0173
2827.00,0.0170
2826.00,0.0168
2825.00,0.0165
2824.00,0.0162
2823.00,0.0160
2822.00,0.0157
2821.00,0.0155
2820.00,0.0153
2819.00,0.0151
2818.00,0.0149
2817.00,0.0146
2816.00,0.0144
2815.00,0.0142
2814.00,0.0140
2813.00,0.0139
2812.00,0.0137
2811.00,0.0135
2810.00,0.0134
2809.00,0.0133
2808.00,0.0132
2807.00,0.0131
2806.00,0.0129
2805.00,0.0128
2804.00,0.0127
2803.00,0.0126
2802.00,0.0125
2801.00,0.0124
2800.00,0.0122
2799.00,0.0121
2798.00,0.0120
2797.00,0.0119
2796.00,0.0118
2795.00,0.0118
2794.00,0.0117
2793.00,0.0116
2792.00,0.0116
2791.00,0.0115
2790.00,0.0114
2789.00,0.0114
2788.00,0.0113
2787.00,0.0113
2786.00,0.0112
2785.00,0.0111
2784.00,0.0111
2783.00,0.0110
2782.00,0.0110
2781.00,0.0109
2780.00,0.0109
2779.00,0.0108
2778.00,0.0108
2777.00,0.0107
2776.00,0.0107
2775.00,0.0106
2774.00,0.0105
2773.00,0.0105
2772.00,0.0105
2771.00,0.0104
2770.00,0.0104
2769.00,0.0104
2768.00,0.0103
2767.00,0.0103
2766.00,0.0103
2765.00,0.0103
2764.00,0.0103
2763.00,0.0102
2762.00,0.0102
2761.00,0.0102
2760.00,0.0102
2759.00,0.0102
2758.00,0.0103
2757.00,0.0103
2756.00,0.0103
2755.00,0.0103
2754.00,0.0102
2753.00,0.0103
2752.00,0.0103
2751.00,0.0103
2750.00,0.0103
2749.00,0.0103
2748.00,0.0103
2747.00,0.0103
2746.00,0.0103
2745.00,0.0103
2744.00,0.0104
2743.00,0.0104
2742.00,0.0104
2741.00,0.0104
2740.00,0.0104
2739.00,0.0104
2738.00,0.0104
2737.00,0.0104
2736.00,0.0104
2735.00,0.0104
2734.00,0.0104
2733.00,0.0104
2732.00,0.0104
2731.00,0.0104
2730.00,0.0103
2729.00,0.0103
2728.00,0.0102
2727.00,0.0102
2726.00,0.0101
2725.00,0.0101
2724.00,0.0101
2723.00,0.0100
2722.00,0.0100
2721.00,0.0100
2720.00,0.0100
2719.00,0.0099
2718.00,0.0099
2717.00,0.0099
2716.00,0.0099
2715.00,0.0098
2714.00,0.0098
2713.00,0.0098
2712.00,0.0098
2711.00,0.0098
2710.00,0.0097
2709.00,0.0097
2708.00,0.0096
2707.00,0.0096
2706.00,0.0096
2705.00,0.0095
2704.00,0.0095
2703.00,0.0095
2702.00,0.0094
2701.00,0.0094
2700.00,0.0094
2699.00,0.0093
2698.00,0.0093
2697.00,0.0093
2696.00,0.0092
2695.00,0.0092
2694.00,0.0092
2693.00,0.0091
2692.00,0.0091
2691.00,0.0090
2690.00,0.0090
2689.00,0.0090
2688.00,0.0090
2687.00,0.0089
2686.00,0.0089
2685.00,0.0089
2684.00,0.0089
2683.00,0.0088
2682.00,0.0088
2681.00,0.0088
2680.00,0.0088
2679.00,0.0088
2678.00,0.0088
2677.00,0.0087
2676.00,0.0087
2675.00,0.0087
2674.00,0.0087
2673.00,0.0087
2672.00,0.0087
2671.00,0.0087
2670.00,0.0086
2669.00,0.0086
2668.00,0.0087
2667.00,0.0087
2666.00,0.0087
2665.00,0.0087
2664.00,0.0087
2663.00,0.0087
2662.00,0.0087
2661.00,0.0087
2660.00,0.0087
2659.00,0.0087
2658.00,0.0087
2657.00,0.0087
2656.00,0.0086
2655.00,0.0086
2654.00,0.0086
2653.00,0.0086
2652.00,0.0086
2651.00,0.0085
2650.00,0.0085
2649.00,0.0085
2648.00,0.0085
2647.00,0.0085
2646.00,0.0085
2645.00,0.0085
2644.00,0.0084
2643.00,0.0084
2642.00,0.0084
2641.00,0.0083
2640.00,0.0083
2639.00,0.0083
2638.00,0.0083
2637.00,0.0082
2636.00,0.0082
2635.00,0.0082
2634.00,0.0081
2633.00,0.0081
2632.00,0.0081
2631.00,0.0081
2630.00,0.0081
2629.00,0.0081
2628.00,0.0080
2627.00,0.0080
2626.00,0.0080
2625.00,0.0080
2624.00,0.0080
2623.00,0.0080
2622.00,0.0080
2621.00,0.0080
2620.00,0.0079
2619.00,0.0079
2618.00,0.0078
2617.00,0.0078
2616.00,0.0078
2615.00,0.0078
2614.00,0.0078
2613.00,0.0078
2612.00,0.0078
2611.00,0.0077
2610.00,0.0077
2609.00,0.0077
2608.00,0.0077
2607.00,0.0077
2606.00,0.0076
2605.00,0.0076
2604.00,0.0076
2603.00,0.0076
2602.00,0.0075
2601.00,0.0075
2600.00,0.0075
2599.00,0.0075
2598.00,0.0075
2597.00,0.0075
2596.00,0.0075
2595.00,0.0075
2594.00,0.0075
2593.00,0.0075
2592.00,0.0075
2591.00,0.0075
2590.00,0.0075
2589.00,0.0075
2588.00,0.0075
2587.00,0.0075
2586.00,0.0075
2585.00,0.0075
2584.00,0.0075
2583.00,0.0074
2582.00,0.0074
2581.00,0.0074
2580.00,0.0074
2579.00,0.0074
2578.00,0.0074
2577.00,0.0074
2576.00,0.0074
2575.00,0.0073
2574.00,0.0073
2573.00,0.0073
2572.00,0.0073
2571.00,0.0072
2570.00,0.0072
2569.00,0.0072
2568.00,0.0072
2567.00,0.0072
2566.00,0.0071
2565.00,0.0071
2564.00,0.0070
2563.00,0.0070
2562.00,0.0069
2561.00,0.0069
2560.00,0.0069
2559.00,0.0069
2558.00,0.0069
2557.00,0.0069
2556.00,0.0068
2555.00,0.0068
2554.00,0.0068
2553.00,0.0068
2552.00,0.0068
2551.00,0.0068
2550.00,0.0068
2549.00,0.0067
2548.00,0.0067
2547.00,0.0067
2546.00,0.0067
2545.00,0.0067
2544.00,0.0067
2543.00,0.0067
2542.00,0.0066
2541.00,0.0066
2540.00,0.0066
2539.00,0.0065
2538.00,0.0065
2537.00,0.0065
2536.00,0.0065
2535.00,0.0065
2534.00,0.0064
2533.00,0.0064
2532.00,0.0063
2531.00,0.0063
2530.00,0.0062
2529.00,0.0062
2528.00,0.0062
2527.00,0.0061
2526.00,0.0061
2525.00,0.0061
2524.00,0.0061
2523.00,0.0060
2522.00,0.0060
2521.00,0.0060
2520.00,0.0059
2519.00,0.0059
2518.00,0.0059
2517.00,0.0058
2516.00,0.0058
2515.00,0.0058
2514.00,0.0058
2513.00,0.0058
2512.00,0.0058
2511.00,0.0058
2510.00,0.0057
2509.00,0.0057
2508.00,0.0057
2507.00,0.0057
2506.00,0.0056
2505.00,0.0055
2504.00,0.0055
2503.00,0.0055
2502.00,0.0055
2501.00,0.0055
2500.00,0.0055
2499.00,0.0055
2498.00,0.0055
2497.00,0.0055
2496.00,0.0056
2495.00,0.0055
2494.00,0.0055
2493.00,0.0055
2492.00,0.0055
2491.00,0.0055
2490.00,0.0055
2489.00,0.0055
2488.00,0.0055
2487.00,0.0054
2486.00,0.0054
2485.00,0.0054
2484.00,0.0054
2483.00,0.0054
2482.00,0.0053
2481.00,0.0053
2480.00,0.0053
2479.00,0.0053
2478.00,0.0053
2477.00,0.0053
2476.00,0.0053
2475.00,0.0053
2474.00,0.0053
2473.00,0.0053
2472.00,0.0053
2471.00,0.0053
2470.00,0.0053
2469.00,0.0053
2468.00,0.0053
2467.00,0.0053
2466.00,0.0053
2465.00,0.0053
2464.00,0.0053
2463.00,0.0053
2462.00,0.0053
2461.00,0.0053
2460.00,0.0054
2459.00,0.0054
2458.00,0.0054
2457.00,0.0054
2456.00,0.0054
2455.00,0.0054
2454.00,0.0053
2453.00,0.0053
2452.00,0.0053
2451.00,0.0053
2450.00,0.0052
2449.00,0.0052
2448.00,0.0052
2447.00,0.0052
2446.00,0.0052
2445.00,0.0052
2444.00,0.0052
2443.00,0.0052
2442.00,0.0052
2441.00,0.0052
2440.00,0.0052
2439.00,0.0052
2438.00,0.0052
2437.00,0.0052
2436.00,0.0052
2435.00,0.0052
2434.00,0.0051
2433.00,0.0051
2432.00,0.0051
2431.00,0.0051
2430.00,0.0051
2429.00,0.0051
2428.00,0.0051
2427.00,0.0051
2426.00,0.0051
2425.00,0.0051
2424.00,0.0051
2423.00,0.0051
2422.00,0.0050
2421.00,0.0051
2420.00,0.0051
2419.00,0.0051
2418.00,0.0051
2417.00,0.0051
2416.00,0.0051
2415.00,0.0051
2414.00,0.0051
2413.00,0.0052
2412.00,0.0052
2411.00,0.0052
2410.00,0.0051
2409.00,0.0051
2408.00,0.0050
2407.00,0.0050
2406.00,0.0050
2405.00,0.0051
2404.00,0.0051
2403.00,0.0051
2402.00,0.0051
2401.00,0.0051
2400.00,0.0051
2399.00,0.0051
2398.00,0.0051
2397.00,0.0051
2396.00,0.0051
2395.00,0.0051
2394.00,0.0050
2393.00,0.0050
2392.00,0.0050
2391.00,0.0050
2390.00,0.0050
2389.00,0.0050
2388.00,0.0050
2387.00,0.0050
2386.00,0.0049
2385.00,0.0048
2384.00,0.0048
2383.00,0.0047
2382.00,0.0046
2381.00,0.0046
2380.00,0.0046
2379.00,0.0046
2378.00,0.0046
2377.00,0.0046
2376.00,0.0047
2375.00,0.0047
2374.00,0.0047
2373.00,0.0047
2372.00,0.0046
2371.00,0.0046
2370.00,0.0045
2369.00,0.0045
2368.00,0.0045
2367.00,0.0046
2366.00,0.0046
2365.00,0.0046
2364.00,0.0046
2363.00,0.0047
2362.00,0.0047
2361.00,0.0047
2360.00,0.0048
2359.00,0.0048
2358.00,0.0048
2357.00,0.0048
2356.00,0.0048
2355.00,0.0048
2354.00,0.0048
2353.00,0.0048
2352.00,0.0047
2351.00,0.0047
2350.00,0.0048
2349.00,0.0049
2348.00,0.0050
2347.00,0.0051
2346.00,0.0051
2345.00,0.0051
2344.00,0.0051
2343.00,0.0051
2342.00,0.0051
2341.00,0.0051
2340.00,0.0052
2339.00,0.0052
2338.00,0.0052
2337.00,0.0051
2336.00,0.0051
2335.00,0.0051
2334.00,0.0051
2333.00,0.0051
2332.00,0.0051
2331.00,0.0051
2330.00,0.0052
2329.00,0.0054
2328.00,0.0057
2327.00,0.0060
2326.00,0.0063
2325.00,0.0064
2324.00,0.0063
2323.00,0.0062
2322.00,0.0060
2321.00,0.0058
2320.00,0.0058
2319.00,0.0057
2318.00,0.0057
2317.00,0.0056
2316.00,0.0056
2315.00,0.0056
2314.00,0.0056
2313.00,0.0055
2312.00,0.0055
2311.00,0.0054
2310.00,0.0054
2309.00,0.0054
2308.00,0.0054
2307.00,0.0054
2306.00,0.0054
2305.00,0.0054
2304.00,0.0054
2303.00,0.0054
2302.00,0.0055
2301.00,0.0055
2300.00,0.0055
2299.00,0.0056
2298.00,0.0056
2297.00,0.0057
2296.00,0.0057
2295.00,0.0058
2294.00,0.0058
2293.00,0.0059
2292.00,0.0060
2291.00,0.0060
2290.00,0.0060
2289.00,0.0061
2288.00,0.0061
2287.00,0.0062
2286.00,0.0061
2285.00,0.0061
2284.00,0.0060
2283.00,0.0059
2282.00,0.0058
2281.00,0.0058
2280.00,0.0058
2279.00,0.0058
2278.00,0.0058
2277.00,0.0058
2276.00,0.0058
2275.00,0.0057
2274.00,0.0056
2273.00,0.0056
2272.00,0.0056
2271.00,0.0056
2270.00,0.0057
2269.00,0.0057
2268.00,0.0056
2267.00,0.0056
2266.00,0.0055
2265.00,0.0054
2264.00,0.0054
2263.00,0.0054
2262.00,0.0054
2261.00,0.0053
2260.00,0.0053
2259.00,0.0053
2258.00,0.0053
2257.00,0.0053
2256.00,0.0053
2255.00,0.0053
2254.00,0.0053
2253.00,0.0052
2252.00,0.0052
2251.00,0.0052
2250.00,0.0052
2249.00,0.0052
2248.00,0.0053
2247.00,0.0054
2246.00,0.0055
2245.00,0.0055
2244.00,0.0056
2243.00,0.0056
2242.00,0.0056
2241.00,0.0055
2240.00,0.0055
2239.00,0.0055
2238.00,0.0055
2237.00,0.0055
2236.00,0.0056
2235.00,0.0056
2234.00,0.0055
2233.00,0.0054
2232.00,0.0054
2231.00,0.0055
2230.00,0.0055
2229.00,0.0056
2228.00,0.0056
2227.00,0.0056
2226.00,0.0056
2225.00,0.0056
2224.00,0.0056
2223.00,0.0057
2222.00,0.0057
2221.00,0.0057
2220.00,0.0057
2219.00,0.0057
2218.00,0.0055
2217.00,0.0055
2216.00,0.0055
2215.00,0.0056
2214.00,0.0056
2213.00,0.0056
2212.00,0.0056
2211.00,0.0055
2210.00,0.0055
2209.00,0.0056
2208.00,0.0057
2207.00,0.0058
2206.00,0.0058
2205.00,0.0057
2204.00,0.0057
2203.00,0.0056
2202.00,0.0056
2201.00,0.0056
2200.00,0.0057
2199.00,0.0058
2198.00,0.0057
2197.00,0.0057
2196.00,0.0057
2195.00,0.0058
2194.00,0.0058
2193.00,0.0058
2192.00,0.0059
2191.00,0.0058
2190.00,0.0058
2189.00,0.0058
2188.00,0.0059
2187.00,0.0060
2186.00,0.0059
2185.00,0.0057
2184.00,0.0055
2183.00,0.0053
2182.00,0.0052
2181.00,0.0052
2180.00,0.0054
2179.00,0.0055
2178.00,0.0054
2177.00,0.0052
2176.00,0.0052
2175.00,0.0053
2174.00,0.0055
2173.00,0.0057
2172.00,0.0059
2171.00,0.0062
2170.00,0.0063
2169.00,0.0063
2168.00,0.0064
2167.00,0.0063
2166.00,0.0062
2165.00,0.0063
2164.00,0.0065
2163.00,0.0066
2162.00,0.0062
2161.00,0.0053
2160.00,0.0042
2159.00,0.0031
2158.00,0.0025
2157.00,0.0024
2156.00,0.0026
2155.00,0.0028
2154.00,0.0030
2153.00,0.0032
2152.00,0.0036
2151.00,0.0039
2150.00,0.0041
2149.00,0.0042
2148.00,0.0042
2147.00,0.0042
2146.00,0.0041
2145.00,0.0041
2144.00,0.0042
2143.00,0.0043
2142.00,0.0043
2141.00,0.0044
2140.00,0.0045
2139.00,0.0044
2138.00,0.0043
2137.00,0.0041
2136.00,0.0039
2135.00,0.0036
2134.00,0.0035
2133.00,0.0036
2132.00,0.0038
2131.00,0.0040
2130.00,0.0041
2129.00,0.0043
2128.00,0.0044
2127.00,0.0046
2126.00,0.0046
2125.00,0.0047
2124.00,0.0047
2123.00,0.0048
2122.00,0.0048
2121.00,0.0048
2120.00,0.0050
2119.00,0.0051
2118.00,0.0052
2117.00,0.0053
2116.00,0.0053
2115.00,0.0053
2114.00,0.0053
2113.00,0.0053
2112.00,0.0053
2111.00,0.0053
2110.00,0.0052
2109.00,0.0051
2108.00,0.0051
2107.00,0.0051
2106.00,0.0052
2105.00,0.0052
2104.00,0.0052
2103.00,0.0052
2102.00,0.0051
2101.00,0.0051
2100.00,0.0052
2099.00,0.0052
2098.00,0.0051
2097.00,0.0050
2096.00,0.0049
2095.00,0.0048
2094.00,0.0048
2093.00,0.0048
2092.00,0.0049
2091.00,0.0051
2090.00,0.0051
2089.00,0.0052
2088.00,0.0052
2087.00,0.0052
2086.00,0.0052
2085.00,0.0052
2084.00,0.0053
2083.00,0.0053
2082.00,0.0052
2081.00,0.0052
2080.00,0.0052
2079.00,0.0051
2078.00,0.0050
2077.00,0.0050
2076.00,0.0051
2075.00,0.0051
2074.00,0.0051
2073.00,0.0051
2072.00,0.0051
2071.00,0.0050
2070.00,0.0049
2069.00,0.0050
2068.00,0.0050
2067.00,0.0050
2066.00,0.0049
2065.00,0.0048
2064.00,0.0048
2063.00,0.0048
2062.00,0.0048
2061.00,0.0048
2060.00,0.0048
2059.00,0.0048
2058.00,0.0047
2057.00,0.0046
2056.00,0.0047
2055.00,0.0047
2054.00,0.0050
2053.00,0.0054
2052.00,0.0057
2051.00,0.0058
2050.00,0.0055
2049.00,0.0052
2048.00,0.0050
2047.00,0.0048
2046.00,0.0047
2045.00,0.0046
2044.00,0.0046
2043.00,0.0046
2042.00,0.0044
2041.00,0.0043
2040.00,0.0045
2039.00,0.0046
2038.00,0.0046
2037.00,0.0045
2036.00,0.0044
2035.00,0.0042
2034.00,0.0040
2033.00,0.0039
2032.00,0.0040
2031.00,0.0040
2030.00,0.0039
2029.00,0.0039
2028.00,0.0040
2027.00,0.0039
2026.00,0.0037
2025.00,0.0035
2024.00,0.0035
2023.00,0.0035
2022.00,0.0034
2021.00,0.0036
2020.00,0.0038
2019.00,0.0039
2018.00,0.0038
2017.00,0.0038
2016.00,0.0038
2015.00,0.0037
2014.00,0.0035
2013.00,0.0035
2012.00,0.0036
2011.00,0.0037
2010.00,0.0036
2009.00,0.0035
2008.00,0.0033
2007.00,0.0032
2006.00,0.0031
2005.00,0.0032
2004.00,0.0034
2003.00,0.0035
2002.00,0.0035
2001.00,0.0035
2000.00,0.0036
1999.00,0.0037
1998.00,0.0037
1997.00,0.0037
1996.00,0.0039
1995.00,0.0041
1994.00,0.0042
1993.00,0.0044
1992.00,0.0045
1991.00,0.0045
1990.00,0.0044
1989.00,0.0044
1988.00,0.0046
1987.00,0.0047
1986.00,0.0048
1985.00,0.0049
1984.00,0.0052
1983.00,0.0054
1982.00,0.0054
1981.00,0.0054
1980.00,0.0052
1979.00,0.0047
1978.00,0.0040
1977.00,0.0035
1976.00,0.0033
1975.00,0.0033
1974.00,0.0032
1973.00,0.0032
1972.00,0.0032
1971.00,0.0032
1970.00,0.0032
1969.00,0.0033
1968.00,0.0034
1967.00,0.0035
1966.00,0.0034
1965.00,0.0033
1964.00,0.0033
1963.00,0.0032
1962.00,0.0031
1961.00,0.0030
1960.00,0.0030
1959.00,0.0030
1958.00,0.0029
1957.00,0.0030
1956.00,0.0033
1955.00,0.0035
1954.00,0.0035
1953.00,0.0035
1952.00,0.0035
1951.00,0.0035
1950.00,0.0034
1949.00,0.0034
1948.00,0.0035
1947.00,0.0036
1946.00,0.0037
1945.00,0.0038
1944.00,0.0039
1943.00,0.0039
1942.00,0.0036
1941.00,0.0035
1940.00,0.0035
1939.00,0.0035
1938.00,0.0035
1937.00,0.0034
1936.00,0.0035
1935.00,0.0036
1934.00,0.0036
1933.00,0.0037
1932.00,0.0038
1931.00,0.0039
1930.00,0.0038
1929.00,0.0037
1928.00,0.0037
1927.00,0.0037
1926.00,0.0037
1925.00,0.0039
1924.00,0.0041
1923.00,0.0042
1922.00,0.0042
1921.00,0.0042
1920.00,0.0042
1919.00,0.0042
1918.00,0.0041
1917.00,0.0040
1916.00,0.0040
1915.00,0.0040
1914.00,0.0039
1913.00,0.0040
1912.00,0.0042
1911.00,0.0043
1910.00,0.0043
1909.00,0.0043
1908.00,0.0043
1907.00,0.0043
1906.00,0.0042
1905.00,0.0042
1904.00,0.0042
1903.00,0.0042
1902.00,0.0041
1901.00,0.0042
1900.00,0.0043
1899.00,0.0044
1898.00,0.0044
1897.00,0.0044
1896.00,0.0044
1895.00,0.0043
1894.00,0.0042
1893.00,0.0042
1892.00,0.0043
1891.00,0.0044
1890.00,0.0043
1889.00,0.0042
1888.00,0.0042
1887.00,0.0043
1886.00,0.0042
1885.00,0.0043
1884.00,0.0043
1883.00,0.0043
1882.00,0.0043
1881.00,0.0042
1880.00,0.0042
1879.00,0.0042
1878.00,0.0041
1877.00,0.0041
1876.00,0.0042
1875.00,0.0043
1874.00,0.0042
1873.00,0.0042
1872.00,0.0042
1871.00,0.0043
1870.00,0.0044
1869.00,0.0044
1868.00,0.0045
1867.00,0.0044
1866.00,0.0043
1865.00,0.0043
1864.00,0.0043
1863.00,0.0044
1862.00,0.0044
1861.00,0.0044
1860.00,0.0044
1859.00,0.0045
1858.00,0.0044
1857.00,0.0044
1856.00,0.0044
1855.00,0.0044
1854.00,0.0044
1853.00,0.0044
1852.00,0.0044
1851.00,0.0045
1850.00,0.0046
1849.00,0.0046
1848.00,0.0046
1847.00,0.0045
1846.00,0.0044
1845.00,0.0043
1844.00,0.0044
1843.00,0.0044
1842.00,0.0045
1841.00,0.0045
1840.00,0.0047
1839.00,0.0047
1838.00,0.0047
1837.00,0.0046
1836.00,0.0046
1835.00,0.0046
1834.00,0.0045
1833.00,0.0045
1832.00,0.0046
1831.00,0.0047
1830.00,0.0046
1829.00,0.0045
1828.00,0.0045
1827.00,0.0047
1826.00,0.0047
1825.00,0.0047
1824.00,0.0047
1823.00,0.0047
1822.00,0.0046
1821.00,0.0045
1820.00,0.0045
1819.00,0.0045
1818.00,0.0044
1817.00,0.0044
1816.00,0.0044
1815.00,0.0045
1814.00,0.0046
1813.00,0.0047
1812.00,0.0048
1811.00,0.0048
1810.00,0.0048
1809.00,0.0047
1808.00,0.0047
1807.00,0.0047
1806.00,0.0047
1805.00,0.0047
1804.00,0.0049
1803.00,0.0050
1802.00,0.0050
1801.00,0.0049
1800.00,0.0050
1799.00,0.0050
1798.00,0.0050
1797.00,0.0050
1796.00,0.0050
1795.00,0.0050
1794.00,0.0049
1793.00,0.0049
1792.00,0.0049
1791.00,0.0050
1790.00,0.0050
1789.00,0.0050
1788.00,0.0051
1787.00,0.0051
1786.00,0.0052
1785.00,0.0052
1784.00,0.0053
1783.00,0.0055
1782.00,0.0056
1781.00,0.0056
1780.00,0.0056
1779.00,0.0056
1778.00,0.0055
1777.00,0.0055
1776.00,0.0055
1775.00,0.0055
1774.00,0.0055
1773.00,0.0055
1772.00,0.0055
1771.00,0.0055
1770.00,0.0055
1769.00,0.0056
1768.00,0.0057
1767.00,0.0058
1766.00,0.0058
1765.00,0.0058
1764.00,0.0058
1763.00,0.0059
1762.00,0.0058
1761.00,0.0058
1760.00,0.0059
1759.00,0.0060
1758.00,0.0059
1757.00,0.0059
1756.00,0.0058
1755.00,0.0058
1754.00,0.0057
1753.00,0.0057
1752.00,0.0058
1751.00,0.0060
1750.00,0.0060
1749.00,0.0060
1748.00,0.0061
1747.00,0.0061
1746.00,0.0061
1745.00,0.0061
1744.00,0.0061
1743.00,0.0059
1742.00,0.0057
1741.00,0.0057
1740.00,0.0059
1739.00,0.0061
1738.00,0.0061
1737.00,0.0060
1736.00,0.0063
1735.00,0.0067
1734.00,0.0071
1733.00,0.0076
1732.00,0.0083
1731.00,0.0087
1730.00,0.0090
1729.00,0.0092
1728.00,0.0095
1727.00,0.0099
1726.00,0.0103
1725.00,0.0107
1724.00,0.0112
1723.00,0.0116
1722.00,0.0117
1721.00,0.0119
1720.00,0.0125
1719.00,0.0133
1718.00,0.0140
1717.00,0.0147
1716.00,0.0155
1715.00,0.0163
1714.00,0.0170
1713.00,0.0178
1712.00,0.0188
1711.00,0.0199
1710.00,0.0208
1709.00,0.0218
1708.00,0.0232
1707.00,0.0249
1706.00,0.0266
1705.00,0.0284
1704.00,0.0300
1703.00,0.0313
1702.00,0.0330
1701.00,0.0365
1700.00,0.0417
1699.00,0.0465
1698.00,0.0502
1697.00,0.0544
1696.00,0.0603
1695.00,0.0670
1694.00,0.0729
1693.00,0.0782
1692.00,0.0837
1691.00,0.0900
1690.00,0.0969
1689.00,0.1037
1688.00,0.1098
1687.00,0.1152
1686.00,0.1210
1685.00,0.1293
1684.00,0.1399
1683.00,0.1492
1682.00,0.1555
1681.00,0.1606
1680.00,0.1658
1679.00,0.1707
1678.00,0.1750
1677.00,0.1796
1676.00,0.1855
1675.00,0.1922
1674.00,0.1981
1673.00,0.2026
1672.00,0.2068
1671.00,0.2118
1670.00,0.2180
1669.00,0.2248
1668.00,0.2310
1667.00,0.2360
1666.00,0.2399
1665.00,0.2440
1664.00,0.2491
1663.00,0.2553
1662.00,0.2612
1661.00,0.2661
1660.00,0.2701
1659.00,0.2735
1658.00,0.2760
1657.00,0.2776
1656.00,0.2787
1655.00,0.2800
1654.00,0.2823
1653.00,0.2852
1652.00,0.2866
1651.00,0.2856
1650.00,0.2833
1649.00,0.2805
1648.00,0.2772
1647.00,0.2728
1646.00,0.2673
1645.00,0.2614
1644.00,0.2555
1643.00,0.2492
1642.00,0.2423
1641.00,0.2347
1640.00,0.2269
1639.00,0.2192
1638.00,0.2113
1637.00,0.2024
1636.00,0.1922
1635.00,0.1821
1634.00,0.1736
1633.00,0.1665
1632.00,0.1600
1631.00,0.1535
1630.00,0.1472
1629.00,0.1412
1628.00,0.1358
1627.00,0.1314
1626.00,0.1280
1625.00,0.1258
1624.00,0.1246
1623.00,0.1245
1622.00,0.1246
1621.00,0.1246
1620.00,0.1240
1619.00,0.1230
1618.00,0.1213
1617.00,0.1187
1616.00,0.1154
1615.00,0.1121
1614.00,0.1090
1613.00,0.1061
1612.00,0.1034
1611.00,0.1008
1610.00,0.0983
1609.00,0.0954
1608.00,0.0919
1607.00,0.0881
1606.00,0.0838
1605.00,0.0794
1604.00,0.0748
1603.00,0.0704
1602.00,0.0663
1601.00,0.0626
1600.00,0.0594
1599.00,0.0567
1598.00,0.0546
1597.00,0.0529
1596.00,0.0517
1595.00,0.0511
1594.00,0.0512
1593.00,0.0520
1592.00,0.0534
1591.00,0.0556
1590.00,0.0583
1589.00,0.0611
1588.00,0.0638
1587.00,0.0661
1586.00,0.0674
1585.00,0.0676
1584.00,0.0666
1583.00,0.0647
1582.00,0.0621
1581.00,0.0590
1580.00,0.0559
1579.00,0.0531
1578.00,0.0505
1577.00,0.0479
1576.00,0.0453
1575.00,0.0433
1574.00,0.0418
1573.00,0.0405
1572.00,0.0393
1571.00,0.0381
1570.00,0.0370
1569.00,0.0359
1568.00,0.0350
1567.00,0.0342
1566.00,0.0334
1565.00,0.0325
1564.00,0.0315
1563.00,0.0303
1562.00,0.0290
1561.00,0.0281
1560.00,0.0276
1559.00,0.0268
1558.00,0.0262
1557.00,0.0262
1556.00,0.0262
1555.00,0.0261
1554.00,0.0258
1553.00,0.0257
1552.00,0.0255
1551.00,0.0254
1550.00,0.0250
1549.00,0.0246
1548.00,0.0242
1547.00,0.0239
1546.00,0.0238
1545.00,0.0236
1544.00,0.0231
1543.00,0.0227
1542.00,0.0224
1541.00,0.0223
1540.00,0.0220
1539.00,0.0219
1538.00,0.0220
1537.00,0.0221
1536.00,0.0220
1535.00,0.0220
1534.00,0.0221
1533.00,0.0221
1532.00,0.0221
1531.00,0.0222
1530.00,0.0223
1529.00,0.0225
1528.00,0.0226
1527.00,0.0228
1526.00,0.0229
1525.00,0.0230
1524.00,0.0232
1523.00,0.0236
1522.00,0.0241
1521.00,0.0247
1520.00,0.0253
1519.00,0.0259
1518.00,0.0266
1517.00,0.0271
1516.00,0.0275
1515.00,0.0277
1514.00,0.0279
1513.00,0.0283
1512.00,0.0287
1511.00,0.0291
1510.00,0.0295
1509.00,0.0300
1508.00,0.0306
1507.00,0.0313
1506.00,0.0327
1505.00,0.0348
1504.00,0.0369
1503.00,0.0391
1502.00,0.0416
1501.00,0.0445
1500.00,0.0480
1499.00,0.0519
1498.00,0.0561
1497.00,0.0601
1496.00,0.0631
1495.00,0.0649
1494.00,0.0654
1493.00,0.0650
1492.00,0.0637
1491.00,0.0616
1490.00,0.0585
1489.00,0.0547
1488.00,0.0508
1487.00,0.0471
1486.00,0.0438
1485.00,0.0410
1484.00,0.0387
1483.00,0.0368
1482.00,0.0352
1481.00,0.0341
1480.00,0.0334
1479.00,0.0331
1478.00,0.0332
1477.00,0.0339
1476.00,0.0350
1475.00,0.0365
1474.00,0.0388
1473.00,0.0426
1472.00,0.0477
1471.00,0.0531
1470.00,0.0585
1469.00,0.0642
1468.00,0.0703
1467.00,0.0772
1466.00,0.0852
1465.00,0.0943
1464.00,0.1026
1463.00,0.1087
1462.00,0.1123
1461.00,0.1141
1460.00,0.1142
1459.00,0.1126
1458.00,0.1085
1457.00,0.1021
1456.00,0.0957
1455.00,0.0908
1454.00,0.0873
1453.00,0.0847
1452.00,0.0830
1451.00,0.0824
1450.00,0.0833
1449.00,0.0858
1448.00,0.0899
1447.00,0.0949
1446.00,0.1003
1445.00,0.1059
1444.00,0.1115
1443.00,0.1171
1442.00,0.1223
1441.00,0.1268
1440.00,0.1304
1439.00,0.1331
1438.00,0.1355
1437.00,0.1382
1436.00,0.1405
1435.00,0.1417
1434.00,0.1419
1433.00,0.1419
1432.00,0.1420
1431.00,0.1425
1430.00,0.1439
1429.00,0.1463
1428.00,0.1497
1427.00,0.1537
1426.00,0.1583
1425.00,0.1633
1424.00,0.1679
1423.00,0.1706
1422.00,0.1709
1421.00,0.1689
1420.00,0.1640
1419.00,0.1557
1418.00,0.1457
1417.00,0.1359
1416.00,0.1265
1415.00,0.1176
1414.00,0.1095
1413.00,0.1025
1412.00,0.0966
1411.00,0.0918
1410.00,0.0883
1409.00,0.0858
1408.00,0.0842
1407.00,0.0832
1406.00,0.0828
1405.00,0.0827
1404.00,0.0826
1403.00,0.0821
1402.00,0.0814
1401.00,0.0802
1400.00,0.0782
1399.00,0.0754
1398.00,0.0721
1397.00,0.0686
1396.00,0.0649
1395.00,0.0610
1394.00,0.0577
1393.00,0.0551
1392.00,0.0532
1391.00,0.0518
1390.00,0.0510
1389.00,0.0507
1388.00,0.0509
1387.00,0.0516
1386.00,0.0529
1385.00,0.0543
1384.00,0.0560
1383.00,0.0579
1382.00,0.0600
1381.00,0.0620
1380.00,0.0636
1379.00,0.0649
1378.00,0.0659
1377.00,0.0664
1376.00,0.0666
1375.00,0.0664
1374.00,0.0660
1373.00,0.0653
1372.00,0.0645
1371.00,0.0635
1370.00,0.0626
1369.00,0.0615
1368.00,0.0604
1367.00,0.0594
1366.00,0.0588
1365.00,0.0587
1364.00,0.0588
1363.00,0.0590
1362.00,0.0591
1361.00,0.0587
1360.00,0.0577
1359.00,0.0560
1358.00,0.0538
1357.00,0.0512
1356.00,0.0486
1355.00,0.0462
1354.00,0.0442
1353.00,0.0427
1352.00,0.0416
1351.00,0.0408
1350.00,0.0403
1349.00,0.0399
1348.00,0.0396
1347.00,0.0393
1346.00,0.0392
1345.00,0.0392
1344.00,0.0391
1343.00,0.0393
1342.00,0.0396
1341.00,0.0401
1340.00,0.0405
1339.00,0.0409
1338.00,0.0413
1337.00,0.0419
1336.00,0.0425
1335.00,0.0433
1334.00,0.0442
1333.00,0.0452
1332.00,0.0463
1331.00,0.0475
1330.00,0.0489
1329.00,0.0504
1328.00,0.0520
1327.00,0.0539
1326.00,0.0559
1325.00,0.0581
1324.00,0.0603
1323.00,0.0626
1322.00,0.0647
1321.00,0.0666
1320.00,0.0682
1319.00,0.0692
1318.00,0.0697
1317.00,0.0696
1316.00,0.0689
1315.00,0.0679
1314.00,0.0666
1313.00,0.0651
1312.00,0.0636
1311.00,0.0624
1310.00,0.0615
1309.00,0.0610
1308.00,0.0610
1307.00,0.0614
1306.00,0.0624
1305.00,0.0639
1304.00,0.0659
1303.00,0.0686
1302.00,0.0721
1301.00,0.0767
1300.00,0.0824
1299.00,0.0896
1298.00,0.0982
1297.00,0.1082
1296.00,0.1193
1295.00,0.1312
1294.00,0.1433
1293.00,0.1551
1292.00,0.1660
1291.00,0.1756
1290.00,0.1836
1289.00,0.1896
1288.00,0.1936
1287.00,0.1956
1286.00,0.1955
1285.00,0.1936
1284.00,0.1903
1283.00,0.1861
1282.00,0.1816
1281.00,0.1772
1280.00,0.1735
1279.00,0.1708
1278.00,0.1692
1277.00,0.1684
1276.00,0.1682
1275.00,0.1683
1274.00,0.1681
1273.00,0.1674
1272.00,0.1658
1271.00,0.1630
1270.00,0.1591
1269.00,0.1541
1268.00,0.1482
1267.00,0.1417
1266.00,0.1349
1265.00,0.1280
1264.00,0.1213
1263.00,0.1148
1262.00,0.1088
1261.00,0.1031
1260.00,0.0979
1259.00,0.0930
1258.00,0.0887
1257.00,0.0848
1256.00,0.0812
1255.00,0.0780
1254.00,0.0753
1253.00,0.0729
1252.00,0.0710
1251.00,0.0695
1250.00,0.0685
1249.00,0.0679
1248.00,0.0679
1247.00,0.0683
1246.00,0.0692
1245.00,0.0704
1244.00,0.0718
1243.00,0.0734
1242.00,0.0749
1241.00,0.0763
1240.00,0.0776
1239.00,0.0787
1238.00,0.0798
1237.00,0.0807
1236.00,0.0816
1235.00,0.0824
1234.00,0.0831
1233.00,0.0836
1232.00,0.0839
1231.00,0.0840
1230.00,0.0838
1229.00,0.0836
1228.00,0.0832
1227.00,0.0828
1226.00,0.0826
1225.00,0.0825
1224.00,0.0825
1223.00,0.0827
1222.00,0.0830
1221.00,0.0833
1220.00,0.0836
1219.00,0.0836
1218.00,0.0833
1217.00,0.0825
1216.00,0.0811
1215.00,0.0792
1214.00,0.0769
1213.00,0.0743
1212.00,0.0716
1211.00,0.0690
1210.00,0.0665
1209.00,0.0642
1208.00,0.0623
1207.00,0.0606
1206.00,0.0594
1205.00,0.0585
1204.00,0.0580
1203.00,0.0579
1202.00,0.0583
1201.00,0.0590
1200.00,0.0601
1199.00,0.0614
1198.00,0.0628
1197.00,0.0643
1196.00,0.0656
1195.00,0.0665
1194.00,0.0669
1193.00,0.0665
1192.00,0.0653
1191.00,0.0634
1190.00,0.0612
1189.00,0.0589
1188.00,0.0565
1187.00,0.0542
1186.00,0.0523
1185.00,0.0507
1184.00,0.0494
1183.00,0.0484
1182.00,0.0477
1181.00,0.0473
1180.00,0.0471
1179.00,0.0471
1178.00,0.0473
1177.00,0.0478
1176.00,0.0483
1175.00,0.0489
1174.00,0.0497
1173.00,0.0503
1172.00,0.0509
1171.00,0.0513
1170.00,0.0516
1169.00,0.0516
1168.00,0.0515
1167.00,0.0513
1166.00,0.0511
1165.00,0.0511
1164.00,0.0514
1163.00,0.0520
1162.00,0.0530
1161.00,0.0544
1160.00,0.0560
1159.00,0.0575
1158.00,0.0589
1157.00,0.0596
1156.00,0.0597
1155.00,0.0589
1154.00,0.0576
1153.00,0.0557
1152.00,0.0533
1151.00,0.0507
1150.00,0.0481
1149.00,0.0455
1148.00,0.0430
1147.00,0.0408
1146.00,0.0389
1145.00,0.0373
1144.00,0.0359
1143.00,0.0348
1142.00,0.0341
1141.00,0.0336
1140.00,0.0333
1139.00,0.0335
1138.00,0.0341
1137.00,0.0353
1136.00,0.0371
1135.00,0.0396
1134.00,0.0428
1133.00,0.0464
1132.00,0.0499
1131.00,0.0529
1130.00,0.0549
1129.00,0.0553
1128.00,0.0542
1127.00,0.0519
1126.00,0.0489
1125.00,0.0456
1124.00,0.0427
1123.00,0.0402
1122.00,0.0383
1121.00,0.0369
1120.00,0.0359
1119.00,0.0351
1118.00,0.0347
1117.00,0.0345
1116.00,0.0344
1115.00,0.0344
1114.00,0.0346
1113.00,0.0348
1112.00,0.0350
1111.00,0.0352
1110.00,0.0356
1109.00,0.0360
1108.00,0.0364
1107.00,0.0370
1106.00,0.0378
1105.00,0.0388
1104.00,0.0399
1103.00,0.0411
1102.00,0.0422
1101.00,0.0431
1100.00,0.0434
1099.00,0.0432
1098.00,0.0426
1097.00,0.0418
1096.00,0.0407
1095.00,0.0396
1094.00,0.0386
1093.00,0.0376
1092.00,0.0368
1091.00,0.0360
1090.00,0.0355
1089.00,0.0351
1088.00,0.0348
1087.00,0.0346
1086.00,0.0346
1085.00,0.0347
1084.00,0.0349
1083.00,0.0352
1082.00,0.0357
1081.00,0.0364
1080.00,0.0371
1079.00,0.0379
1078.00,0.0389
1077.00,0.0399
1076.00,0.0409
1075.00,0.0420
1074.00,0.0431
1073.00,0.0443
1072.00,0.0455
1071.00,0.0470
1070.00,0.0488
1069.00,0.0510
1068.00,0.0536
1067.00,0.0567
1066.00,0.0604
1065.00,0.0645
1064.00,0.0688
1063.00,0.0735
1062.00,0.0781
1061.00,0.0825
1060.00,0.0861
1059.00,0.0887
1058.00,0.0899
1057.00,0.0896
1056.00,0.0875
1055.00,0.0840
1054.00,0.0795
1053.00,0.0743
1052.00,0.0689
1051.00,0.0639
1050.00,0.0596
1049.00,0.0561
1048.00,0.0533
1047.00,0.0513
1046.00,0.0500
1045.00,0.0491
1044.00,0.0486
1043.00,0.0485
1042.00,0.0486
1041.00,0.0489
1040.00,0.0492
1039.00,0.0496
1038.00,0.0501
1037.00,0.0506
1036.00,0.0512
1035.00,0.0519
1034.00,0.0528
1033.00,0.0537
1032.00,0.0545
1031.00,0.0551
1030.00,0.0553
1029.00,0.0550
1028.00,0.0540
1027.00,0.0528
1026.00,0.0515
1025.00,0.0504
1024.00,0.0494
1023.00,0.0488
1022.00,0.0486
1021.00,0.0485
1020.00,0.0485
1019.00,0.0484
1018.00,0.0482
1017.00,0.0476
1016.00,0.0465
1015.00,0.0452
1014.00,0.0436
1013.00,0.0421
1012.00,0.0406
1011.00,0.0395
1010.00,0.0390
1009.00,0.0390
1008.00,0.0395
1007.00,0.0406
1006.00,0.0421
1005.00,0.0436
1004.00,0.0449
1003.00,0.0457
1002.00,0.0460
1001.00,0.0456
1000.00,0.0448
999.00,0.0437
998.00,0.0425
997.00,0.0415
996.00,0.0404
995.00,0.0395
994.00,0.0386
993.00,0.0378
992.00,0.0369
991.00,0.0360
990.00,0.0352
989.00,0.0344
988.00,0.0335
987.00,0.0326
986.00,0.0319
985.00,0.0312
984.00,0.0306
983.00,0.0301
982.00,0.0298
981.00,0.0296
980.00,0.0294
979.00,0.0293
978.00,0.0292
977.00,0.0291
976.00,0.0289
975.00,0.0286
974.00,0.0284
973.00,0.0281
972.00,0.0277
971.00,0.0273
970.00,0.0269
969.00,0.0266
968.00,0.0262
967.00,0.0259
966.00,0.0256
965.00,0.0254
964.00,0.0251
963.00,0.0248
962.00,0.0246
961.00,0.0244
960.00,0.0242
959.00,0.0239
958.00,0.0237
957.00,0.0234
956.00,0.0232
955.00,0.0230
954.00,0.0229
953.00,0.0229
952.00,0.0228
951.00,0.0227
950.00,0.0227
949.00,0.0228
948.00,0.0229
947.00,0.0230
946.00,0.0233
945.00,0.0236
944.00,0.0240
943.00,0.0245
942.00,0.0253
941.00,0.0262
940.00,0.0273
939.00,0.0287
938.00,0.0302
937.00,0.0317
936.00,0.0332
935.00,0.0344
934.00,0.0352
933.00,0.0357
932.00,0.0355
931.00,0.0351
930.00,0.0345
929.00,0.0341
928.00,0.0337
927.00,0.0336
926.00,0.0335
925.00,0.0335
924.00,0.0332
923.00,0.0328
922.00,0.0324
921.00,0.0320
920.00,0.0315
919.00,0.0311
918.00,0.0307
917.00,0.0303
916.00,0.0298
915.00,0.0293
914.00,0.0289
913.00,0.0287
912.00,0.0285
911.00,0.0284
910.00,0.0286
909.00,0.0288
908.00,0.0292
907.00,0.0297
906.00,0.0305
905.00,0.0314
904.00,0.0324
903.00,0.0335
902.00,0.0347
901.00,0.0359
900.00,0.0369
899.00,0.0378
898.00,0.0386
897.00,0.0390
896.00,0.0390
895.00,0.0388
894.00,0.0383
893.00,0.0376
892.00,0.0367
891.00,0.0359
890.00,0.0352
889.00,0.0346
888.00,0.0341
887.00,0.0338
886.00,0.0338
885.00,0.0340
884.00,0.0342
883.00,0.0346
882.00,0.0352
881.00,0.0359
880.00,0.0368
879.00,0.0378
878.00,0.0390
877.00,0.0402
876.00,0.0415
875.00,0.0428
874.00,0.0442
873.00,0.0454
872.00,0.0464
871.00,0.0472
870.00,0.0478
869.00,0.0481
868.00,0.0481
867.00,0.0482
866.00,0.0484
865.00,0.0486
864.00,0.0489
863.00,0.0493
862.00,0.0497
861.00,0.0501
860.00,0.0505
859.00,0.0511
858.00,0.0519
857.00,0.0528
856.00,0.0537
855.00,0.0548
854.00,0.0560
853.00,0.0572
852.00,0.0584
851.00,0.0595
850.00,0.0607
849.00,0.0618
848.00,0.0626
847.00,0.0633
846.00,0.0640
845.00,0.0644
844.00,0.0646
843.00,0.0647
842.00,0.0647
841.00,0.0646
840.00,0.0643
839.00,0.0641
838.00,0.0639
837.00,0.0638
836.00,0.0636
835.00,0.0636
834.00,0.0636
833.00,0.0636
832.00,0.0635
831.00,0.0634
830.00,0.0633
829.00,0.0631
828.00,0.0628
827.00,0.0624
826.00,0.0621
825.00,0.0619
824.00,0.0617
823.00,0.0617
822.00,0.0617
821.00,0.0618
820.00,0.0619
819.00,0.0619
818.00,0.0620
817.00,0.0620
816.00,0.0618
815.00,0.0615
814.00,0.0610
813.00,0.0603
812.00,0.0591
811.00,0.0577
810.00,0.0559
809.00,0.0539
808.00,0.0517
807.00,0.0497
806.00,0.0479
805.00,0.0464
804.00,0.0452
803.00,0.0442
802.00,0.0436
801.00,0.0432
800.00,0.0429
799.00,0.0428
798.00,0.0428
797.00,0.0430
796.00,0.0431
795.00,0.0433
794.00,0.0436
793.00,0.0439
792.00,0.0441
791.00,0.0443
790.00,0.0446
789.00,0.0449
788.00,0.0450
787.00,0.0452
786.00,0.0455
785.00,0.0458
784.00,0.0461
783.00,0.0464
782.00,0.0468
781.00,0.0472
780.00,0.0477
779.00,0.0481
778.00,0.0487
777.00,0.0491
776.00,0.0492
775.00,0.0491
774.00,0.0490
773.00,0.0490
772.00,0.0491
771.00,0.0493
770.00,0.0498
769.00,0.0504
768.00,0.0509
767.00,0.0515
766.00,0.0522
765.00,0.0530
764.00,0.0538
763.00,0.0546
762.00,0.0556
761.00,0.0567
760.00,0.0576
759.00,0.0586
758.00,0.0596
757.00,0.0607
756.00,0.0618
755.00,0.0629
754.00,0.0641
753.00,0.0653
752.00,0.0663
751.00,0.0674
750.00,0.0685
749.00,0.0696
748.00,0.0707
747.00,0.0718
746.00,0.0731
745.00,0.0743
744.00,0.0756
743.00,0.0770
742.00,0.0787
741.00,0.0806
740.00,0.0826
739.00,0.0845
738.00,0.0864
737.00,0.0877
736.00,0.0882
735.00,0.0881
734.00,0.0875
733.00,0.0864
732.00,0.0850
731.00,0.0835
730.00,0.0820
729.00,0.0805
728.00,0.0790
727.00,0.0775
726.00,0.0761
725.00,0.0749
724.00,0.0737
723.00,0.0727
722.00,0.0719
721.00,0.0712
720.00,0.0706
719.00,0.0702
718.00,0.0700
717.00,0.0699
716.00,0.0698
715.00,0.0698
714.00,0.0699
713.00,0.0699
712.00,0.0698
711.00,0.0696
710.00,0.0695
709.00,0.0695
708.00,0.0694
707.00,0.0695
706.00,0.0696
705.00,0.0697
704.00,0.0699
703.00,0.0701
702.00,0.0704
701.00,0.0708
700.00,0.0712
699.00,0.0717
698.00,0.0725
697.00,0.0735
696.00,0.0746
695.00,0.0759
694.00,0.0773
693.00,0.0785
692.00,0.0795
691.00,0.0804
690.00,0.0814
689.00,0.0822
688.00,0.0828
687.00,0.0833
686.00,0.0837
685.00,0.0840
684.00,0.0841
683.00,0.0843
682.00,0.0846
681.00,0.0850
680.00,0.0853
679.00,0.0858
678.00,0.0864
677.00,0.0871
676.00,0.0878
675.00,0.0885
674.00,0.0895
673.00,0.0905
672.00,0.0914
671.00,0.0922
670.00,0.0932
669.00,0.0945
668.00,0.0964
667.00,0.0985
666.00,0.1001
665.00,0.1014
664.00,0.1028
663.00,0.1043
662.00,0.1061
661.00,0.1080
660.00,0.1099
659.00,0.1120
658.00,0.1141
657.00,0.1162
656.00,0.1183
655.00,0.1202
654.00,0.1222
653.00,0.1240
652.00,0.1256
651.00,0.1269
650.00,0.1280
649.00,0.1288
648.00,0.1292
647.00,0.1292
646.00,0.1289
645.00,0.1284
644.00,0.1274
643.00,0.1262
642.00,0.1248
641.00,0.1234
640.00,0.1218
639.00,0.1204
638.00,0.1190
637.00,0.1177
636.00,0.1163
635.00,0.1151
634.00,0.1140
633.00,0.1131
632.00,0.1121
631.00,0.1114
630.00,0.1109
629.00,0.1104
628.00,0.1099
627.00,0.1095
626.00,0.1093
625.00,0.1090
624.00,0.1086
623.00,0.1083
622.00,0.1081
621.00,0.1078
620.00,0.1075
619.00,0.1072
618.00,0.1070
617.00,0.1069
616.00,0.1067
615.00,0.1065
614.00,0.1063
613.00,0.1063
612.00,0.1063
611.00,0.1064
610.00,0.1067
609.00,0.1071
608.00,0.1074
607.00,0.1078
606.00,0.1083
605.00,0.1088
604.00,0.1092
603.00,0.1097
602.00,0.1102
601.00,0.1107
600.00,0.1111
599.00,0.1115
598.00,0.1119
597.00,0.1121
596.00,0.1121
595.00,0.1122
594.00,0.1126
593.00,0.1131
592.00,0.1136
591.00,0.1143
590.00,0.1155
589.00,0.1172
588.00,0.1192
587.00,0.1217
586.00,0.1248
585.00,0.1279
584.00,0.1308
583.00,0.1334
582.00,0.1355
581.00,0.1371
580.00,0.1383
579.00,0.1392
578.00,0.1400
577.00,0.1406
576.00,0.1409
575.00,0.1409
574.00,0.1410
573.00,0.1410
572.00,0.1408
571.00,0.1405
570.00,0.1404
569.00,0.1402
568.00,0.1397
567.00,0.1391
566.00,0.1383
565.00,0.1374
564.00,0.1362
563.00,0.1349
562.00,0.1338
561.00,0.1327
560.00,0.1316
559.00,0.1307
558.00,0.1302
557.00,0.1296
556.00,0.1287
555.00,0.1277
554.00,0.1268
553.00,0.1259
552.00,0.1250
551.00,0.1242
550.00,0.1236
549.00,0.1230
548.00,0.1222
547.00,0.1215
546.00,0.1209
545.00,0.1202
544.00,0.1195
543.00,0.1187
542.00,0.1182
541.00,0.1177
540.00,0.1172
539.00,0.1171
538.00,0.1174
537.00,0.1180
536.00,0.1186
535.00,0.1193
534.00,0.1203
533.00,0.1212
532.00,0.1216
531.00,0.1218
530.00,0.1218
529.00,0.1215
528.00,0.1207
527.00,0.1197
526.00,0.1188
525.00,0.1179
524.00,0.1168
523.00,0.1160
522.00,0.1156
521.00,0.1152
520.00,0.1146
519.00,0.1140
518.00,0.1137
517.00,0.1133
516.00,0.1127
515.00,0.1122
514.00,0.1123
513.00,0.1124
512.00,0.1124
511.00,0.1126
510.00,0.1132
509.00,0.1138
508.00,0.1141
507.00,0.1143
506.00,0.1144
505.00,0.1142
504.00,0.1135
503.00,0.1128
502.00,0.1125
501.00,0.1122
500.00,0.1117
499.00,0.1113
498.00,0.1112
497.00,0.1113
496.00,0.1111
495.00,0.1110
494.00,0.1112
493.00,0.1115
492.00,0.1116
491.00,0.1119
490.00,0.1125
489.00,0.1129
488.00,0.1128
487.00,0.1126
486.00,0.1127
485.00,0.1130
484.00,0.1130
483.00,0.1130
482.00,0.1133
481.00,0.1134
480.00,0.1131
479.00,0.1129
478.00,0.1131
477.00,0.1134
476.00,0.1132
475.00,0.1131
474.00,0.1134
473.00,0.1138
472.00,0.1136
471.00,0.1133
470.00,0.1131
469.00,0.1127
468.00,0.1120
467.00,0.1116
466.00,0.1116
465.00,0.1115
464.00,0.1107
463.00,0.1099
462.00,0.1097
461.00,0.1094
460.00,0.1085
459.00,0.1076
458.00,0.1073
457.00,0.1070
456.00,0.1063
455.00,0.1059
454.00,0.1059
453.00,0.1058
452.00,0.1050
451.00,0.1042
450.00,0.1040
449.00,0.1038
448.00,0.1032
447.00,0.1028
446.00,0.1031
445.00,0.1034
444.00,0.1030
443.00,0.1025
442.00,0.1022
441.00,0.1018
440.00,0.1008
439.00,0.0999
438.00,0.0998
437.00,0.0998
436.00,0.0992
435.00,0.0986
434.00,0.0985
433.00,0.0985
432.00,0.0979
431.00,0.0974
430.00,0.0975
429.00,0.0977
428.00,0.0971
427.00,0.0966
426.00,0.0967
425.00,0.0969
424.00,0.0965
423.00,0.0963
422.00,0.0968
421.00,0.0969
420.00,0.0960
419.00,0.0951
418.00,0.0958
417.00,0.0966
416.00,0.0962
415.00,0.0961
414.00,0.0969
413.00,0.0979
412.00,0.0977
411.00,0.0973
410.00,0.0974
409.00,0.0970
408.00,0.0957
407.00,0.0949
406.00,0.0958
405.00,0.0966
404.00,0.0957
403.00,0.0947
402.00,0.0955
401.00,0.0961
400.00,0.0948
