Created as New Dataset,Sample 704 By YargerLab Date Wednesday, June 18 2025
cm-1,A
4000.00,0.0033
3999.00,0.0033
3998.00,0.0032
3997.00,0.0032
3996.00,0.0032
3995.00,0.0032
3994.00,0.0032
3993.00,0.0032
3992.00,0.0033
3991.00,0.0033
3990.00,0.0033
3989.00,0.0032
3988.00,0.0032
3987.00,0.0032
3986.00,0.0032
3985.00,0.0032
3984.00,0.0032
3983.00,0.0032
3982.00,0.0032
3981.00,0.0032
3980.00,0.0032
3979.00,0.0032
3978.00,0.0032
3977.00,0.0033
3976.00,0.0033
3975.00,0.0032
3974.00,0.0032
3973.00,0.0032
3972.00,0.0032
3971.00,0.0032
3970.00,0.0032
3969.00,0.0032
3968.00,0.0032
3967.00,0.0033
3966.00,0.0033
3965.00,0.0033
3964.00,0.0033
3963.00,0.0032
3962.00,0.0032
3961.00,0.0032
3960.00,0.0032
3959.00,0.0032
3958.00,0.0032
3957.00,0.0032
3956.00,0.0032
3955.00,0.0032
3954.00,0.0032
3953.00,0.0032
3952.00,0.0032
3951.00,0.0032
3950.00,0.0032
3949.00,0.0032
3948.00,0.0032
3947.00,0.0032
3946.00,0.0032
3945.00,0.0032
3944.00,0.0032
3943.00,0.0032
3942.00,0.0032
3941.00,0.0032
3940.00,0.0032
3939.00,0.0032
3938.00,0.0032
3937.00,0.0032
3936.00,0.0032
3935.00,0.0032
3934.00,0.0032
3933.00,0.0032
3932.00,0.0032
3931.00,0.0032
3930.00,0.0032
3929.00,0.0032
3928.00,0.0032
3927.00,0.0032
3926.00,0.0032
3925.00,0.0032
3924.00,0.0032
3923.00,0.0032
3922.00,0.0032
3921.00,0.0032
3920.00,0.0032
3919.00,0.0032
3918.00,0.0032
3917.00,0.0032
3916.00,0.0032
3915.00,0.0032
3914.00,0.0032
3913.00,0.0032
3912.00,0.0032
3911.00,0.0033
3910.00,0.0033
3909.00,0.0033
3908.00,0.0033
3907.00,0.0032
3906.00,0.0032
3905.00,0.0032
3904.00,0.0032
3903.00,0.0031
3902.00,0.0031
3901.00,0.0031
3900.00,0.0031
3899.00,0.0031
3898.00,0.0031
3897.00,0.0031
3896.00,0.0031
3895.00,0.0032
3894.00,0.0032
3893.00,0.0032
3892.00,0.0032
3891.00,0.0032
3890.00,0.0032
3889.00,0.0032
3888.00,0.0032
3887.00,0.0031
3886.00,0.0031
3885.00,0.0031
3884.00,0.0031
3883.00,0.0031
3882.00,0.0031
3881.00,0.0031
3880.00,0.0031
3879.00,0.0031
3878.00,0.0031
3877.00,0.0031
3876.00,0.0031
3875.00,0.0031
3874.00,0.0031
3873.00,0.0031
3872.00,0.0031
3871.00,0.0031
3870.00,0.0031
3869.00,0.0031
3868.00,0.0031
3867.00,0.0031
3866.00,0.0031
3865.00,0.0031
3864.00,0.0031
3863.00,0.0031
3862.00,0.0031
3861.00,0.0031
3860.00,0.0031
3859.00,0.0031
3858.00,0.0031
3857.00,0.0032
3856.00,0.0032
3855.00,0.0032
3854.00,0.0032
3853.00,0.0031
3852.00,0.0031
3851.00,0.0031
3850.00,0.0031
3849.00,0.0031
3848.00,0.0032
3847.00,0.0032
3846.00,0.0032
3845.00,0.0032
3844.00,0.0032
3843.00,0.0032
3842.00,0.0032
3841.00,0.0032
3840.00,0.0032
3839.00,0.0032
3838.00,0.0031
3837.00,0.0031
3836.00,0.0031
3835.00,0.0031
3834.00,0.0031
3833.00,0.0032
3832.00,0.0032
3831.00,0.0032
3830.00,0.0032
3829.00,0.0032
3828.00,0.0032
3827.00,0.0032
3826.00,0.0032
3825.00,0.0032
3824.00,0.0032
3823.00,0.0032
3822.00,0.0031
3821.00,0.0031
3820.00,0.0032
3819.00,0.0032
3818.00,0.0032
3817.00,0.0032
3816.00,0.0032
3815.00,0.0033
3814.00,0.0033
3813.00,0.0033
3812.00,0.0033
3811.00,0.0033
3810.00,0.0033
3809.00,0.0033
3808.00,0.0033
3807.00,0.0033
3806.00,0.0032
3805.00,0.0032
3804.00,0.0032
3803.00,0.0032
3802.00,0.0032
3801.00,0.0032
3800.00,0.0032
3799.00,0.0032
3798.00,0.0032
3797.00,0.0032
3796.00,0.0033
3795.00,0.0033
3794.00,0.0033
3793.00,0.0033
3792.00,0.0033
3791.00,0.0033
3790.00,0.0033
3789.00,0.0033
3788.00,0.0033
3787.00,0.0033
3786.00,0.0033
3785.00,0.0033
3784.00,0.0033
3783.00,0.0033
3782.00,0.0033
3781.00,0.0033
3780.00,0.0033
3779.00,0.0033
3778.00,0.0033
3777.00,0.0033
3776.00,0.0033
3775.00,0.0033
3774.00,0.0033
3773.00,0.0034
3772.00,0.0034
3771.00,0.0034
3770.00,0.0034
3769.00,0.0033
3768.00,0.0033
3767.00,0.0033
3766.00,0.0033
3765.00,0.0032
3764.00,0.0032
3763.00,0.0032
3762.00,0.0032
3761.00,0.0032
3760.00,0.0033
3759.00,0.0033
3758.00,0.0033
3757.00,0.0033
3756.00,0.0033
3755.00,0.0033
3754.00,0.0033
3753.00,0.0033
3752.00,0.0032
3751.00,0.0032
3750.00,0.0032
3749.00,0.0032
3748.00,0.0032
3747.00,0.0033
3746.00,0.0033
3745.00,0.0033
3744.00,0.0032
3743.00,0.0032
3742.00,0.0031
3741.00,0.0031
3740.00,0.0031
3739.00,0.0030
3738.00,0.0030
3737.00,0.0030
3736.00,0.0030
3735.00,0.0030
3734.00,0.0030
3733.00,0.0031
3732.00,0.0031
3731.00,0.0031
3730.00,0.0031
3729.00,0.0031
3728.00,0.0031
3727.00,0.0031
3726.00,0.0032
3725.00,0.0032
3724.00,0.0032
3723.00,0.0032
3722.00,0.0032
3721.00,0.0032
3720.00,0.0033
3719.00,0.0032
3718.00,0.0032
3717.00,0.0032
3716.00,0.0032
3715.00,0.0032
3714.00,0.0032
3713.00,0.0032
3712.00,0.0032
3711.00,0.0032
3710.00,0.0032
3709.00,0.0032
3708.00,0.0032
3707.00,0.0032
3706.00,0.0032
3705.00,0.0032
3704.00,0.0032
3703.00,0.0032
3702.00,0.0033
3701.00,0.0033
3700.00,0.0033
3699.00,0.0033
3698.00,0.0033
3697.00,0.0033
3696.00,0.0033
3695.00,0.0033
3694.00,0.0033
3693.00,0.0033
3692.00,0.0033
3691.00,0.0033
3690.00,0.0033
3689.00,0.0033
3688.00,0.0033
3687.00,0.0034
3686.00,0.0034
3685.00,0.0035
3684.00,0.0036
3683.00,0.0036
3682.00,0.0036
3681.00,0.0036
3680.00,0.0037
3679.00,0.0037
3678.00,0.0037
3677.00,0.0037
3676.00,0.0036
3675.00,0.0036
3674.00,0.0036
3673.00,0.0037
3672.00,0.0037
3671.00,0.0037
3670.00,0.0037
3669.00,0.0038
3668.00,0.0038
3667.00,0.0039
3666.00,0.0039
3665.00,0.0040
3664.00,0.0040
3663.00,0.0040
3662.00,0.0040
3661.00,0.0041
3660.00,0.0041
3659.00,0.0041
3658.00,0.0041
3657.00,0.0042
3656.00,0.0042
3655.00,0.0043
3654.00,0.0043
3653.00,0.0043
3652.00,0.0042
3651.00,0.0042
3650.00,0.0043
3649.00,0.0043
3648.00,0.0044
3647.00,0.0045
3646.00,0.0046
3645.00,0.0046
3644.00,0.0047
3643.00,0.0048
3642.00,0.0048
3641.00,0.0049
3640.00,0.0050
3639.00,0.0050
3638.00,0.0051
3637.00,0.0051
3636.00,0.0052
3635.00,0.0052
3634.00,0.0053
3633.00,0.0053
3632.00,0.0054
3631.00,0.0054
3630.00,0.0055
3629.00,0.0055
3628.00,0.0056
3627.00,0.0057
3626.00,0.0058
3625.00,0.0058
3624.00,0.0059
3623.00,0.0059
3622.00,0.0060
3621.00,0.0060
3620.00,0.0061
3619.00,0.0062
3618.00,0.0062
3617.00,0.0063
3616.00,0.0064
3615.00,0.0065
3614.00,0.0066
3613.00,0.0067
3612.00,0.0069
3611.00,0.0070
3610.00,0.0071
3609.00,0.0071
3608.00,0.0072
3607.00,0.0073
3606.00,0.0074
3605.00,0.0075
3604.00,0.0076
3603.00,0.0077
3602.00,0.0078
3601.00,0.0079
3600.00,0.0080
3599.00,0.0081
3598.00,0.0082
3597.00,0.0083
3596.00,0.0084
3595.00,0.0085
3594.00,0.0086
3593.00,0.0088
3592.00,0.0089
3591.00,0.0090
3590.00,0.0091
3589.00,0.0092
3588.00,0.0093
3587.00,0.0094
3586.00,0.0096
3585.00,0.0097
3584.00,0.0098
3583.00,0.0099
3582.00,0.0100
3581.00,0.0102
3580.00,0.0103
3579.00,0.0105
3578.00,0.0106
3577.00,0.0107
3576.00,0.0108
3575.00,0.0110
3574.00,0.0111
3573.00,0.0112
3572.00,0.0113
3571.00,0.0114
3570.00,0.0115
3569.00,0.0115
3568.00,0.0116
3567.00,0.0117
3566.00,0.0119
3565.00,0.0120
3564.00,0.0122
3563.00,0.0123
3562.00,0.0125
3561.00,0.0126
3560.00,0.0127
3559.00,0.0128
3558.00,0.0129
3557.00,0.0130
3556.00,0.0131
3555.00,0.0132
3554.00,0.0134
3553.00,0.0135
3552.00,0.0136
3551.00,0.0137
3550.00,0.0138
3549.00,0.0138
3548.00,0.0139
3547.00,0.0140
3546.00,0.0141
3545.00,0.0142
3544.00,0.0143
3543.00,0.0144
3542.00,0.0145
3541.00,0.0146
3540.00,0.0147
3539.00,0.0147
3538.00,0.0148
3537.00,0.0149
3536.00,0.0150
3535.00,0.0150
3534.00,0.0151
3533.00,0.0151
3532.00,0.0152
3531.00,0.0153
3530.00,0.0153
3529.00,0.0154
3528.00,0.0155
3527.00,0.0155
3526.00,0.0156
3525.00,0.0156
3524.00,0.0157
3523.00,0.0158
3522.00,0.0158
3521.00,0.0158
3520.00,0.0159
3519.00,0.0159
3518.00,0.0160
3517.00,0.0160
3516.00,0.0161
3515.00,0.0161
3514.00,0.0161
3513.00,0.0161
3512.00,0.0162
3511.00,0.0162
3510.00,0.0162
3509.00,0.0163
3508.00,0.0163
3507.00,0.0163
3506.00,0.0163
3505.00,0.0163
3504.00,0.0163
3503.00,0.0163
3502.00,0.0163
3501.00,0.0163
3500.00,0.0164
3499.00,0.0164
3498.00,0.0164
3497.00,0.0163
3496.00,0.0163
3495.00,0.0163
3494.00,0.0163
3493.00,0.0163
3492.00,0.0163
3491.00,0.0163
3490.00,0.0163
3489.00,0.0163
3488.00,0.0163
3487.00,0.0163
3486.00,0.0162
3485.00,0.0162
3484.00,0.0162
3483.00,0.0161
3482.00,0.0161
3481.00,0.0161
3480.00,0.0161
3479.00,0.0160
3478.00,0.0160
3477.00,0.0160
3476.00,0.0159
3475.00,0.0159
3474.00,0.0159
3473.00,0.0158
3472.00,0.0158
3471.00,0.0158
3470.00,0.0157
3469.00,0.0157
3468.00,0.0157
3467.00,0.0156
3466.00,0.0156
3465.00,0.0156
3464.00,0.0156
3463.00,0.0156
3462.00,0.0156
3461.00,0.0156
3460.00,0.0156
3459.00,0.0155
3458.00,0.0155
3457.00,0.0155
3456.00,0.0154
3455.00,0.0154
3454.00,0.0154
3453.00,0.0153
3452.00,0.0153
3451.00,0.0153
3450.00,0.0153
3449.00,0.0153
3448.00,0.0153
3447.00,0.0154
3446.00,0.0154
3445.00,0.0154
3444.00,0.0154
3443.00,0.0154
3442.00,0.0154
3441.00,0.0154
3440.00,0.0154
3439.00,0.0155
3438.00,0.0155
3437.00,0.0155
3436.00,0.0155
3435.00,0.0155
3434.00,0.0155
3433.00,0.0155
3432.00,0.0155
3431.00,0.0156
3430.00,0.0156
3429.00,0.0156
3428.00,0.0156
3427.00,0.0157
3426.00,0.0157
3425.00,0.0157
3424.00,0.0157
3423.00,0.0157
3422.00,0.0157
3421.00,0.0158
3420.00,0.0158
3419.00,0.0158
3418.00,0.0158
3417.00,0.0158
3416.00,0.0158
3415.00,0.0158
3414.00,0.0158
3413.00,0.0158
3412.00,0.0158
3411.00,0.0158
3410.00,0.0158
3409.00,0.0158
3408.00,0.0158
3407.00,0.0159
3406.00,0.0158
3405.00,0.0159
3404.00,0.0159
3403.00,0.0159
3402.00,0.0159
3401.00,0.0159
3400.00,0.0159
3399.00,0.0158
3398.00,0.0158
3397.00,0.0158
3396.00,0.0158
3395.00,0.0158
3394.00,0.0158
3393.00,0.0157
3392.00,0.0157
3391.00,0.0157
3390.00,0.0156
3389.00,0.0156
3388.00,0.0156
3387.00,0.0156
3386.00,0.0156
3385.00,0.0156
3384.00,0.0156
3383.00,0.0155
3382.00,0.0155
3381.00,0.0155
3380.00,0.0155
3379.00,0.0154
3378.00,0.0154
3377.00,0.0154
3376.00,0.0153
3375.00,0.0153
3374.00,0.0153
3373.00,0.0153
3372.00,0.0152
3371.00,0.0152
3370.00,0.0151
3369.00,0.0150
3368.00,0.0150
3367.00,0.0150
3366.00,0.0150
3365.00,0.0151
3364.00,0.0151
3363.00,0.0151
3362.00,0.0150
3361.00,0.0150
3360.00,0.0149
3359.00,0.0149
3358.00,0.0149
3357.00,0.0149
3356.00,0.0149
3355.00,0.0149
3354.00,0.0149
3353.00,0.0148
3352.00,0.0148
3351.00,0.0147
3350.00,0.0147
3349.00,0.0147
3348.00,0.0147
3347.00,0.0148
3346.00,0.0148
3345.00,0.0147
3344.00,0.0147
3343.00,0.0147
3342.00,0.0147
3341.00,0.0147
3340.00,0.0146
3339.00,0.0146
3338.00,0.0146
3337.00,0.0147
3336.00,0.0147
3335.00,0.0147
3334.00,0.0147
3333.00,0.0148
3332.00,0.0148
3331.00,0.0148
3330.00,0.0148
3329.00,0.0147
3328.00,0.0147
3327.00,0.0146
3326.00,0.0146
3325.00,0.0146
3324.00,0.0147
3323.00,0.0147
3322.00,0.0147
3321.00,0.0147
3320.00,0.0147
3319.00,0.0148
3318.00,0.0148
3317.00,0.0148
3316.00,0.0148
3315.00,0.0148
3314.00,0.0147
3313.00,0.0147
3312.00,0.0147
3311.00,0.0146
3310.00,0.0146
3309.00,0.0145
3308.00,0.0144
3307.00,0.0144
3306.00,0.0144
3305.00,0.0144
3304.00,0.0145
3303.00,0.0146
3302.00,0.0147
3301.00,0.0147
3300.00,0.0147
3299.00,0.0147
3298.00,0.0146
3297.00,0.0146
3296.00,0.0145
3295.00,0.0145
3294.00,0.0145
3293.00,0.0145
3292.00,0.0145
3291.00,0.0145
3290.00,0.0146
3289.00,0.0146
3288.00,0.0147
3287.00,0.0147
3286.00,0.0147
3285.00,0.0146
3284.00,0.0146
3283.00,0.0146
3282.00,0.0146
3281.00,0.0145
3280.00,0.0145
3279.00,0.0144
3278.00,0.0144
3277.00,0.0143
3276.00,0.0142
3275.00,0.0142
3274.00,0.0141
3273.00,0.0141
3272.00,0.0140
3271.00,0.0139
3270.00,0.0139
3269.00,0.0139
3268.00,0.0139
3267.00,0.0139
3266.00,0.0139
3265.00,0.0139
3264.00,0.0138
3263.00,0.0138
3262.00,0.0137
3261.00,0.0137
3260.00,0.0136
3259.00,0.0136
3258.00,0.0135
3257.00,0.0134
3256.00,0.0133
3255.00,0.0133
3254.00,0.0132
3253.00,0.0132
3252.00,0.0132
3251.00,0.0131
3250.00,0.0131
3249.00,0.0130
3248.00,0.0129
3247.00,0.0129
3246.00,0.0128
3245.00,0.0128
3244.00,0.0127
3243.00,0.0127
3242.00,0.0126
3241.00,0.0125
3240.00,0.0125
3239.00,0.0124
3238.00,0.0124
3237.00,0.0123
3236.00,0.0122
3235.00,0.0121
3234.00,0.0121
3233.00,0.0120
3232.00,0.0120
3231.00,0.0120
3230.00,0.0119
3229.00,0.0119
3228.00,0.0118
3227.00,0.0117
3226.00,0.0117
3225.00,0.0116
3224.00,0.0116
3223.00,0.0115
3222.00,0.0114
3221.00,0.0114
3220.00,0.0113
3219.00,0.0112
3218.00,0.0112
3217.00,0.0111
3216.00,0.0110
3215.00,0.0110
3214.00,0.0109
3213.00,0.0108
3212.00,0.0108
3211.00,0.0107
3210.00,0.0107
3209.00,0.0106
3208.00,0.0106
3207.00,0.0105
3206.00,0.0104
3205.00,0.0104
3204.00,0.0103
3203.00,0.0102
3202.00,0.0102
3201.00,0.0101
3200.00,0.0101
3199.00,0.0100
3198.00,0.0100
3197.00,0.0099
3196.00,0.0098
3195.00,0.0098
3194.00,0.0097
3193.00,0.0097
3192.00,0.0096
3191.00,0.0095
3190.00,0.0095
3189.00,0.0095
3188.00,0.0094
3187.00,0.0094
3186.00,0.0093
3185.00,0.0093
3184.00,0.0092
3183.00,0.0092
3182.00,0.0091
3181.00,0.0091
3180.00,0.0090
3179.00,0.0089
3178.00,0.0089
3177.00,0.0089
3176.00,0.0088
3175.00,0.0088
3174.00,0.0087
3173.00,0.0087
3172.00,0.0087
3171.00,0.0086
3170.00,0.0086
3169.00,0.0085
3168.00,0.0085
3167.00,0.0084
3166.00,0.0084
3165.00,0.0083
3164.00,0.0083
3163.00,0.0082
3162.00,0.0082
3161.00,0.0082
3160.00,0.0081
3159.00,0.0081
3158.00,0.0081
3157.00,0.0080
3156.00,0.0080
3155.00,0.0080
3154.00,0.0079
3153.00,0.0079
3152.00,0.0079
3151.00,0.0078
3150.00,0.0078
3149.00,0.0078
3148.00,0.0078
3147.00,0.0077
3146.00,0.0077
3145.00,0.0077
3144.00,0.0076
3143.00,0.0076
3142.00,0.0075
3141.00,0.0075
3140.00,0.0074
3139.00,0.0074
3138.00,0.0074
3137.00,0.0073
3136.00,0.0073
3135.00,0.0072
3134.00,0.0072
3133.00,0.0072
3132.00,0.0072
3131.00,0.0072
3130.00,0.0072
3129.00,0.0072
3128.00,0.0071
3127.00,0.0071
3126.00,0.0071
3125.00,0.0070
3124.00,0.0070
3123.00,0.0069
3122.00,0.0069
3121.00,0.0069
3120.00,0.0069
3119.00,0.0069
3118.00,0.0069
3117.00,0.0068
3116.00,0.0068
3115.00,0.0068
3114.00,0.0068
3113.00,0.0067
3112.00,0.0067
3111.00,0.0067
3110.00,0.0066
3109.00,0.0066
3108.00,0.0066
3107.00,0.0066
3106.00,0.0065
3105.00,0.0065
3104.00,0.0065
3103.00,0.0064
3102.00,0.0064
3101.00,0.0064
3100.00,0.0064
3099.00,0.0064
3098.00,0.0063
3097.00,0.0063
3096.00,0.0062
3095.00,0.0062
3094.00,0.0062
3093.00,0.0062
3092.00,0.0061
3091.00,0.0061
3090.00,0.0061
3089.00,0.0060
3088.00,0.0060
3087.00,0.0059
3086.00,0.0058
3085.00,0.0058
3084.00,0.0057
3083.00,0.0056
3082.00,0.0056
3081.00,0.0055
3080.00,0.0055
3079.00,0.0054
3078.00,0.0054
3077.00,0.0053
3076.00,0.0052
3075.00,0.0052
3074.00,0.0051
3073.00,0.0051
3072.00,0.0051
3071.00,0.0051
3070.00,0.0051
3069.00,0.0052
3068.00,0.0052
3067.00,0.0052
3066.00,0.0053
3065.00,0.0053
3064.00,0.0053
3063.00,0.0053
3062.00,0.0054
3061.00,0.0054
3060.00,0.0055
3059.00,0.0055
3058.00,0.0055
3057.00,0.0055
3056.00,0.0055
3055.00,0.0055
3054.00,0.0055
3053.00,0.0055
3052.00,0.0055
3051.00,0.0054
3050.00,0.0054
3049.00,0.0054
3048.00,0.0054
3047.00,0.0054
3046.00,0.0053
3045.00,0.0053
3044.00,0.0053
3043.00,0.0053
3042.00,0.0052
3041.00,0.0052
3040.00,0.0052
3039.00,0.0052
3038.00,0.0052
3037.00,0.0052
3036.00,0.0052
3035.00,0.0052
3034.00,0.0051
3033.00,0.0052
3032.00,0.0052
3031.00,0.0052
3030.00,0.0052
3029.00,0.0053
3028.00,0.0053
3027.00,0.0054
3026.00,0.0054
3025.00,0.0054
3024.00,0.0055
3023.00,0.0055
3022.00,0.0056
3021.00,0.0056
3020.00,0.0057
3019.00,0.0057
3018.00,0.0058
3017.00,0.0058
3016.00,0.0058
3015.00,0.0059
3014.00,0.0060
3013.00,0.0061
3012.00,0.0061
3011.00,0.0062
3010.00,0.0063
3009.00,0.0064
3008.00,0.0066
3007.00,0.0067
3006.00,0.0068
3005.00,0.0069
3004.00,0.0071
3003.00,0.0072
3002.00,0.0074
3001.00,0.0075
3000.00,0.0077
2999.00,0.0079
2998.00,0.0081
2997.00,0.0084
2996.00,0.0086
2995.00,0.0089
2994.00,0.0091
2993.00,0.0094
2992.00,0.0097
2991.00,0.0099
2990.00,0.0102
2989.00,0.0104
2988.00,0.0107
2987.00,0.0109
2986.00,0.0111
2985.00,0.0112
2984.00,0.0113
2983.00,0.0113
2982.00,0.0113
2981.00,0.0114
2980.00,0.0116
2979.00,0.0117
2978.00,0.0119
2977.00,0.0120
2976.00,0.0121
2975.00,0.0122
2974.00,0.0122
2973.00,0.0122
2972.00,0.0121
2971.00,0.0121
2970.00,0.0121
2969.00,0.0121
2968.00,0.0121
2967.00,0.0121
2966.00,0.0121
2965.00,0.0121
2964.00,0.0122
2963.00,0.0123
2962.00,0.0124
2961.00,0.0125
2960.00,0.0127
2959.00,0.0128
2958.00,0.0129
2957.00,0.0131
2956.00,0.0132
2955.00,0.0134
2954.00,0.0136
2953.00,0.0137
2952.00,0.0139
2951.00,0.0141
2950.00,0.0141
2949.00,0.0142
2948.00,0.0141
2947.00,0.0140
2946.00,0.0138
2945.00,0.0136
2944.00,0.0132
2943.00,0.0128
2942.00,0.0123
2941.00,0.0118
2940.00,0.0113
2939.00,0.0107
2938.00,0.0102
2937.00,0.0097
2936.00,0.0091
2935.00,0.0087
2934.00,0.0082
2933.00,0.0079
2932.00,0.0076
2931.00,0.0074
2930.00,0.0073
2929.00,0.0073
2928.00,0.0074
2927.00,0.0075
2926.00,0.0077
2925.00,0.0080
2924.00,0.0083
2923.00,0.0086
2922.00,0.0090
2921.00,0.0093
2920.00,0.0097
2919.00,0.0100
2918.00,0.0103
2917.00,0.0105
2916.00,0.0107
2915.00,0.0108
2914.00,0.0109
2913.00,0.0109
2912.00,0.0110
2911.00,0.0110
2910.00,0.0110
2909.00,0.0111
2908.00,0.0111
2907.00,0.0112
2906.00,0.0112
2905.00,0.0113
2904.00,0.0114
2903.00,0.0115
2902.00,0.0116
2901.00,0.0118
2900.00,0.0119
2899.00,0.0121
2898.00,0.0123
2897.00,0.0124
2896.00,0.0126
2895.00,0.0127
2894.00,0.0128
2893.00,0.0129
2892.00,0.0130
2891.00,0.0131
2890.00,0.0131
2889.00,0.0132
2888.00,0.0132
2887.00,0.0132
2886.00,0.0132
2885.00,0.0133
2884.00,0.0133
2883.00,0.0133
2882.00,0.0133
2881.00,0.0133
2880.00,0.0132
2879.00,0.0131
2878.00,0.0130
2877.00,0.0128
2876.00,0.0126
2875.00,0.0124
2874.00,0.0122
2873.00,0.0120
2872.00,0.0119
2871.00,0.0118
2870.00,0.0118
2869.00,0.0117
2868.00,0.0117
2867.00,0.0115
2866.00,0.0114
2865.00,0.0111
2864.00,0.0108
2863.00,0.0105
2862.00,0.0101
2861.00,0.0097
2860.00,0.0094
2859.00,0.0091
2858.00,0.0088
2857.00,0.0087
2856.00,0.0086
2855.00,0.0086
2854.00,0.0086
2853.00,0.0086
2852.00,0.0087
2851.00,0.0087
2850.00,0.0088
2849.00,0.0088
2848.00,0.0088
2847.00,0.0088
2846.00,0.0088
2845.00,0.0088
2844.00,0.0088
2843.00,0.0087
2842.00,0.0086
2841.00,0.0085
2840.00,0.0084
2839.00,0.0082
2838.00,0.0081
2837.00,0.0079
2836.00,0.0077
2835.00,0.0076
2834.00,0.0074
2833.00,0.0073
2832.00,0.0072
2831.00,0.0071
2830.00,0.0071
2829.00,0.0071
2828.00,0.0071
2827.00,0.0071
2826.00,0.0071
2825.00,0.0070
2824.00,0.0070
2823.00,0.0070
2822.00,0.0069
2821.00,0.0068
2820.00,0.0068
2819.00,0.0067
2818.00,0.0067
2817.00,0.0066
2816.00,0.0066
2815.00,0.0065
2814.00,0.0065
2813.00,0.0064
2812.00,0.0064
2811.00,0.0064
2810.00,0.0063
2809.00,0.0063
2808.00,0.0063
2807.00,0.0062
2806.00,0.0062
2805.00,0.0061
2804.00,0.0061
2803.00,0.0061
2802.00,0.0061
2801.00,0.0061
2800.00,0.0061
2799.00,0.0061
2798.00,0.0060
2797.00,0.0060
2796.00,0.0060
2795.00,0.0059
2794.00,0.0059
2793.00,0.0059
2792.00,0.0059
2791.00,0.0059
2790.00,0.0058
2789.00,0.0058
2788.00,0.0058
2787.00,0.0058
2786.00,0.0058
2785.00,0.0058
2784.00,0.0058
2783.00,0.0057
2782.00,0.0057
2781.00,0.0057
2780.00,0.0057
2779.00,0.0057
2778.00,0.0057
2777.00,0.0057
2776.00,0.0057
2775.00,0.0057
2774.00,0.0056
2773.00,0.0056
2772.00,0.0056
2771.00,0.0055
2770.00,0.0055
2769.00,0.0055
2768.00,0.0055
2767.00,0.0055
2766.00,0.0055
2765.00,0.0055
2764.00,0.0055
2763.00,0.0055
2762.00,0.0055
2761.00,0.0055
2760.00,0.0055
2759.00,0.0055
2758.00,0.0054
2757.00,0.0054
2756.00,0.0054
2755.00,0.0054
2754.00,0.0054
2753.00,0.0054
2752.00,0.0054
2751.00,0.0054
2750.00,0.0054
2749.00,0.0054
2748.00,0.0054
2747.00,0.0054
2746.00,0.0053
2745.00,0.0053
2744.00,0.0053
2743.00,0.0053
2742.00,0.0053
2741.00,0.0053
2740.00,0.0053
2739.00,0.0053
2738.00,0.0053
2737.00,0.0053
2736.00,0.0053
2735.00,0.0053
2734.00,0.0053
2733.00,0.0052
2732.00,0.0052
2731.00,0.0052
2730.00,0.0052
2729.00,0.0052
2728.00,0.0052
2727.00,0.0052
2726.00,0.0052
2725.00,0.0052
2724.00,0.0053
2723.00,0.0053
2722.00,0.0052
2721.00,0.0052
2720.00,0.0052
2719.00,0.0052
2718.00,0.0052
2717.00,0.0052
2716.00,0.0052
2715.00,0.0052
2714.00,0.0052
2713.00,0.0052
2712.00,0.0052
2711.00,0.0053
2710.00,0.0052
2709.00,0.0052
2708.00,0.0052
2707.00,0.0052
2706.00,0.0052
2705.00,0.0052
2704.00,0.0052
2703.00,0.0052
2702.00,0.0052
2701.00,0.0051
2700.00,0.0051
2699.00,0.0051
2698.00,0.0051
2697.00,0.0051
2696.00,0.0051
2695.00,0.0051
2694.00,0.0051
2693.00,0.0051
2692.00,0.0051
2691.00,0.0051
2690.00,0.0051
2689.00,0.0051
2688.00,0.0050
2687.00,0.0050
2686.00,0.0050
2685.00,0.0050
2684.00,0.0050
2683.00,0.0050
2682.00,0.0050
2681.00,0.0050
2680.00,0.0050
2679.00,0.0050
2678.00,0.0050
2677.00,0.0050
2676.00,0.0050
2675.00,0.0050
2674.00,0.0050
2673.00,0.0050
2672.00,0.0050
2671.00,0.0050
2670.00,0.0050
2669.00,0.0050
2668.00,0.0050
2667.00,0.0051
2666.00,0.0051
2665.00,0.0051
2664.00,0.0052
2663.00,0.0052
2662.00,0.0053
2661.00,0.0053
2660.00,0.0054
2659.00,0.0054
2658.00,0.0055
2657.00,0.0055
2656.00,0.0055
2655.00,0.0056
2654.00,0.0056
2653.00,0.0056
2652.00,0.0056
2651.00,0.0056
2650.00,0.0056
2649.00,0.0056
2648.00,0.0055
2647.00,0.0055
2646.00,0.0055
2645.00,0.0056
2644.00,0.0056
2643.00,0.0056
2642.00,0.0056
2641.00,0.0056
2640.00,0.0056
2639.00,0.0056
2638.00,0.0056
2637.00,0.0056
2636.00,0.0055
2635.00,0.0055
2634.00,0.0055
2633.00,0.0055
2632.00,0.0055
2631.00,0.0055
2630.00,0.0055
2629.00,0.0055
2628.00,0.0055
2627.00,0.0055
2626.00,0.0055
2625.00,0.0054
2624.00,0.0054
2623.00,0.0054
2622.00,0.0054
2621.00,0.0054
2620.00,0.0054
2619.00,0.0054
2618.00,0.0054
2617.00,0.0054
2616.00,0.0054
2615.00,0.0054
2614.00,0.0053
2613.00,0.0053
2612.00,0.0053
2611.00,0.0053
2610.00,0.0053
2609.00,0.0053
2608.00,0.0053
2607.00,0.0053
2606.00,0.0053
2605.00,0.0052
2604.00,0.0052
2603.00,0.0052
2602.00,0.0053
2601.00,0.0053
2600.00,0.0053
2599.00,0.0053
2598.00,0.0053
2597.00,0.0053
2596.00,0.0053
2595.00,0.0053
2594.00,0.0053
2593.00,0.0053
2592.00,0.0052
2591.00,0.0052
2590.00,0.0052
2589.00,0.0052
2588.00,0.0052
2587.00,0.0052
2586.00,0.0052
2585.00,0.0052
2584.00,0.0052
2583.00,0.0052
2582.00,0.0052
2581.00,0.0052
2580.00,0.0052
2579.00,0.0052
2578.00,0.0053
2577.00,0.0053
2576.00,0.0052
2575.00,0.0052
2574.00,0.0052
2573.00,0.0052
2572.00,0.0052
2571.00,0.0051
2570.00,0.0051
2569.00,0.0050
2568.00,0.0050
2567.00,0.0050
2566.00,0.0050
2565.00,0.0050
2564.00,0.0051
2563.00,0.0051
2562.00,0.0051
2561.00,0.0050
2560.00,0.0050
2559.00,0.0050
2558.00,0.0050
2557.00,0.0050
2556.00,0.0050
2555.00,0.0050
2554.00,0.0050
2553.00,0.0050
2552.00,0.0050
2551.00,0.0050
2550.00,0.0050
2549.00,0.0050
2548.00,0.0050
2547.00,0.0050
2546.00,0.0050
2545.00,0.0049
2544.00,0.0049
2543.00,0.0049
2542.00,0.0049
2541.00,0.0049
2540.00,0.0049
2539.00,0.0049
2538.00,0.0049
2537.00,0.0049
2536.00,0.0049
2535.00,0.0048
2534.00,0.0048
2533.00,0.0048
2532.00,0.0048
2531.00,0.0048
2530.00,0.0048
2529.00,0.0048
2528.00,0.0048
2527.00,0.0048
2526.00,0.0048
2525.00,0.0047
2524.00,0.0047
2523.00,0.0047
2522.00,0.0047
2521.00,0.0047
2520.00,0.0047
2519.00,0.0047
2518.00,0.0047
2517.00,0.0047
2516.00,0.0047
2515.00,0.0047
2514.00,0.0047
2513.00,0.0047
2512.00,0.0047
2511.00,0.0047
2510.00,0.0047
2509.00,0.0047
2508.00,0.0048
2507.00,0.0048
2506.00,0.0048
2505.00,0.0048
2504.00,0.0048
2503.00,0.0048
2502.00,0.0047
2501.00,0.0047
2500.00,0.0047
2499.00,0.0047
2498.00,0.0047
2497.00,0.0047
2496.00,0.0047
2495.00,0.0047
2494.00,0.0047
2493.00,0.0047
2492.00,0.0047
2491.00,0.0047
2490.00,0.0047
2489.00,0.0046
2488.00,0.0046
2487.00,0.0046
2486.00,0.0046
2485.00,0.0046
2484.00,0.0046
2483.00,0.0046
2482.00,0.0047
2481.00,0.0047
2480.00,0.0047
2479.00,0.0047
2478.00,0.0046
2477.00,0.0046
2476.00,0.0046
2475.00,0.0046
2474.00,0.0046
2473.00,0.0046
2472.00,0.0046
2471.00,0.0047
2470.00,0.0047
2469.00,0.0047
2468.00,0.0048
2467.00,0.0048
2466.00,0.0048
2465.00,0.0048
2464.00,0.0048
2463.00,0.0048
2462.00,0.0048
2461.00,0.0048
2460.00,0.0048
2459.00,0.0048
2458.00,0.0049
2457.00,0.0049
2456.00,0.0049
2455.00,0.0049
2454.00,0.0049
2453.00,0.0049
2452.00,0.0048
2451.00,0.0048
2450.00,0.0047
2449.00,0.0048
2448.00,0.0048
2447.00,0.0049
2446.00,0.0049
2445.00,0.0048
2444.00,0.0048
2443.00,0.0048
2442.00,0.0048
2441.00,0.0048
2440.00,0.0048
2439.00,0.0048
2438.00,0.0048
2437.00,0.0048
2436.00,0.0048
2435.00,0.0048
2434.00,0.0048
2433.00,0.0048
2432.00,0.0048
2431.00,0.0048
2430.00,0.0047
2429.00,0.0047
2428.00,0.0047
2427.00,0.0047
2426.00,0.0047
2425.00,0.0048
2424.00,0.0048
2423.00,0.0048
2422.00,0.0047
2421.00,0.0047
2420.00,0.0047
2419.00,0.0048
2418.00,0.0048
2417.00,0.0048
2416.00,0.0048
2415.00,0.0048
2414.00,0.0048
2413.00,0.0048
2412.00,0.0048
2411.00,0.0048
2410.00,0.0048
2409.00,0.0048
2408.00,0.0047
2407.00,0.0047
2406.00,0.0046
2405.00,0.0045
2404.00,0.0046
2403.00,0.0046
2402.00,0.0046
2401.00,0.0046
2400.00,0.0047
2399.00,0.0047
2398.00,0.0047
2397.00,0.0047
2396.00,0.0047
2395.00,0.0047
2394.00,0.0047
2393.00,0.0047
2392.00,0.0047
2391.00,0.0047
2390.00,0.0047
2389.00,0.0046
2388.00,0.0046
2387.00,0.0045
2386.00,0.0045
2385.00,0.0044
2384.00,0.0043
2383.00,0.0043
2382.00,0.0042
2381.00,0.0042
2380.00,0.0041
2379.00,0.0041
2378.00,0.0041
2377.00,0.0042
2376.00,0.0042
2375.00,0.0042
2374.00,0.0042
2373.00,0.0042
2372.00,0.0042
2371.00,0.0041
2370.00,0.0041
2369.00,0.0041
2368.00,0.0041
2367.00,0.0041
2366.00,0.0041
2365.00,0.0041
2364.00,0.0042
2363.00,0.0042
2362.00,0.0042
2361.00,0.0042
2360.00,0.0042
2359.00,0.0042
2358.00,0.0042
2357.00,0.0042
2356.00,0.0043
2355.00,0.0043
2354.00,0.0043
2353.00,0.0043
2352.00,0.0043
2351.00,0.0042
2350.00,0.0042
2349.00,0.0042
2348.00,0.0043
2347.00,0.0045
2346.00,0.0046
2345.00,0.0046
2344.00,0.0046
2343.00,0.0046
2342.00,0.0047
2341.00,0.0048
2340.00,0.0048
2339.00,0.0049
2338.00,0.0049
2337.00,0.0048
2336.00,0.0048
2335.00,0.0048
2334.00,0.0049
2333.00,0.0049
2332.00,0.0049
2331.00,0.0049
2330.00,0.0050
2329.00,0.0052
2328.00,0.0056
2327.00,0.0060
2326.00,0.0063
2325.00,0.0065
2324.00,0.0064
2323.00,0.0062
2322.00,0.0060
2321.00,0.0058
2320.00,0.0057
2319.00,0.0056
2318.00,0.0055
2317.00,0.0054
2316.00,0.0054
2315.00,0.0054
2314.00,0.0054
2313.00,0.0054
2312.00,0.0053
2311.00,0.0053
2310.00,0.0053
2309.00,0.0053
2308.00,0.0053
2307.00,0.0053
2306.00,0.0053
2305.00,0.0054
2304.00,0.0054
2303.00,0.0054
2302.00,0.0055
2301.00,0.0055
2300.00,0.0055
2299.00,0.0056
2298.00,0.0056
2297.00,0.0057
2296.00,0.0058
2295.00,0.0059
2294.00,0.0060
2293.00,0.0060
2292.00,0.0061
2291.00,0.0062
2290.00,0.0062
2289.00,0.0063
2288.00,0.0064
2287.00,0.0063
2286.00,0.0063
2285.00,0.0063
2284.00,0.0063
2283.00,0.0062
2282.00,0.0062
2281.00,0.0061
2280.00,0.0060
2279.00,0.0060
2278.00,0.0059
2277.00,0.0059
2276.00,0.0059
2275.00,0.0059
2274.00,0.0058
2273.00,0.0058
2272.00,0.0058
2271.00,0.0058
2270.00,0.0058
2269.00,0.0057
2268.00,0.0057
2267.00,0.0056
2266.00,0.0055
2265.00,0.0055
2264.00,0.0055
2263.00,0.0055
2262.00,0.0055
2261.00,0.0056
2260.00,0.0056
2259.00,0.0055
2258.00,0.0055
2257.00,0.0054
2256.00,0.0053
2255.00,0.0053
2254.00,0.0053
2253.00,0.0054
2252.00,0.0054
2251.00,0.0054
2250.00,0.0054
2249.00,0.0054
2248.00,0.0055
2247.00,0.0056
2246.00,0.0057
2245.00,0.0057
2244.00,0.0057
2243.00,0.0056
2242.00,0.0055
2241.00,0.0055
2240.00,0.0056
2239.00,0.0056
2238.00,0.0056
2237.00,0.0055
2236.00,0.0055
2235.00,0.0055
2234.00,0.0056
2233.00,0.0056
2232.00,0.0056
2231.00,0.0056
2230.00,0.0055
2229.00,0.0055
2228.00,0.0055
2227.00,0.0055
2226.00,0.0055
2225.00,0.0054
2224.00,0.0054
2223.00,0.0054
2222.00,0.0054
2221.00,0.0054
2220.00,0.0054
2219.00,0.0055
2218.00,0.0055
2217.00,0.0055
2216.00,0.0055
2215.00,0.0056
2214.00,0.0056
2213.00,0.0057
2212.00,0.0058
2211.00,0.0058
2210.00,0.0057
2209.00,0.0056
2208.00,0.0056
2207.00,0.0055
2206.00,0.0054
2205.00,0.0054
2204.00,0.0055
2203.00,0.0056
2202.00,0.0056
2201.00,0.0056
2200.00,0.0057
2199.00,0.0057
2198.00,0.0058
2197.00,0.0059
2196.00,0.0060
2195.00,0.0060
2194.00,0.0060
2193.00,0.0060
2192.00,0.0059
2191.00,0.0059
2190.00,0.0059
2189.00,0.0059
2188.00,0.0059
2187.00,0.0059
2186.00,0.0059
2185.00,0.0058
2184.00,0.0057
2183.00,0.0055
2182.00,0.0055
2181.00,0.0056
2180.00,0.0057
2179.00,0.0057
2178.00,0.0056
2177.00,0.0053
2176.00,0.0051
2175.00,0.0051
2174.00,0.0052
2173.00,0.0055
2172.00,0.0058
2171.00,0.0061
2170.00,0.0064
2169.00,0.0066
2168.00,0.0067
2167.00,0.0068
2166.00,0.0069
2165.00,0.0070
2164.00,0.0073
2163.00,0.0072
2162.00,0.0066
2161.00,0.0053
2160.00,0.0038
2159.00,0.0025
2158.00,0.0021
2157.00,0.0023
2156.00,0.0027
2155.00,0.0031
2154.00,0.0033
2153.00,0.0034
2152.00,0.0036
2151.00,0.0037
2150.00,0.0038
2149.00,0.0038
2148.00,0.0037
2147.00,0.0037
2146.00,0.0036
2145.00,0.0037
2144.00,0.0038
2143.00,0.0039
2142.00,0.0040
2141.00,0.0041
2140.00,0.0041
2139.00,0.0040
2138.00,0.0038
2137.00,0.0037
2136.00,0.0037
2135.00,0.0036
2134.00,0.0036
2133.00,0.0037
2132.00,0.0039
2131.00,0.0040
2130.00,0.0041
2129.00,0.0042
2128.00,0.0044
2127.00,0.0045
2126.00,0.0046
2125.00,0.0046
2124.00,0.0047
2123.00,0.0048
2122.00,0.0049
2121.00,0.0050
2120.00,0.0051
2119.00,0.0053
2118.00,0.0054
2117.00,0.0055
2116.00,0.0057
2115.00,0.0057
2114.00,0.0057
2113.00,0.0056
2112.00,0.0056
2111.00,0.0056
2110.00,0.0055
2109.00,0.0055
2108.00,0.0056
2107.00,0.0056
2106.00,0.0056
2105.00,0.0056
2104.00,0.0055
2103.00,0.0055
2102.00,0.0054
2101.00,0.0054
2100.00,0.0054
2099.00,0.0053
2098.00,0.0052
2097.00,0.0050
2096.00,0.0049
2095.00,0.0048
2094.00,0.0048
2093.00,0.0049
2092.00,0.0050
2091.00,0.0051
2090.00,0.0051
2089.00,0.0052
2088.00,0.0053
2087.00,0.0054
2086.00,0.0055
2085.00,0.0055
2084.00,0.0056
2083.00,0.0056
2082.00,0.0057
2081.00,0.0057
2080.00,0.0058
2079.00,0.0057
2078.00,0.0057
2077.00,0.0056
2076.00,0.0056
2075.00,0.0056
2074.00,0.0055
2073.00,0.0055
2072.00,0.0054
2071.00,0.0054
2070.00,0.0053
2069.00,0.0053
2068.00,0.0054
2067.00,0.0054
2066.00,0.0053
2065.00,0.0053
2064.00,0.0053
2063.00,0.0053
2062.00,0.0053
2061.00,0.0053
2060.00,0.0053
2059.00,0.0054
2058.00,0.0054
2057.00,0.0054
2056.00,0.0054
2055.00,0.0054
2054.00,0.0056
2053.00,0.0061
2052.00,0.0064
2051.00,0.0065
2050.00,0.0062
2049.00,0.0058
2048.00,0.0055
2047.00,0.0054
2046.00,0.0053
2045.00,0.0053
2044.00,0.0054
2043.00,0.0054
2042.00,0.0054
2041.00,0.0054
2040.00,0.0056
2039.00,0.0056
2038.00,0.0056
2037.00,0.0055
2036.00,0.0052
2035.00,0.0049
2034.00,0.0046
2033.00,0.0044
2032.00,0.0044
2031.00,0.0044
2030.00,0.0044
2029.00,0.0046
2028.00,0.0047
2027.00,0.0048
2026.00,0.0046
2025.00,0.0043
2024.00,0.0042
2023.00,0.0041
2022.00,0.0040
2021.00,0.0041
2020.00,0.0043
2019.00,0.0044
2018.00,0.0044
2017.00,0.0044
2016.00,0.0044
2015.00,0.0043
2014.00,0.0043
2013.00,0.0042
2012.00,0.0041
2011.00,0.0041
2010.00,0.0040
2009.00,0.0039
2008.00,0.0037
2007.00,0.0036
2006.00,0.0035
2005.00,0.0036
2004.00,0.0038
2003.00,0.0040
2002.00,0.0041
2001.00,0.0040
2000.00,0.0041
1999.00,0.0041
1998.00,0.0043
1997.00,0.0044
1996.00,0.0045
1995.00,0.0046
1994.00,0.0047
1993.00,0.0047
1992.00,0.0048
1991.00,0.0047
1990.00,0.0046
1989.00,0.0046
1988.00,0.0047
1987.00,0.0048
1986.00,0.0049
1985.00,0.0050
1984.00,0.0053
1983.00,0.0057
1982.00,0.0060
1981.00,0.0061
1980.00,0.0059
1979.00,0.0054
1978.00,0.0046
1977.00,0.0040
1976.00,0.0036
1975.00,0.0035
1974.00,0.0034
1973.00,0.0033
1972.00,0.0034
1971.00,0.0034
1970.00,0.0034
1969.00,0.0034
1968.00,0.0034
1967.00,0.0035
1966.00,0.0036
1965.00,0.0036
1964.00,0.0037
1963.00,0.0036
1962.00,0.0034
1961.00,0.0032
1960.00,0.0030
1959.00,0.0030
1958.00,0.0030
1957.00,0.0032
1956.00,0.0034
1955.00,0.0035
1954.00,0.0035
1953.00,0.0035
1952.00,0.0035
1951.00,0.0035
1950.00,0.0036
1949.00,0.0037
1948.00,0.0037
1947.00,0.0038
1946.00,0.0038
1945.00,0.0037
1944.00,0.0037
1943.00,0.0037
1942.00,0.0037
1941.00,0.0037
1940.00,0.0037
1939.00,0.0036
1938.00,0.0036
1937.00,0.0035
1936.00,0.0036
1935.00,0.0036
1934.00,0.0036
1933.00,0.0036
1932.00,0.0037
1931.00,0.0038
1930.00,0.0038
1929.00,0.0039
1928.00,0.0039
1927.00,0.0039
1926.00,0.0038
1925.00,0.0038
1924.00,0.0039
1923.00,0.0040
1922.00,0.0041
1921.00,0.0041
1920.00,0.0041
1919.00,0.0041
1918.00,0.0041
1917.00,0.0041
1916.00,0.0041
1915.00,0.0042
1914.00,0.0041
1913.00,0.0041
1912.00,0.0041
1911.00,0.0041
1910.00,0.0041
1909.00,0.0041
1908.00,0.0041
1907.00,0.0041
1906.00,0.0040
1905.00,0.0040
1904.00,0.0041
1903.00,0.0041
1902.00,0.0041
1901.00,0.0041
1900.00,0.0041
1899.00,0.0041
1898.00,0.0041
1897.00,0.0041
1896.00,0.0041
1895.00,0.0041
1894.00,0.0041
1893.00,0.0041
1892.00,0.0041
1891.00,0.0042
1890.00,0.0042
1889.00,0.0042
1888.00,0.0042
1887.00,0.0041
1886.00,0.0040
1885.00,0.0040
1884.00,0.0039
1883.00,0.0039
1882.00,0.0040
1881.00,0.0040
1880.00,0.0041
1879.00,0.0042
1878.00,0.0041
1877.00,0.0041
1876.00,0.0041
1875.00,0.0041
1874.00,0.0041
1873.00,0.0041
1872.00,0.0042
1871.00,0.0042
1870.00,0.0042
1869.00,0.0042
1868.00,0.0042
1867.00,0.0042
1866.00,0.0042
1865.00,0.0042
1864.00,0.0043
1863.00,0.0043
1862.00,0.0042
1861.00,0.0042
1860.00,0.0042
1859.00,0.0042
1858.00,0.0042
1857.00,0.0042
1856.00,0.0042
1855.00,0.0042
1854.00,0.0042
1853.00,0.0042
1852.00,0.0043
1851.00,0.0043
1850.00,0.0043
1849.00,0.0043
1848.00,0.0043
1847.00,0.0043
1846.00,0.0043
1845.00,0.0043
1844.00,0.0042
1843.00,0.0042
1842.00,0.0042
1841.00,0.0042
1840.00,0.0042
1839.00,0.0042
1838.00,0.0042
1837.00,0.0042
1836.00,0.0042
1835.00,0.0042
1834.00,0.0042
1833.00,0.0043
1832.00,0.0043
1831.00,0.0043
1830.00,0.0043
1829.00,0.0043
1828.00,0.0043
1827.00,0.0043
1826.00,0.0043
1825.00,0.0043
1824.00,0.0043
1823.00,0.0043
1822.00,0.0042
1821.00,0.0041
1820.00,0.0041
1819.00,0.0040
1818.00,0.0039
1817.00,0.0038
1816.00,0.0039
1815.00,0.0039
1814.00,0.0040
1813.00,0.0040
1812.00,0.0041
1811.00,0.0042
1810.00,0.0042
1809.00,0.0042
1808.00,0.0042
1807.00,0.0042
1806.00,0.0042
1805.00,0.0042
1804.00,0.0043
1803.00,0.0043
1802.00,0.0043
1801.00,0.0043
1800.00,0.0043
1799.00,0.0043
1798.00,0.0043
1797.00,0.0043
1796.00,0.0044
1795.00,0.0044
1794.00,0.0044
1793.00,0.0044
1792.00,0.0044
1791.00,0.0044
1790.00,0.0044
1789.00,0.0043
1788.00,0.0043
1787.00,0.0043
1786.00,0.0044
1785.00,0.0044
1784.00,0.0044
1783.00,0.0044
1782.00,0.0044
1781.00,0.0044
1780.00,0.0044
1779.00,0.0044
1778.00,0.0044
1777.00,0.0044
1776.00,0.0044
1775.00,0.0045
1774.00,0.0045
1773.00,0.0045
1772.00,0.0045
1771.00,0.0045
1770.00,0.0046
1769.00,0.0047
1768.00,0.0047
1767.00,0.0047
1766.00,0.0047
1765.00,0.0047
1764.00,0.0048
1763.00,0.0048
1762.00,0.0048
1761.00,0.0048
1760.00,0.0049
1759.00,0.0049
1758.00,0.0049
1757.00,0.0049
1756.00,0.0049
1755.00,0.0050
1754.00,0.0050
1753.00,0.0051
1752.00,0.0051
1751.00,0.0051
1750.00,0.0051
1749.00,0.0051
1748.00,0.0051
1747.00,0.0052
1746.00,0.0052
1745.00,0.0053
1744.00,0.0054
1743.00,0.0054
1742.00,0.0054
1741.00,0.0055
1740.00,0.0055
1739.00,0.0055
1738.00,0.0055
1737.00,0.0056
1736.00,0.0058
1735.00,0.0059
1734.00,0.0059
1733.00,0.0059
1732.00,0.0060
1731.00,0.0061
1730.00,0.0061
1729.00,0.0062
1728.00,0.0063
1727.00,0.0064
1726.00,0.0065
1725.00,0.0066
1724.00,0.0067
1723.00,0.0069
1722.00,0.0070
1721.00,0.0072
1720.00,0.0074
1719.00,0.0076
1718.00,0.0078
1717.00,0.0080
1716.00,0.0082
1715.00,0.0085
1714.00,0.0087
1713.00,0.0089
1712.00,0.0093
1711.00,0.0097
1710.00,0.0102
1709.00,0.0106
1708.00,0.0113
1707.00,0.0120
1706.00,0.0127
1705.00,0.0136
1704.00,0.0145
1703.00,0.0155
1702.00,0.0165
1701.00,0.0179
1700.00,0.0198
1699.00,0.0217
1698.00,0.0233
1697.00,0.0251
1696.00,0.0275
1695.00,0.0302
1694.00,0.0327
1693.00,0.0349
1692.00,0.0373
1691.00,0.0400
1690.00,0.0429
1689.00,0.0458
1688.00,0.0487
1687.00,0.0513
1686.00,0.0539
1685.00,0.0572
1684.00,0.0612
1683.00,0.0650
1682.00,0.0679
1681.00,0.0704
1680.00,0.0731
1679.00,0.0757
1678.00,0.0782
1677.00,0.0807
1676.00,0.0834
1675.00,0.0863
1674.00,0.0889
1673.00,0.0912
1672.00,0.0933
1671.00,0.0955
1670.00,0.0978
1669.00,0.1003
1668.00,0.1026
1667.00,0.1047
1666.00,0.1065
1665.00,0.1082
1664.00,0.1100
1663.00,0.1120
1662.00,0.1139
1661.00,0.1157
1660.00,0.1173
1659.00,0.1188
1658.00,0.1201
1657.00,0.1212
1656.00,0.1223
1655.00,0.1230
1654.00,0.1235
1653.00,0.1238
1652.00,0.1243
1651.00,0.1245
1650.00,0.1245
1649.00,0.1240
1648.00,0.1231
1647.00,0.1217
1646.00,0.1200
1645.00,0.1183
1644.00,0.1167
1643.00,0.1149
1642.00,0.1129
1641.00,0.1105
1640.00,0.1080
1639.00,0.1055
1638.00,0.1028
1637.00,0.0995
1636.00,0.0954
1635.00,0.0913
1634.00,0.0878
1633.00,0.0848
1632.00,0.0821
1631.00,0.0794
1630.00,0.0766
1629.00,0.0738
1628.00,0.0711
1627.00,0.0688
1626.00,0.0667
1625.00,0.0647
1624.00,0.0626
1623.00,0.0604
1622.00,0.0585
1621.00,0.0567
1620.00,0.0552
1619.00,0.0535
1618.00,0.0518
1617.00,0.0498
1616.00,0.0480
1615.00,0.0464
1614.00,0.0451
1613.00,0.0437
1612.00,0.0423
1611.00,0.0409
1610.00,0.0395
1609.00,0.0382
1608.00,0.0369
1607.00,0.0356
1606.00,0.0344
1605.00,0.0333
1604.00,0.0322
1603.00,0.0311
1602.00,0.0301
1601.00,0.0291
1600.00,0.0282
1599.00,0.0272
1598.00,0.0264
1597.00,0.0255
1596.00,0.0246
1595.00,0.0237
1594.00,0.0228
1593.00,0.0220
1592.00,0.0210
1591.00,0.0201
1590.00,0.0192
1589.00,0.0182
1588.00,0.0172
1587.00,0.0163
1586.00,0.0156
1585.00,0.0150
1584.00,0.0145
1583.00,0.0142
1582.00,0.0141
1581.00,0.0141
1580.00,0.0141
1579.00,0.0142
1578.00,0.0142
1577.00,0.0142
1576.00,0.0142
1575.00,0.0142
1574.00,0.0143
1573.00,0.0143
1572.00,0.0142
1571.00,0.0142
1570.00,0.0141
1569.00,0.0141
1568.00,0.0141
1567.00,0.0141
1566.00,0.0140
1565.00,0.0140
1564.00,0.0139
1563.00,0.0139
1562.00,0.0139
1561.00,0.0138
1560.00,0.0136
1559.00,0.0135
1558.00,0.0134
1557.00,0.0133
1556.00,0.0133
1555.00,0.0131
1554.00,0.0130
1553.00,0.0129
1552.00,0.0128
1551.00,0.0127
1550.00,0.0127
1549.00,0.0126
1548.00,0.0125
1547.00,0.0124
1546.00,0.0124
1545.00,0.0123
1544.00,0.0123
1543.00,0.0122
1542.00,0.0121
1541.00,0.0120
1540.00,0.0118
1539.00,0.0117
1538.00,0.0116
1537.00,0.0115
1536.00,0.0115
1535.00,0.0115
1534.00,0.0114
1533.00,0.0113
1532.00,0.0113
1531.00,0.0112
1530.00,0.0111
1529.00,0.0111
1528.00,0.0111
1527.00,0.0110
1526.00,0.0109
1525.00,0.0109
1524.00,0.0108
1523.00,0.0107
1522.00,0.0107
1521.00,0.0106
1520.00,0.0106
1519.00,0.0106
1518.00,0.0107
1517.00,0.0107
1516.00,0.0108
1515.00,0.0110
1514.00,0.0111
1513.00,0.0114
1512.00,0.0117
1511.00,0.0121
1510.00,0.0125
1509.00,0.0131
1508.00,0.0138
1507.00,0.0148
1506.00,0.0159
1505.00,0.0170
1504.00,0.0180
1503.00,0.0191
1502.00,0.0203
1501.00,0.0217
1500.00,0.0231
1499.00,0.0246
1498.00,0.0260
1497.00,0.0273
1496.00,0.0284
1495.00,0.0290
1494.00,0.0294
1493.00,0.0294
1492.00,0.0291
1491.00,0.0284
1490.00,0.0274
1489.00,0.0262
1488.00,0.0248
1487.00,0.0234
1486.00,0.0220
1485.00,0.0209
1484.00,0.0198
1483.00,0.0190
1482.00,0.0182
1481.00,0.0177
1480.00,0.0175
1479.00,0.0174
1478.00,0.0175
1477.00,0.0179
1476.00,0.0185
1475.00,0.0193
1474.00,0.0204
1473.00,0.0219
1472.00,0.0238
1471.00,0.0259
1470.00,0.0280
1469.00,0.0303
1468.00,0.0329
1467.00,0.0357
1466.00,0.0388
1465.00,0.0421
1464.00,0.0450
1463.00,0.0470
1462.00,0.0482
1461.00,0.0488
1460.00,0.0486
1459.00,0.0477
1458.00,0.0457
1457.00,0.0428
1456.00,0.0398
1455.00,0.0373
1454.00,0.0354
1453.00,0.0339
1452.00,0.0327
1451.00,0.0320
1450.00,0.0318
1449.00,0.0322
1448.00,0.0332
1447.00,0.0347
1446.00,0.0366
1445.00,0.0389
1444.00,0.0414
1443.00,0.0441
1442.00,0.0470
1441.00,0.0497
1440.00,0.0522
1439.00,0.0544
1438.00,0.0564
1437.00,0.0584
1436.00,0.0601
1435.00,0.0611
1434.00,0.0618
1433.00,0.0622
1432.00,0.0627
1431.00,0.0635
1430.00,0.0646
1429.00,0.0663
1428.00,0.0683
1427.00,0.0706
1426.00,0.0730
1425.00,0.0755
1424.00,0.0778
1423.00,0.0794
1422.00,0.0800
1421.00,0.0797
1420.00,0.0781
1419.00,0.0751
1418.00,0.0712
1417.00,0.0671
1416.00,0.0628
1415.00,0.0583
1414.00,0.0538
1413.00,0.0496
1412.00,0.0456
1411.00,0.0420
1410.00,0.0388
1409.00,0.0361
1408.00,0.0337
1407.00,0.0316
1406.00,0.0298
1405.00,0.0282
1404.00,0.0268
1403.00,0.0256
1402.00,0.0246
1401.00,0.0237
1400.00,0.0229
1399.00,0.0222
1398.00,0.0217
1397.00,0.0213
1396.00,0.0210
1395.00,0.0208
1394.00,0.0206
1393.00,0.0205
1392.00,0.0205
1391.00,0.0206
1390.00,0.0209
1389.00,0.0213
1388.00,0.0217
1387.00,0.0223
1386.00,0.0229
1385.00,0.0235
1384.00,0.0240
1383.00,0.0246
1382.00,0.0251
1381.00,0.0257
1380.00,0.0262
1379.00,0.0268
1378.00,0.0273
1377.00,0.0279
1376.00,0.0285
1375.00,0.0290
1374.00,0.0295
1373.00,0.0298
1372.00,0.0299
1371.00,0.0298
1370.00,0.0296
1369.00,0.0293
1368.00,0.0288
1367.00,0.0282
1366.00,0.0275
1365.00,0.0268
1364.00,0.0261
1363.00,0.0252
1362.00,0.0243
1361.00,0.0235
1360.00,0.0226
1359.00,0.0218
1358.00,0.0211
1357.00,0.0205
1356.00,0.0198
1355.00,0.0193
1354.00,0.0188
1353.00,0.0183
1352.00,0.0179
1351.00,0.0175
1350.00,0.0172
1349.00,0.0169
1348.00,0.0167
1347.00,0.0165
1346.00,0.0163
1345.00,0.0162
1344.00,0.0161
1343.00,0.0161
1342.00,0.0161
1341.00,0.0163
1340.00,0.0165
1339.00,0.0166
1338.00,0.0168
1337.00,0.0170
1336.00,0.0172
1335.00,0.0174
1334.00,0.0178
1333.00,0.0182
1332.00,0.0187
1331.00,0.0194
1330.00,0.0201
1329.00,0.0210
1328.00,0.0220
1327.00,0.0230
1326.00,0.0242
1325.00,0.0254
1324.00,0.0266
1323.00,0.0278
1322.00,0.0290
1321.00,0.0301
1320.00,0.0311
1319.00,0.0319
1318.00,0.0324
1317.00,0.0327
1316.00,0.0327
1315.00,0.0325
1314.00,0.0321
1313.00,0.0315
1312.00,0.0308
1311.00,0.0300
1310.00,0.0294
1309.00,0.0288
1308.00,0.0284
1307.00,0.0282
1306.00,0.0283
1305.00,0.0287
1304.00,0.0293
1303.00,0.0303
1302.00,0.0317
1301.00,0.0336
1300.00,0.0360
1299.00,0.0390
1298.00,0.0425
1297.00,0.0465
1296.00,0.0510
1295.00,0.0557
1294.00,0.0606
1293.00,0.0655
1292.00,0.0702
1291.00,0.0746
1290.00,0.0784
1289.00,0.0816
1288.00,0.0840
1287.00,0.0856
1286.00,0.0864
1285.00,0.0863
1284.00,0.0856
1283.00,0.0844
1282.00,0.0830
1281.00,0.0815
1280.00,0.0803
1279.00,0.0795
1278.00,0.0792
1277.00,0.0793
1276.00,0.0799
1275.00,0.0806
1274.00,0.0814
1273.00,0.0821
1272.00,0.0824
1271.00,0.0823
1270.00,0.0817
1269.00,0.0806
1268.00,0.0790
1267.00,0.0770
1266.00,0.0746
1265.00,0.0720
1264.00,0.0691
1263.00,0.0663
1262.00,0.0634
1261.00,0.0606
1260.00,0.0579
1259.00,0.0554
1258.00,0.0531
1257.00,0.0509
1256.00,0.0489
1255.00,0.0471
1254.00,0.0455
1253.00,0.0440
1252.00,0.0426
1251.00,0.0414
1250.00,0.0404
1249.00,0.0395
1248.00,0.0388
1247.00,0.0381
1246.00,0.0376
1245.00,0.0372
1244.00,0.0369
1243.00,0.0367
1242.00,0.0366
1241.00,0.0366
1240.00,0.0367
1239.00,0.0370
1238.00,0.0374
1237.00,0.0379
1236.00,0.0384
1235.00,0.0391
1234.00,0.0398
1233.00,0.0404
1232.00,0.0409
1231.00,0.0414
1230.00,0.0417
1229.00,0.0419
1228.00,0.0419
1227.00,0.0418
1226.00,0.0417
1225.00,0.0415
1224.00,0.0413
1223.00,0.0411
1222.00,0.0409
1221.00,0.0408
1220.00,0.0406
1219.00,0.0404
1218.00,0.0401
1217.00,0.0399
1216.00,0.0395
1215.00,0.0391
1214.00,0.0387
1213.00,0.0383
1212.00,0.0378
1211.00,0.0373
1210.00,0.0368
1209.00,0.0363
1208.00,0.0358
1207.00,0.0352
1206.00,0.0347
1205.00,0.0343
1204.00,0.0338
1203.00,0.0333
1202.00,0.0329
1201.00,0.0325
1200.00,0.0321
1199.00,0.0317
1198.00,0.0313
1197.00,0.0310
1196.00,0.0307
1195.00,0.0304
1194.00,0.0301
1193.00,0.0299
1192.00,0.0296
1191.00,0.0294
1190.00,0.0291
1189.00,0.0290
1188.00,0.0288
1187.00,0.0286
1186.00,0.0285
1185.00,0.0284
1184.00,0.0283
1183.00,0.0282
1182.00,0.0283
1181.00,0.0283
1180.00,0.0284
1179.00,0.0285
1178.00,0.0287
1177.00,0.0290
1176.00,0.0293
1175.00,0.0296
1174.00,0.0301
1173.00,0.0306
1172.00,0.0311
1171.00,0.0316
1170.00,0.0319
1169.00,0.0321
1168.00,0.0322
1167.00,0.0321
1166.00,0.0320
1165.00,0.0317
1164.00,0.0313
1163.00,0.0309
1162.00,0.0304
1161.00,0.0299
1160.00,0.0293
1159.00,0.0287
1158.00,0.0282
1157.00,0.0277
1156.00,0.0271
1155.00,0.0266
1154.00,0.0261
1153.00,0.0255
1152.00,0.0250
1151.00,0.0245
1150.00,0.0241
1149.00,0.0239
1148.00,0.0237
1147.00,0.0236
1146.00,0.0235
1145.00,0.0234
1144.00,0.0232
1143.00,0.0230
1142.00,0.0227
1141.00,0.0225
1140.00,0.0222
1139.00,0.0219
1138.00,0.0216
1137.00,0.0214
1136.00,0.0212
1135.00,0.0210
1134.00,0.0209
1133.00,0.0208
1132.00,0.0207
1131.00,0.0206
1130.00,0.0206
1129.00,0.0207
1128.00,0.0207
1127.00,0.0208
1126.00,0.0209
1125.00,0.0209
1124.00,0.0209
1123.00,0.0210
1122.00,0.0210
1121.00,0.0211
1120.00,0.0211
1119.00,0.0211
1118.00,0.0211
1117.00,0.0212
1116.00,0.0212
1115.00,0.0212
1114.00,0.0212
1113.00,0.0212
1112.00,0.0212
1111.00,0.0212
1110.00,0.0212
1109.00,0.0212
1108.00,0.0212
1107.00,0.0211
1106.00,0.0211
1105.00,0.0211
1104.00,0.0211
1103.00,0.0210
1102.00,0.0211
1101.00,0.0210
1100.00,0.0210
1099.00,0.0210
1098.00,0.0210
1097.00,0.0211
1096.00,0.0211
1095.00,0.0211
1094.00,0.0211
1093.00,0.0211
1092.00,0.0210
1091.00,0.0210
1090.00,0.0210
1089.00,0.0210
1088.00,0.0210
1087.00,0.0210
1086.00,0.0210
1085.00,0.0210
1084.00,0.0210
1083.00,0.0210
1082.00,0.0211
1081.00,0.0212
1080.00,0.0213
1079.00,0.0215
1078.00,0.0217
1077.00,0.0218
1076.00,0.0219
1075.00,0.0220
1074.00,0.0220
1073.00,0.0220
1072.00,0.0218
1071.00,0.0216
1070.00,0.0214
1069.00,0.0211
1068.00,0.0208
1067.00,0.0206
1066.00,0.0204
1065.00,0.0202
1064.00,0.0200
1063.00,0.0199
1062.00,0.0198
1061.00,0.0197
1060.00,0.0196
1059.00,0.0194
1058.00,0.0193
1057.00,0.0191
1056.00,0.0188
1055.00,0.0185
1054.00,0.0182
1053.00,0.0180
1052.00,0.0179
1051.00,0.0179
1050.00,0.0180
1049.00,0.0183
1048.00,0.0185
1047.00,0.0188
1046.00,0.0190
1045.00,0.0192
1044.00,0.0192
1043.00,0.0191
1042.00,0.0191
1041.00,0.0191
1040.00,0.0190
1039.00,0.0190
1038.00,0.0190
1037.00,0.0191
1036.00,0.0190
1035.00,0.0189
1034.00,0.0189
1033.00,0.0187
1032.00,0.0185
1031.00,0.0183
1030.00,0.0181
1029.00,0.0180
1028.00,0.0179
1027.00,0.0180
1026.00,0.0183
1025.00,0.0187
1024.00,0.0193
1023.00,0.0200
1022.00,0.0208
1021.00,0.0215
1020.00,0.0219
1019.00,0.0223
1018.00,0.0225
1017.00,0.0225
1016.00,0.0224
1015.00,0.0222
1014.00,0.0219
1013.00,0.0215
1012.00,0.0210
1011.00,0.0206
1010.00,0.0204
1009.00,0.0202
1008.00,0.0201
1007.00,0.0203
1006.00,0.0206
1005.00,0.0211
1004.00,0.0214
1003.00,0.0218
1002.00,0.0220
1001.00,0.0220
1000.00,0.0218
999.00,0.0215
998.00,0.0212
997.00,0.0208
996.00,0.0204
995.00,0.0200
994.00,0.0197
993.00,0.0194
992.00,0.0191
991.00,0.0188
990.00,0.0186
989.00,0.0184
988.00,0.0182
987.00,0.0181
986.00,0.0180
985.00,0.0180
984.00,0.0179
983.00,0.0178
982.00,0.0177
981.00,0.0176
980.00,0.0175
979.00,0.0173
978.00,0.0172
977.00,0.0171
976.00,0.0170
975.00,0.0168
974.00,0.0167
973.00,0.0166
972.00,0.0165
971.00,0.0164
970.00,0.0163
969.00,0.0162
968.00,0.0160
967.00,0.0159
966.00,0.0158
965.00,0.0157
964.00,0.0156
963.00,0.0155
962.00,0.0155
961.00,0.0154
960.00,0.0153
959.00,0.0153
958.00,0.0153
957.00,0.0153
956.00,0.0153
955.00,0.0153
954.00,0.0154
953.00,0.0155
952.00,0.0155
951.00,0.0155
950.00,0.0155
949.00,0.0156
948.00,0.0156
947.00,0.0157
946.00,0.0158
945.00,0.0160
944.00,0.0161
943.00,0.0163
942.00,0.0166
941.00,0.0170
940.00,0.0173
939.00,0.0178
938.00,0.0183
937.00,0.0189
936.00,0.0193
935.00,0.0198
934.00,0.0201
933.00,0.0203
932.00,0.0201
931.00,0.0199
930.00,0.0196
929.00,0.0193
928.00,0.0190
927.00,0.0187
926.00,0.0186
925.00,0.0184
924.00,0.0182
923.00,0.0180
922.00,0.0179
921.00,0.0177
920.00,0.0175
919.00,0.0174
918.00,0.0173
917.00,0.0172
916.00,0.0171
915.00,0.0170
914.00,0.0170
913.00,0.0170
912.00,0.0170
911.00,0.0169
910.00,0.0170
909.00,0.0170
908.00,0.0169
907.00,0.0169
906.00,0.0169
905.00,0.0169
904.00,0.0170
903.00,0.0171
902.00,0.0173
901.00,0.0175
900.00,0.0176
899.00,0.0178
898.00,0.0179
897.00,0.0180
896.00,0.0180
895.00,0.0179
894.00,0.0178
893.00,0.0176
892.00,0.0173
891.00,0.0169
890.00,0.0167
889.00,0.0164
888.00,0.0161
887.00,0.0160
886.00,0.0159
885.00,0.0159
884.00,0.0159
883.00,0.0159
882.00,0.0161
881.00,0.0162
880.00,0.0162
879.00,0.0163
878.00,0.0164
877.00,0.0164
876.00,0.0164
875.00,0.0164
874.00,0.0164
873.00,0.0165
872.00,0.0166
871.00,0.0166
870.00,0.0168
869.00,0.0168
868.00,0.0169
867.00,0.0169
866.00,0.0171
865.00,0.0173
864.00,0.0175
863.00,0.0178
862.00,0.0183
861.00,0.0188
860.00,0.0193
859.00,0.0199
858.00,0.0205
857.00,0.0211
856.00,0.0217
855.00,0.0224
854.00,0.0231
853.00,0.0238
852.00,0.0245
851.00,0.0251
850.00,0.0257
849.00,0.0262
848.00,0.0266
847.00,0.0269
846.00,0.0272
845.00,0.0273
844.00,0.0273
843.00,0.0273
842.00,0.0271
841.00,0.0269
840.00,0.0266
839.00,0.0262
838.00,0.0259
837.00,0.0254
836.00,0.0249
835.00,0.0245
834.00,0.0240
833.00,0.0236
832.00,0.0232
831.00,0.0227
830.00,0.0223
829.00,0.0220
828.00,0.0216
827.00,0.0212
826.00,0.0209
825.00,0.0206
824.00,0.0203
823.00,0.0201
822.00,0.0199
821.00,0.0197
820.00,0.0195
819.00,0.0193
818.00,0.0192
817.00,0.0192
816.00,0.0190
815.00,0.0189
814.00,0.0188
813.00,0.0187
812.00,0.0186
811.00,0.0185
810.00,0.0185
809.00,0.0185
808.00,0.0184
807.00,0.0184
806.00,0.0183
805.00,0.0182
804.00,0.0181
803.00,0.0181
802.00,0.0181
801.00,0.0183
800.00,0.0183
799.00,0.0184
798.00,0.0185
797.00,0.0186
796.00,0.0187
795.00,0.0187
794.00,0.0188
793.00,0.0189
792.00,0.0189
791.00,0.0191
790.00,0.0193
789.00,0.0195
788.00,0.0196
787.00,0.0197
786.00,0.0199
785.00,0.0199
784.00,0.0200
783.00,0.0201
782.00,0.0203
781.00,0.0204
780.00,0.0205
779.00,0.0206
778.00,0.0207
777.00,0.0209
776.00,0.0211
775.00,0.0213
774.00,0.0215
773.00,0.0217
772.00,0.0219
771.00,0.0221
770.00,0.0223
769.00,0.0226
768.00,0.0228
767.00,0.0230
766.00,0.0233
765.00,0.0236
764.00,0.0240
763.00,0.0243
762.00,0.0248
761.00,0.0252
760.00,0.0255
759.00,0.0258
758.00,0.0262
757.00,0.0267
756.00,0.0270
755.00,0.0274
754.00,0.0279
753.00,0.0283
752.00,0.0288
751.00,0.0292
750.00,0.0297
749.00,0.0302
748.00,0.0307
747.00,0.0312
746.00,0.0318
745.00,0.0323
744.00,0.0327
743.00,0.0332
742.00,0.0338
741.00,0.0343
740.00,0.0347
739.00,0.0351
738.00,0.0356
737.00,0.0359
736.00,0.0362
735.00,0.0364
734.00,0.0365
733.00,0.0366
732.00,0.0364
731.00,0.0360
730.00,0.0356
729.00,0.0352
728.00,0.0347
727.00,0.0342
726.00,0.0338
725.00,0.0334
724.00,0.0330
723.00,0.0326
722.00,0.0323
721.00,0.0320
720.00,0.0317
719.00,0.0316
718.00,0.0315
717.00,0.0315
716.00,0.0314
715.00,0.0313
714.00,0.0313
713.00,0.0313
712.00,0.0312
711.00,0.0312
710.00,0.0313
709.00,0.0313
708.00,0.0313
707.00,0.0314
706.00,0.0315
705.00,0.0317
704.00,0.0317
703.00,0.0318
702.00,0.0320
701.00,0.0321
700.00,0.0322
699.00,0.0324
698.00,0.0327
697.00,0.0330
696.00,0.0332
695.00,0.0334
694.00,0.0337
693.00,0.0339
692.00,0.0341
691.00,0.0343
690.00,0.0347
689.00,0.0350
688.00,0.0353
687.00,0.0357
686.00,0.0361
685.00,0.0365
684.00,0.0368
683.00,0.0372
682.00,0.0376
681.00,0.0380
680.00,0.0383
679.00,0.0386
678.00,0.0390
677.00,0.0394
676.00,0.0397
675.00,0.0401
674.00,0.0405
673.00,0.0409
672.00,0.0413
671.00,0.0418
670.00,0.0425
669.00,0.0434
668.00,0.0444
667.00,0.0452
666.00,0.0457
665.00,0.0460
664.00,0.0465
663.00,0.0472
662.00,0.0480
661.00,0.0488
660.00,0.0496
659.00,0.0505
658.00,0.0514
657.00,0.0523
656.00,0.0532
655.00,0.0540
654.00,0.0549
653.00,0.0558
652.00,0.0565
651.00,0.0572
650.00,0.0578
649.00,0.0582
648.00,0.0584
647.00,0.0585
646.00,0.0585
645.00,0.0585
644.00,0.0582
643.00,0.0579
642.00,0.0576
641.00,0.0572
640.00,0.0567
639.00,0.0562
638.00,0.0558
637.00,0.0554
636.00,0.0549
635.00,0.0544
634.00,0.0540
633.00,0.0537
632.00,0.0533
631.00,0.0529
630.00,0.0527
629.00,0.0526
628.00,0.0523
627.00,0.0521
626.00,0.0520
625.00,0.0518
624.00,0.0516
623.00,0.0514
622.00,0.0513
621.00,0.0513
620.00,0.0512
619.00,0.0511
618.00,0.0511
617.00,0.0513
616.00,0.0514
615.00,0.0514
614.00,0.0515
613.00,0.0516
612.00,0.0518
611.00,0.0523
610.00,0.0527
609.00,0.0526
608.00,0.0522
607.00,0.0517
606.00,0.0516
605.00,0.0517
604.00,0.0518
603.00,0.0519
602.00,0.0521
601.00,0.0523
600.00,0.0523
599.00,0.0524
598.00,0.0526
597.00,0.0528
596.00,0.0530
595.00,0.0533
594.00,0.0537
593.00,0.0542
592.00,0.0546
591.00,0.0551
590.00,0.0556
589.00,0.0562
588.00,0.0567
587.00,0.0573
586.00,0.0580
585.00,0.0588
584.00,0.0596
583.00,0.0604
582.00,0.0614
581.00,0.0622
580.00,0.0629
579.00,0.0635
578.00,0.0643
577.00,0.0650
576.00,0.0654
575.00,0.0657
574.00,0.0660
573.00,0.0662
572.00,0.0663
571.00,0.0663
570.00,0.0664
569.00,0.0664
568.00,0.0661
567.00,0.0658
566.00,0.0656
565.00,0.0653
564.00,0.0647
563.00,0.0641
562.00,0.0638
561.00,0.0635
560.00,0.0631
559.00,0.0626
558.00,0.0624
557.00,0.0622
556.00,0.0619
555.00,0.0615
554.00,0.0614
553.00,0.0612
552.00,0.0609
551.00,0.0606
550.00,0.0607
549.00,0.0607
548.00,0.0605
547.00,0.0603
546.00,0.0601
545.00,0.0599
544.00,0.0596
543.00,0.0594
542.00,0.0594
541.00,0.0593
540.00,0.0592
539.00,0.0591
538.00,0.0593
537.00,0.0595
536.00,0.0594
535.00,0.0592
534.00,0.0592
533.00,0.0592
532.00,0.0590
531.00,0.0590
530.00,0.0592
529.00,0.0594
528.00,0.0594
527.00,0.0593
526.00,0.0594
525.00,0.0595
524.00,0.0593
523.00,0.0592
522.00,0.0594
521.00,0.0596
520.00,0.0597
519.00,0.0597
518.00,0.0598
517.00,0.0598
516.00,0.0596
515.00,0.0595
514.00,0.0597
513.00,0.0599
512.00,0.0598
511.00,0.0598
510.00,0.0601
509.00,0.0604
508.00,0.0604
507.00,0.0604
506.00,0.0605
505.00,0.0606
504.00,0.0606
503.00,0.0607
502.00,0.0610
501.00,0.0610
500.00,0.0607
499.00,0.0603
498.00,0.0604
497.00,0.0606
496.00,0.0605
495.00,0.0604
494.00,0.0606
493.00,0.0608
492.00,0.0607
491.00,0.0606
490.00,0.0609
489.00,0.0613
488.00,0.0614
487.00,0.0614
486.00,0.0617
485.00,0.0618
484.00,0.0618
483.00,0.0618
482.00,0.0621
481.00,0.0623
480.00,0.0623
479.00,0.0623
478.00,0.0626
477.00,0.0629
476.00,0.0628
475.00,0.0627
474.00,0.0629
473.00,0.0631
472.00,0.0631
471.00,0.0630
470.00,0.0632
469.00,0.0631
468.00,0.0625
467.00,0.0620
466.00,0.0622
465.00,0.0625
464.00,0.0626
463.00,0.0629
462.00,0.0636
461.00,0.0640
460.00,0.0635
459.00,0.0630
458.00,0.0627
457.00,0.0623
456.00,0.0615
455.00,0.0611
454.00,0.0614
453.00,0.0615
452.00,0.0610
451.00,0.0604
450.00,0.0602
449.00,0.0602
448.00,0.0598
447.00,0.0596
446.00,0.0599
445.00,0.0600
444.00,0.0594
443.00,0.0589
442.00,0.0588
441.00,0.0587
440.00,0.0581
439.00,0.0578
438.00,0.0582
437.00,0.0585
436.00,0.0581
435.00,0.0575
434.00,0.0571
433.00,0.0565
432.00,0.0555
431.00,0.0549
430.00,0.0550
429.00,0.0551
428.00,0.0546
427.00,0.0543
426.00,0.0547
425.00,0.0551
424.00,0.0548
423.00,0.0542
422.00,0.0544
421.00,0.0548
420.00,0.0544
419.00,0.0539
418.00,0.0542
417.00,0.0542
416.00,0.0534
415.00,0.0527
414.00,0.0528
413.00,0.0529
412.00,0.0523
411.00,0.0521
410.00,0.0530
409.00,0.0536
408.00,0.0529
407.00,0.0522
406.00,0.0526
405.00,0.0527
404.00,0.0515
403.00,0.0504
402.00,0.0508
401.00,0.0514
400.00,0.0508
