Created as New Dataset,Sample 065 By YargerLab Date Wednesday, August 13 2025
cm-1,A
4000.00,0.0029
3999.00,0.0029
3998.00,0.0029
3997.00,0.0029
3996.00,0.0029
3995.00,0.0029
3994.00,0.0029
3993.00,0.0029
3992.00,0.0029
3991.00,0.0029
3990.00,0.0029
3989.00,0.0029
3988.00,0.0029
3987.00,0.0029
3986.00,0.0029
3985.00,0.0029
3984.00,0.0029
3983.00,0.0029
3982.00,0.0029
3981.00,0.0029
3980.00,0.0029
3979.00,0.0029
3978.00,0.0029
3977.00,0.0029
3976.00,0.0029
3975.00,0.0029
3974.00,0.0029
3973.00,0.0028
3972.00,0.0028
3971.00,0.0029
3970.00,0.0029
3969.00,0.0029
3968.00,0.0029
3967.00,0.0029
3966.00,0.0029
3965.00,0.0029
3964.00,0.0029
3963.00,0.0029
3962.00,0.0029
3961.00,0.0028
3960.00,0.0028
3959.00,0.0028
3958.00,0.0028
3957.00,0.0028
3956.00,0.0028
3955.00,0.0029
3954.00,0.0029
3953.00,0.0029
3952.00,0.0029
3951.00,0.0029
3950.00,0.0029
3949.00,0.0029
3948.00,0.0028
3947.00,0.0028
3946.00,0.0028
3945.00,0.0028
3944.00,0.0028
3943.00,0.0028
3942.00,0.0028
3941.00,0.0028
3940.00,0.0028
3939.00,0.0028
3938.00,0.0028
3937.00,0.0029
3936.00,0.0029
3935.00,0.0029
3934.00,0.0029
3933.00,0.0029
3932.00,0.0029
3931.00,0.0028
3930.00,0.0028
3929.00,0.0028
3928.00,0.0028
3927.00,0.0028
3926.00,0.0028
3925.00,0.0029
3924.00,0.0029
3923.00,0.0029
3922.00,0.0029
3921.00,0.0029
3920.00,0.0028
3919.00,0.0028
3918.00,0.0028
3917.00,0.0028
3916.00,0.0028
3915.00,0.0028
3914.00,0.0028
3913.00,0.0028
3912.00,0.0028
3911.00,0.0029
3910.00,0.0029
3909.00,0.0028
3908.00,0.0028
3907.00,0.0028
3906.00,0.0028
3905.00,0.0027
3904.00,0.0027
3903.00,0.0027
3902.00,0.0027
3901.00,0.0027
3900.00,0.0027
3899.00,0.0027
3898.00,0.0028
3897.00,0.0028
3896.00,0.0028
3895.00,0.0028
3894.00,0.0027
3893.00,0.0027
3892.00,0.0027
3891.00,0.0027
3890.00,0.0027
3889.00,0.0027
3888.00,0.0027
3887.00,0.0027
3886.00,0.0027
3885.00,0.0028
3884.00,0.0028
3883.00,0.0027
3882.00,0.0027
3881.00,0.0027
3880.00,0.0027
3879.00,0.0027
3878.00,0.0027
3877.00,0.0027
3876.00,0.0027
3875.00,0.0027
3874.00,0.0027
3873.00,0.0027
3872.00,0.0027
3871.00,0.0027
3870.00,0.0027
3869.00,0.0027
3868.00,0.0027
3867.00,0.0027
3866.00,0.0027
3865.00,0.0027
3864.00,0.0027
3863.00,0.0027
3862.00,0.0027
3861.00,0.0028
3860.00,0.0028
3859.00,0.0027
3858.00,0.0027
3857.00,0.0027
3856.00,0.0027
3855.00,0.0027
3854.00,0.0026
3853.00,0.0026
3852.00,0.0026
3851.00,0.0026
3850.00,0.0026
3849.00,0.0027
3848.00,0.0027
3847.00,0.0027
3846.00,0.0027
3845.00,0.0028
3844.00,0.0028
3843.00,0.0028
3842.00,0.0027
3841.00,0.0027
3840.00,0.0027
3839.00,0.0027
3838.00,0.0026
3837.00,0.0026
3836.00,0.0026
3835.00,0.0026
3834.00,0.0027
3833.00,0.0027
3832.00,0.0027
3831.00,0.0027
3830.00,0.0027
3829.00,0.0027
3828.00,0.0027
3827.00,0.0027
3826.00,0.0027
3825.00,0.0027
3824.00,0.0027
3823.00,0.0027
3822.00,0.0027
3821.00,0.0027
3820.00,0.0027
3819.00,0.0027
3818.00,0.0027
3817.00,0.0027
3816.00,0.0027
3815.00,0.0027
3814.00,0.0027
3813.00,0.0027
3812.00,0.0027
3811.00,0.0027
3810.00,0.0027
3809.00,0.0027
3808.00,0.0027
3807.00,0.0027
3806.00,0.0027
3805.00,0.0027
3804.00,0.0027
3803.00,0.0026
3802.00,0.0027
3801.00,0.0027
3800.00,0.0027
3799.00,0.0027
3798.00,0.0027
3797.00,0.0027
3796.00,0.0027
3795.00,0.0027
3794.00,0.0028
3793.00,0.0028
3792.00,0.0028
3791.00,0.0028
3790.00,0.0028
3789.00,0.0028
3788.00,0.0028
3787.00,0.0028
3786.00,0.0028
3785.00,0.0028
3784.00,0.0028
3783.00,0.0028
3782.00,0.0027
3781.00,0.0027
3780.00,0.0027
3779.00,0.0027
3778.00,0.0027
3777.00,0.0027
3776.00,0.0027
3775.00,0.0027
3774.00,0.0027
3773.00,0.0028
3772.00,0.0028
3771.00,0.0028
3770.00,0.0028
3769.00,0.0028
3768.00,0.0028
3767.00,0.0028
3766.00,0.0028
3765.00,0.0028
3764.00,0.0028
3763.00,0.0028
3762.00,0.0028
3761.00,0.0028
3760.00,0.0028
3759.00,0.0028
3758.00,0.0028
3757.00,0.0028
3756.00,0.0028
3755.00,0.0027
3754.00,0.0027
3753.00,0.0027
3752.00,0.0027
3751.00,0.0028
3750.00,0.0028
3749.00,0.0028
3748.00,0.0028
3747.00,0.0027
3746.00,0.0027
3745.00,0.0027
3744.00,0.0027
3743.00,0.0027
3742.00,0.0026
3741.00,0.0026
3740.00,0.0026
3739.00,0.0027
3738.00,0.0027
3737.00,0.0027
3736.00,0.0027
3735.00,0.0027
3734.00,0.0026
3733.00,0.0026
3732.00,0.0026
3731.00,0.0026
3730.00,0.0027
3729.00,0.0027
3728.00,0.0027
3727.00,0.0027
3726.00,0.0027
3725.00,0.0027
3724.00,0.0027
3723.00,0.0027
3722.00,0.0027
3721.00,0.0026
3720.00,0.0026
3719.00,0.0026
3718.00,0.0027
3717.00,0.0027
3716.00,0.0027
3715.00,0.0027
3714.00,0.0027
3713.00,0.0027
3712.00,0.0027
3711.00,0.0027
3710.00,0.0026
3709.00,0.0026
3708.00,0.0026
3707.00,0.0026
3706.00,0.0026
3705.00,0.0026
3704.00,0.0026
3703.00,0.0026
3702.00,0.0026
3701.00,0.0027
3700.00,0.0027
3699.00,0.0027
3698.00,0.0027
3697.00,0.0027
3696.00,0.0027
3695.00,0.0027
3694.00,0.0027
3693.00,0.0028
3692.00,0.0028
3691.00,0.0028
3690.00,0.0028
3689.00,0.0029
3688.00,0.0030
3687.00,0.0031
3686.00,0.0032
3685.00,0.0032
3684.00,0.0033
3683.00,0.0033
3682.00,0.0034
3681.00,0.0034
3680.00,0.0034
3679.00,0.0034
3678.00,0.0034
3677.00,0.0034
3676.00,0.0034
3675.00,0.0034
3674.00,0.0034
3673.00,0.0035
3672.00,0.0035
3671.00,0.0035
3670.00,0.0036
3669.00,0.0036
3668.00,0.0037
3667.00,0.0037
3666.00,0.0037
3665.00,0.0038
3664.00,0.0038
3663.00,0.0039
3662.00,0.0039
3661.00,0.0040
3660.00,0.0040
3659.00,0.0040
3658.00,0.0039
3657.00,0.0039
3656.00,0.0039
3655.00,0.0039
3654.00,0.0040
3653.00,0.0040
3652.00,0.0040
3651.00,0.0040
3650.00,0.0041
3649.00,0.0042
3648.00,0.0043
3647.00,0.0043
3646.00,0.0044
3645.00,0.0045
3644.00,0.0046
3643.00,0.0047
3642.00,0.0047
3641.00,0.0048
3640.00,0.0049
3639.00,0.0049
3638.00,0.0050
3637.00,0.0050
3636.00,0.0050
3635.00,0.0051
3634.00,0.0051
3633.00,0.0051
3632.00,0.0051
3631.00,0.0051
3630.00,0.0052
3629.00,0.0052
3628.00,0.0053
3627.00,0.0054
3626.00,0.0055
3625.00,0.0055
3624.00,0.0055
3623.00,0.0055
3622.00,0.0056
3621.00,0.0056
3620.00,0.0056
3619.00,0.0057
3618.00,0.0057
3617.00,0.0058
3616.00,0.0059
3615.00,0.0059
3614.00,0.0060
3613.00,0.0061
3612.00,0.0061
3611.00,0.0062
3610.00,0.0062
3609.00,0.0062
3608.00,0.0063
3607.00,0.0063
3606.00,0.0064
3605.00,0.0065
3604.00,0.0065
3603.00,0.0066
3602.00,0.0066
3601.00,0.0067
3600.00,0.0068
3599.00,0.0069
3598.00,0.0069
3597.00,0.0070
3596.00,0.0070
3595.00,0.0071
3594.00,0.0072
3593.00,0.0072
3592.00,0.0073
3591.00,0.0073
3590.00,0.0073
3589.00,0.0074
3588.00,0.0075
3587.00,0.0076
3586.00,0.0077
3585.00,0.0078
3584.00,0.0079
3583.00,0.0080
3582.00,0.0080
3581.00,0.0081
3580.00,0.0082
3579.00,0.0082
3578.00,0.0083
3577.00,0.0083
3576.00,0.0084
3575.00,0.0085
3574.00,0.0085
3573.00,0.0086
3572.00,0.0086
3571.00,0.0087
3570.00,0.0088
3569.00,0.0088
3568.00,0.0090
3567.00,0.0091
3566.00,0.0092
3565.00,0.0093
3564.00,0.0093
3563.00,0.0093
3562.00,0.0094
3561.00,0.0095
3560.00,0.0095
3559.00,0.0096
3558.00,0.0097
3557.00,0.0097
3556.00,0.0098
3555.00,0.0099
3554.00,0.0100
3553.00,0.0101
3552.00,0.0101
3551.00,0.0102
3550.00,0.0103
3549.00,0.0103
3548.00,0.0104
3547.00,0.0105
3546.00,0.0106
3545.00,0.0107
3544.00,0.0107
3543.00,0.0108
3542.00,0.0108
3541.00,0.0109
3540.00,0.0109
3539.00,0.0110
3538.00,0.0110
3537.00,0.0111
3536.00,0.0112
3535.00,0.0112
3534.00,0.0113
3533.00,0.0113
3532.00,0.0114
3531.00,0.0114
3530.00,0.0115
3529.00,0.0116
3528.00,0.0116
3527.00,0.0117
3526.00,0.0118
3525.00,0.0119
3524.00,0.0119
3523.00,0.0120
3522.00,0.0120
3521.00,0.0120
3520.00,0.0121
3519.00,0.0122
3518.00,0.0122
3517.00,0.0123
3516.00,0.0124
3515.00,0.0125
3514.00,0.0125
3513.00,0.0125
3512.00,0.0126
3511.00,0.0126
3510.00,0.0126
3509.00,0.0127
3508.00,0.0127
3507.00,0.0128
3506.00,0.0128
3505.00,0.0129
3504.00,0.0130
3503.00,0.0130
3502.00,0.0131
3501.00,0.0131
3500.00,0.0132
3499.00,0.0133
3498.00,0.0133
3497.00,0.0134
3496.00,0.0135
3495.00,0.0135
3494.00,0.0136
3493.00,0.0136
3492.00,0.0137
3491.00,0.0138
3490.00,0.0138
3489.00,0.0139
3488.00,0.0139
3487.00,0.0139
3486.00,0.0140
3485.00,0.0140
3484.00,0.0140
3483.00,0.0141
3482.00,0.0141
3481.00,0.0141
3480.00,0.0142
3479.00,0.0143
3478.00,0.0143
3477.00,0.0144
3476.00,0.0145
3475.00,0.0145
3474.00,0.0145
3473.00,0.0145
3472.00,0.0146
3471.00,0.0146
3470.00,0.0147
3469.00,0.0147
3468.00,0.0148
3467.00,0.0148
3466.00,0.0148
3465.00,0.0149
3464.00,0.0149
3463.00,0.0149
3462.00,0.0150
3461.00,0.0150
3460.00,0.0151
3459.00,0.0151
3458.00,0.0151
3457.00,0.0151
3456.00,0.0151
3455.00,0.0151
3454.00,0.0151
3453.00,0.0152
3452.00,0.0152
3451.00,0.0152
3450.00,0.0153
3449.00,0.0153
3448.00,0.0154
3447.00,0.0154
3446.00,0.0154
3445.00,0.0155
3444.00,0.0155
3443.00,0.0155
3442.00,0.0156
3441.00,0.0156
3440.00,0.0156
3439.00,0.0156
3438.00,0.0157
3437.00,0.0157
3436.00,0.0157
3435.00,0.0158
3434.00,0.0158
3433.00,0.0158
3432.00,0.0158
3431.00,0.0159
3430.00,0.0159
3429.00,0.0159
3428.00,0.0160
3427.00,0.0160
3426.00,0.0160
3425.00,0.0160
3424.00,0.0160
3423.00,0.0161
3422.00,0.0161
3421.00,0.0162
3420.00,0.0162
3419.00,0.0162
3418.00,0.0163
3417.00,0.0163
3416.00,0.0163
3415.00,0.0163
3414.00,0.0163
3413.00,0.0163
3412.00,0.0164
3411.00,0.0164
3410.00,0.0165
3409.00,0.0165
3408.00,0.0165
3407.00,0.0165
3406.00,0.0165
3405.00,0.0166
3404.00,0.0166
3403.00,0.0166
3402.00,0.0167
3401.00,0.0167
3400.00,0.0167
3399.00,0.0168
3398.00,0.0168
3397.00,0.0168
3396.00,0.0168
3395.00,0.0168
3394.00,0.0168
3393.00,0.0168
3392.00,0.0169
3391.00,0.0169
3390.00,0.0170
3389.00,0.0171
3388.00,0.0171
3387.00,0.0172
3386.00,0.0173
3385.00,0.0173
3384.00,0.0173
3383.00,0.0173
3382.00,0.0173
3381.00,0.0173
3380.00,0.0174
3379.00,0.0174
3378.00,0.0174
3377.00,0.0175
3376.00,0.0175
3375.00,0.0176
3374.00,0.0176
3373.00,0.0176
3372.00,0.0176
3371.00,0.0175
3370.00,0.0175
3369.00,0.0175
3368.00,0.0176
3367.00,0.0177
3366.00,0.0178
3365.00,0.0179
3364.00,0.0180
3363.00,0.0180
3362.00,0.0181
3361.00,0.0181
3360.00,0.0182
3359.00,0.0183
3358.00,0.0184
3357.00,0.0184
3356.00,0.0185
3355.00,0.0185
3354.00,0.0185
3353.00,0.0184
3352.00,0.0184
3351.00,0.0183
3350.00,0.0184
3349.00,0.0185
3348.00,0.0187
3347.00,0.0187
3346.00,0.0188
3345.00,0.0188
3344.00,0.0188
3343.00,0.0188
3342.00,0.0188
3341.00,0.0188
3340.00,0.0188
3339.00,0.0188
3338.00,0.0189
3337.00,0.0190
3336.00,0.0191
3335.00,0.0193
3334.00,0.0194
3333.00,0.0194
3332.00,0.0195
3331.00,0.0195
3330.00,0.0196
3329.00,0.0195
3328.00,0.0195
3327.00,0.0195
3326.00,0.0195
3325.00,0.0196
3324.00,0.0197
3323.00,0.0198
3322.00,0.0199
3321.00,0.0200
3320.00,0.0201
3319.00,0.0201
3318.00,0.0202
3317.00,0.0202
3316.00,0.0203
3315.00,0.0203
3314.00,0.0204
3313.00,0.0204
3312.00,0.0204
3311.00,0.0203
3310.00,0.0202
3309.00,0.0202
3308.00,0.0201
3307.00,0.0201
3306.00,0.0202
3305.00,0.0203
3304.00,0.0205
3303.00,0.0207
3302.00,0.0209
3301.00,0.0210
3300.00,0.0210
3299.00,0.0210
3298.00,0.0209
3297.00,0.0209
3296.00,0.0209
3295.00,0.0210
3294.00,0.0210
3293.00,0.0211
3292.00,0.0212
3291.00,0.0214
3290.00,0.0215
3289.00,0.0216
3288.00,0.0216
3287.00,0.0217
3286.00,0.0217
3285.00,0.0218
3284.00,0.0218
3283.00,0.0219
3282.00,0.0219
3281.00,0.0219
3280.00,0.0220
3279.00,0.0220
3278.00,0.0220
3277.00,0.0220
3276.00,0.0220
3275.00,0.0220
3274.00,0.0220
3273.00,0.0220
3272.00,0.0220
3271.00,0.0220
3270.00,0.0220
3269.00,0.0221
3268.00,0.0222
3267.00,0.0222
3266.00,0.0223
3265.00,0.0224
3264.00,0.0224
3263.00,0.0224
3262.00,0.0224
3261.00,0.0224
3260.00,0.0224
3259.00,0.0224
3258.00,0.0224
3257.00,0.0225
3256.00,0.0225
3255.00,0.0226
3254.00,0.0227
3253.00,0.0227
3252.00,0.0227
3251.00,0.0227
3250.00,0.0227
3249.00,0.0227
3248.00,0.0227
3247.00,0.0227
3246.00,0.0227
3245.00,0.0228
3244.00,0.0228
3243.00,0.0229
3242.00,0.0229
3241.00,0.0229
3240.00,0.0229
3239.00,0.0230
3238.00,0.0230
3237.00,0.0230
3236.00,0.0229
3235.00,0.0229
3234.00,0.0229
3233.00,0.0229
3232.00,0.0230
3231.00,0.0230
3230.00,0.0231
3229.00,0.0231
3228.00,0.0231
3227.00,0.0231
3226.00,0.0231
3225.00,0.0231
3224.00,0.0231
3223.00,0.0231
3222.00,0.0231
3221.00,0.0231
3220.00,0.0232
3219.00,0.0232
3218.00,0.0232
3217.00,0.0232
3216.00,0.0231
3215.00,0.0231
3214.00,0.0231
3213.00,0.0231
3212.00,0.0231
3211.00,0.0231
3210.00,0.0231
3209.00,0.0231
3208.00,0.0231
3207.00,0.0230
3206.00,0.0230
3205.00,0.0230
3204.00,0.0230
3203.00,0.0230
3202.00,0.0230
3201.00,0.0230
3200.00,0.0229
3199.00,0.0229
3198.00,0.0229
3197.00,0.0230
3196.00,0.0230
3195.00,0.0230
3194.00,0.0230
3193.00,0.0230
3192.00,0.0230
3191.00,0.0229
3190.00,0.0229
3189.00,0.0229
3188.00,0.0229
3187.00,0.0229
3186.00,0.0229
3185.00,0.0229
3184.00,0.0229
3183.00,0.0229
3182.00,0.0229
3181.00,0.0228
3180.00,0.0228
3179.00,0.0228
3178.00,0.0228
3177.00,0.0228
3176.00,0.0228
3175.00,0.0228
3174.00,0.0228
3173.00,0.0228
3172.00,0.0228
3171.00,0.0227
3170.00,0.0227
3169.00,0.0227
3168.00,0.0227
3167.00,0.0226
3166.00,0.0226
3165.00,0.0226
3164.00,0.0225
3163.00,0.0225
3162.00,0.0225
3161.00,0.0224
3160.00,0.0224
3159.00,0.0224
3158.00,0.0223
3157.00,0.0223
3156.00,0.0222
3155.00,0.0222
3154.00,0.0221
3153.00,0.0221
3152.00,0.0221
3151.00,0.0221
3150.00,0.0220
3149.00,0.0220
3148.00,0.0220
3147.00,0.0219
3146.00,0.0219
3145.00,0.0218
3144.00,0.0218
3143.00,0.0217
3142.00,0.0217
3141.00,0.0217
3140.00,0.0216
3139.00,0.0216
3138.00,0.0216
3137.00,0.0215
3136.00,0.0215
3135.00,0.0215
3134.00,0.0215
3133.00,0.0214
3132.00,0.0214
3131.00,0.0214
3130.00,0.0213
3129.00,0.0213
3128.00,0.0213
3127.00,0.0213
3126.00,0.0213
3125.00,0.0212
3124.00,0.0212
3123.00,0.0212
3122.00,0.0212
3121.00,0.0212
3120.00,0.0211
3119.00,0.0211
3118.00,0.0210
3117.00,0.0210
3116.00,0.0210
3115.00,0.0209
3114.00,0.0208
3113.00,0.0208
3112.00,0.0207
3111.00,0.0206
3110.00,0.0206
3109.00,0.0205
3108.00,0.0205
3107.00,0.0204
3106.00,0.0203
3105.00,0.0203
3104.00,0.0202
3103.00,0.0202
3102.00,0.0201
3101.00,0.0201
3100.00,0.0201
3099.00,0.0200
3098.00,0.0200
3097.00,0.0200
3096.00,0.0200
3095.00,0.0200
3094.00,0.0200
3093.00,0.0200
3092.00,0.0200
3091.00,0.0200
3090.00,0.0200
3089.00,0.0200
3088.00,0.0200
3087.00,0.0200
3086.00,0.0200
3085.00,0.0200
3084.00,0.0200
3083.00,0.0201
3082.00,0.0201
3081.00,0.0201
3080.00,0.0201
3079.00,0.0201
3078.00,0.0201
3077.00,0.0201
3076.00,0.0200
3075.00,0.0200
3074.00,0.0199
3073.00,0.0199
3072.00,0.0198
3071.00,0.0197
3070.00,0.0196
3069.00,0.0195
3068.00,0.0195
3067.00,0.0194
3066.00,0.0193
3065.00,0.0192
3064.00,0.0192
3063.00,0.0191
3062.00,0.0190
3061.00,0.0190
3060.00,0.0189
3059.00,0.0189
3058.00,0.0188
3057.00,0.0187
3056.00,0.0187
3055.00,0.0186
3054.00,0.0186
3053.00,0.0186
3052.00,0.0185
3051.00,0.0185
3050.00,0.0185
3049.00,0.0184
3048.00,0.0184
3047.00,0.0183
3046.00,0.0183
3045.00,0.0183
3044.00,0.0182
3043.00,0.0182
3042.00,0.0181
3041.00,0.0180
3040.00,0.0180
3039.00,0.0180
3038.00,0.0180
3037.00,0.0179
3036.00,0.0179
3035.00,0.0179
3034.00,0.0178
3033.00,0.0178
3032.00,0.0177
3031.00,0.0177
3030.00,0.0176
3029.00,0.0175
3028.00,0.0175
3027.00,0.0174
3026.00,0.0173
3025.00,0.0172
3024.00,0.0171
3023.00,0.0170
3022.00,0.0170
3021.00,0.0169
3020.00,0.0169
3019.00,0.0169
3018.00,0.0169
3017.00,0.0168
3016.00,0.0168
3015.00,0.0168
3014.00,0.0168
3013.00,0.0169
3012.00,0.0169
3011.00,0.0170
3010.00,0.0172
3009.00,0.0173
3008.00,0.0175
3007.00,0.0177
3006.00,0.0179
3005.00,0.0182
3004.00,0.0185
3003.00,0.0188
3002.00,0.0192
3001.00,0.0196
3000.00,0.0201
2999.00,0.0206
2998.00,0.0212
2997.00,0.0218
2996.00,0.0225
2995.00,0.0232
2994.00,0.0240
2993.00,0.0248
2992.00,0.0256
2991.00,0.0265
2990.00,0.0273
2989.00,0.0282
2988.00,0.0290
2987.00,0.0299
2986.00,0.0306
2985.00,0.0313
2984.00,0.0319
2983.00,0.0325
2982.00,0.0330
2981.00,0.0335
2980.00,0.0340
2979.00,0.0345
2978.00,0.0349
2977.00,0.0352
2976.00,0.0355
2975.00,0.0357
2974.00,0.0359
2973.00,0.0361
2972.00,0.0363
2971.00,0.0366
2970.00,0.0370
2969.00,0.0374
2968.00,0.0378
2967.00,0.0383
2966.00,0.0387
2965.00,0.0392
2964.00,0.0397
2963.00,0.0403
2962.00,0.0408
2961.00,0.0414
2960.00,0.0419
2959.00,0.0424
2958.00,0.0429
2957.00,0.0433
2956.00,0.0436
2955.00,0.0439
2954.00,0.0440
2953.00,0.0441
2952.00,0.0440
2951.00,0.0438
2950.00,0.0436
2949.00,0.0433
2948.00,0.0431
2947.00,0.0429
2946.00,0.0427
2945.00,0.0426
2944.00,0.0426
2943.00,0.0427
2942.00,0.0428
2941.00,0.0430
2940.00,0.0433
2939.00,0.0436
2938.00,0.0440
2937.00,0.0444
2936.00,0.0448
2935.00,0.0452
2934.00,0.0456
2933.00,0.0460
2932.00,0.0464
2931.00,0.0467
2930.00,0.0470
2929.00,0.0472
2928.00,0.0473
2927.00,0.0473
2926.00,0.0471
2925.00,0.0469
2924.00,0.0466
2923.00,0.0463
2922.00,0.0459
2921.00,0.0455
2920.00,0.0450
2919.00,0.0445
2918.00,0.0440
2917.00,0.0434
2916.00,0.0427
2915.00,0.0421
2914.00,0.0414
2913.00,0.0407
2912.00,0.0400
2911.00,0.0393
2910.00,0.0386
2909.00,0.0379
2908.00,0.0372
2907.00,0.0366
2906.00,0.0360
2905.00,0.0355
2904.00,0.0351
2903.00,0.0347
2902.00,0.0343
2901.00,0.0340
2900.00,0.0338
2899.00,0.0335
2898.00,0.0334
2897.00,0.0333
2896.00,0.0332
2895.00,0.0331
2894.00,0.0331
2893.00,0.0330
2892.00,0.0329
2891.00,0.0329
2890.00,0.0328
2889.00,0.0327
2888.00,0.0326
2887.00,0.0325
2886.00,0.0324
2885.00,0.0324
2884.00,0.0324
2883.00,0.0324
2882.00,0.0325
2881.00,0.0327
2880.00,0.0328
2879.00,0.0331
2878.00,0.0333
2877.00,0.0336
2876.00,0.0340
2875.00,0.0343
2874.00,0.0347
2873.00,0.0351
2872.00,0.0354
2871.00,0.0356
2870.00,0.0357
2869.00,0.0357
2868.00,0.0356
2867.00,0.0355
2866.00,0.0354
2865.00,0.0353
2864.00,0.0353
2863.00,0.0353
2862.00,0.0353
2861.00,0.0353
2860.00,0.0354
2859.00,0.0353
2858.00,0.0351
2857.00,0.0347
2856.00,0.0341
2855.00,0.0334
2854.00,0.0325
2853.00,0.0316
2852.00,0.0307
2851.00,0.0298
2850.00,0.0290
2849.00,0.0282
2848.00,0.0274
2847.00,0.0267
2846.00,0.0260
2845.00,0.0252
2844.00,0.0245
2843.00,0.0237
2842.00,0.0230
2841.00,0.0222
2840.00,0.0215
2839.00,0.0209
2838.00,0.0204
2837.00,0.0200
2836.00,0.0196
2835.00,0.0192
2834.00,0.0188
2833.00,0.0184
2832.00,0.0181
2831.00,0.0177
2830.00,0.0174
2829.00,0.0171
2828.00,0.0167
2827.00,0.0164
2826.00,0.0161
2825.00,0.0158
2824.00,0.0156
2823.00,0.0153
2822.00,0.0150
2821.00,0.0148
2820.00,0.0146
2819.00,0.0143
2818.00,0.0141
2817.00,0.0140
2816.00,0.0138
2815.00,0.0136
2814.00,0.0134
2813.00,0.0132
2812.00,0.0131
2811.00,0.0130
2810.00,0.0128
2809.00,0.0127
2808.00,0.0126
2807.00,0.0125
2806.00,0.0124
2805.00,0.0124
2804.00,0.0123
2803.00,0.0122
2802.00,0.0120
2801.00,0.0119
2800.00,0.0118
2799.00,0.0117
2798.00,0.0116
2797.00,0.0115
2796.00,0.0115
2795.00,0.0114
2794.00,0.0113
2793.00,0.0113
2792.00,0.0112
2791.00,0.0111
2790.00,0.0111
2789.00,0.0110
2788.00,0.0110
2787.00,0.0109
2786.00,0.0109
2785.00,0.0108
2784.00,0.0107
2783.00,0.0107
2782.00,0.0107
2781.00,0.0106
2780.00,0.0106
2779.00,0.0105
2778.00,0.0104
2777.00,0.0104
2776.00,0.0103
2775.00,0.0103
2774.00,0.0103
2773.00,0.0102
2772.00,0.0102
2771.00,0.0101
2770.00,0.0101
2769.00,0.0101
2768.00,0.0100
2767.00,0.0100
2766.00,0.0100
2765.00,0.0100
2764.00,0.0100
2763.00,0.0100
2762.00,0.0100
2761.00,0.0100
2760.00,0.0100
2759.00,0.0100
2758.00,0.0101
2757.00,0.0101
2756.00,0.0101
2755.00,0.0101
2754.00,0.0101
2753.00,0.0101
2752.00,0.0102
2751.00,0.0102
2750.00,0.0102
2749.00,0.0102
2748.00,0.0102
2747.00,0.0103
2746.00,0.0103
2745.00,0.0103
2744.00,0.0103
2743.00,0.0103
2742.00,0.0103
2741.00,0.0103
2740.00,0.0103
2739.00,0.0104
2738.00,0.0104
2737.00,0.0105
2736.00,0.0105
2735.00,0.0105
2734.00,0.0105
2733.00,0.0105
2732.00,0.0105
2731.00,0.0105
2730.00,0.0104
2729.00,0.0104
2728.00,0.0103
2727.00,0.0103
2726.00,0.0102
2725.00,0.0102
2724.00,0.0101
2723.00,0.0101
2722.00,0.0100
2721.00,0.0100
2720.00,0.0100
2719.00,0.0099
2718.00,0.0099
2717.00,0.0099
2716.00,0.0098
2715.00,0.0098
2714.00,0.0098
2713.00,0.0097
2712.00,0.0097
2711.00,0.0097
2710.00,0.0097
2709.00,0.0096
2708.00,0.0096
2707.00,0.0096
2706.00,0.0095
2705.00,0.0095
2704.00,0.0094
2703.00,0.0094
2702.00,0.0093
2701.00,0.0093
2700.00,0.0093
2699.00,0.0092
2698.00,0.0092
2697.00,0.0091
2696.00,0.0091
2695.00,0.0091
2694.00,0.0090
2693.00,0.0090
2692.00,0.0089
2691.00,0.0089
2690.00,0.0088
2689.00,0.0088
2688.00,0.0088
2687.00,0.0088
2686.00,0.0087
2685.00,0.0087
2684.00,0.0087
2683.00,0.0087
2682.00,0.0087
2681.00,0.0086
2680.00,0.0086
2679.00,0.0086
2678.00,0.0086
2677.00,0.0085
2676.00,0.0085
2675.00,0.0085
2674.00,0.0085
2673.00,0.0085
2672.00,0.0085
2671.00,0.0085
2670.00,0.0084
2669.00,0.0085
2668.00,0.0085
2667.00,0.0085
2666.00,0.0085
2665.00,0.0085
2664.00,0.0085
2663.00,0.0085
2662.00,0.0085
2661.00,0.0085
2660.00,0.0085
2659.00,0.0085
2658.00,0.0085
2657.00,0.0085
2656.00,0.0084
2655.00,0.0084
2654.00,0.0084
2653.00,0.0084
2652.00,0.0084
2651.00,0.0084
2650.00,0.0083
2649.00,0.0083
2648.00,0.0083
2647.00,0.0083
2646.00,0.0082
2645.00,0.0082
2644.00,0.0082
2643.00,0.0082
2642.00,0.0081
2641.00,0.0081
2640.00,0.0080
2639.00,0.0080
2638.00,0.0079
2637.00,0.0079
2636.00,0.0079
2635.00,0.0079
2634.00,0.0079
2633.00,0.0078
2632.00,0.0078
2631.00,0.0078
2630.00,0.0078
2629.00,0.0077
2628.00,0.0077
2627.00,0.0077
2626.00,0.0077
2625.00,0.0077
2624.00,0.0077
2623.00,0.0077
2622.00,0.0076
2621.00,0.0076
2620.00,0.0076
2619.00,0.0076
2618.00,0.0076
2617.00,0.0075
2616.00,0.0075
2615.00,0.0075
2614.00,0.0074
2613.00,0.0074
2612.00,0.0074
2611.00,0.0074
2610.00,0.0074
2609.00,0.0074
2608.00,0.0074
2607.00,0.0073
2606.00,0.0073
2605.00,0.0073
2604.00,0.0072
2603.00,0.0072
2602.00,0.0071
2601.00,0.0071
2600.00,0.0071
2599.00,0.0071
2598.00,0.0071
2597.00,0.0071
2596.00,0.0071
2595.00,0.0070
2594.00,0.0070
2593.00,0.0070
2592.00,0.0070
2591.00,0.0070
2590.00,0.0069
2589.00,0.0069
2588.00,0.0069
2587.00,0.0069
2586.00,0.0069
2585.00,0.0069
2584.00,0.0069
2583.00,0.0068
2582.00,0.0068
2581.00,0.0068
2580.00,0.0068
2579.00,0.0068
2578.00,0.0068
2577.00,0.0068
2576.00,0.0067
2575.00,0.0067
2574.00,0.0067
2573.00,0.0067
2572.00,0.0066
2571.00,0.0066
2570.00,0.0065
2569.00,0.0065
2568.00,0.0065
2567.00,0.0065
2566.00,0.0064
2565.00,0.0064
2564.00,0.0064
2563.00,0.0063
2562.00,0.0063
2561.00,0.0063
2560.00,0.0062
2559.00,0.0062
2558.00,0.0062
2557.00,0.0062
2556.00,0.0062
2555.00,0.0062
2554.00,0.0062
2553.00,0.0062
2552.00,0.0062
2551.00,0.0062
2550.00,0.0061
2549.00,0.0061
2548.00,0.0060
2547.00,0.0060
2546.00,0.0060
2545.00,0.0060
2544.00,0.0059
2543.00,0.0059
2542.00,0.0059
2541.00,0.0058
2540.00,0.0058
2539.00,0.0058
2538.00,0.0058
2537.00,0.0058
2536.00,0.0058
2535.00,0.0057
2534.00,0.0057
2533.00,0.0056
2532.00,0.0056
2531.00,0.0055
2530.00,0.0054
2529.00,0.0054
2528.00,0.0053
2527.00,0.0053
2526.00,0.0053
2525.00,0.0052
2524.00,0.0052
2523.00,0.0052
2522.00,0.0052
2521.00,0.0051
2520.00,0.0051
2519.00,0.0050
2518.00,0.0050
2517.00,0.0049
2516.00,0.0049
2515.00,0.0048
2514.00,0.0048
2513.00,0.0048
2512.00,0.0048
2511.00,0.0048
2510.00,0.0048
2509.00,0.0048
2508.00,0.0048
2507.00,0.0047
2506.00,0.0047
2505.00,0.0046
2504.00,0.0046
2503.00,0.0046
2502.00,0.0046
2501.00,0.0046
2500.00,0.0046
2499.00,0.0046
2498.00,0.0045
2497.00,0.0045
2496.00,0.0045
2495.00,0.0045
2494.00,0.0045
2493.00,0.0045
2492.00,0.0045
2491.00,0.0045
2490.00,0.0045
2489.00,0.0045
2488.00,0.0045
2487.00,0.0045
2486.00,0.0045
2485.00,0.0045
2484.00,0.0044
2483.00,0.0044
2482.00,0.0044
2481.00,0.0044
2480.00,0.0044
2479.00,0.0044
2478.00,0.0044
2477.00,0.0043
2476.00,0.0043
2475.00,0.0043
2474.00,0.0042
2473.00,0.0042
2472.00,0.0042
2471.00,0.0042
2470.00,0.0042
2469.00,0.0042
2468.00,0.0042
2467.00,0.0042
2466.00,0.0042
2465.00,0.0042
2464.00,0.0042
2463.00,0.0042
2462.00,0.0042
2461.00,0.0043
2460.00,0.0043
2459.00,0.0043
2458.00,0.0044
2457.00,0.0044
2456.00,0.0044
2455.00,0.0044
2454.00,0.0044
2453.00,0.0043
2452.00,0.0043
2451.00,0.0042
2450.00,0.0042
2449.00,0.0042
2448.00,0.0042
2447.00,0.0042
2446.00,0.0042
2445.00,0.0042
2444.00,0.0042
2443.00,0.0042
2442.00,0.0041
2441.00,0.0041
2440.00,0.0041
2439.00,0.0041
2438.00,0.0041
2437.00,0.0041
2436.00,0.0041
2435.00,0.0040
2434.00,0.0040
2433.00,0.0040
2432.00,0.0040
2431.00,0.0040
2430.00,0.0040
2429.00,0.0040
2428.00,0.0040
2427.00,0.0040
2426.00,0.0040
2425.00,0.0039
2424.00,0.0039
2423.00,0.0039
2422.00,0.0038
2421.00,0.0038
2420.00,0.0038
2419.00,0.0038
2418.00,0.0038
2417.00,0.0039
2416.00,0.0039
2415.00,0.0039
2414.00,0.0038
2413.00,0.0039
2412.00,0.0039
2411.00,0.0039
2410.00,0.0039
2409.00,0.0038
2408.00,0.0038
2407.00,0.0037
2406.00,0.0037
2405.00,0.0037
2404.00,0.0038
2403.00,0.0038
2402.00,0.0037
2401.00,0.0037
2400.00,0.0037
2399.00,0.0037
2398.00,0.0037
2397.00,0.0037
2396.00,0.0037
2395.00,0.0037
2394.00,0.0036
2393.00,0.0036
2392.00,0.0036
2391.00,0.0036
2390.00,0.0036
2389.00,0.0036
2388.00,0.0036
2387.00,0.0036
2386.00,0.0035
2385.00,0.0034
2384.00,0.0033
2383.00,0.0032
2382.00,0.0032
2381.00,0.0031
2380.00,0.0031
2379.00,0.0032
2378.00,0.0032
2377.00,0.0032
2376.00,0.0032
2375.00,0.0033
2374.00,0.0033
2373.00,0.0033
2372.00,0.0033
2371.00,0.0032
2370.00,0.0032
2369.00,0.0032
2368.00,0.0032
2367.00,0.0032
2366.00,0.0032
2365.00,0.0032
2364.00,0.0032
2363.00,0.0033
2362.00,0.0033
2361.00,0.0033
2360.00,0.0033
2359.00,0.0033
2358.00,0.0033
2357.00,0.0033
2356.00,0.0033
2355.00,0.0034
2354.00,0.0034
2353.00,0.0033
2352.00,0.0033
2351.00,0.0033
2350.00,0.0033
2349.00,0.0034
2348.00,0.0036
2347.00,0.0037
2346.00,0.0037
2345.00,0.0036
2344.00,0.0036
2343.00,0.0036
2342.00,0.0037
2341.00,0.0037
2340.00,0.0037
2339.00,0.0037
2338.00,0.0037
2337.00,0.0037
2336.00,0.0037
2335.00,0.0037
2334.00,0.0037
2333.00,0.0036
2332.00,0.0036
2331.00,0.0035
2330.00,0.0036
2329.00,0.0038
2328.00,0.0042
2327.00,0.0047
2326.00,0.0050
2325.00,0.0051
2324.00,0.0049
2323.00,0.0047
2322.00,0.0045
2321.00,0.0043
2320.00,0.0043
2319.00,0.0043
2318.00,0.0043
2317.00,0.0043
2316.00,0.0042
2315.00,0.0042
2314.00,0.0041
2313.00,0.0040
2312.00,0.0040
2311.00,0.0039
2310.00,0.0038
2309.00,0.0038
2308.00,0.0038
2307.00,0.0038
2306.00,0.0038
2305.00,0.0038
2304.00,0.0039
2303.00,0.0039
2302.00,0.0039
2301.00,0.0040
2300.00,0.0040
2299.00,0.0041
2298.00,0.0041
2297.00,0.0042
2296.00,0.0043
2295.00,0.0043
2294.00,0.0044
2293.00,0.0045
2292.00,0.0046
2291.00,0.0046
2290.00,0.0046
2289.00,0.0047
2288.00,0.0047
2287.00,0.0047
2286.00,0.0047
2285.00,0.0047
2284.00,0.0046
2283.00,0.0045
2282.00,0.0044
2281.00,0.0044
2280.00,0.0044
2279.00,0.0043
2278.00,0.0043
2277.00,0.0043
2276.00,0.0042
2275.00,0.0042
2274.00,0.0041
2273.00,0.0041
2272.00,0.0040
2271.00,0.0040
2270.00,0.0040
2269.00,0.0040
2268.00,0.0040
2267.00,0.0039
2266.00,0.0038
2265.00,0.0037
2264.00,0.0036
2263.00,0.0036
2262.00,0.0036
2261.00,0.0036
2260.00,0.0037
2259.00,0.0037
2258.00,0.0037
2257.00,0.0037
2256.00,0.0036
2255.00,0.0036
2254.00,0.0036
2253.00,0.0036
2252.00,0.0036
2251.00,0.0037
2250.00,0.0037
2249.00,0.0037
2248.00,0.0038
2247.00,0.0037
2246.00,0.0037
2245.00,0.0037
2244.00,0.0037
2243.00,0.0038
2242.00,0.0038
2241.00,0.0039
2240.00,0.0038
2239.00,0.0038
2238.00,0.0038
2237.00,0.0038
2236.00,0.0039
2235.00,0.0039
2234.00,0.0038
2233.00,0.0038
2232.00,0.0037
2231.00,0.0037
2230.00,0.0037
2229.00,0.0037
2228.00,0.0038
2227.00,0.0038
2226.00,0.0037
2225.00,0.0037
2224.00,0.0036
2223.00,0.0036
2222.00,0.0036
2221.00,0.0036
2220.00,0.0037
2219.00,0.0037
2218.00,0.0037
2217.00,0.0037
2216.00,0.0037
2215.00,0.0037
2214.00,0.0036
2213.00,0.0036
2212.00,0.0036
2211.00,0.0036
2210.00,0.0035
2209.00,0.0035
2208.00,0.0035
2207.00,0.0036
2206.00,0.0036
2205.00,0.0035
2204.00,0.0035
2203.00,0.0034
2202.00,0.0033
2201.00,0.0032
2200.00,0.0033
2199.00,0.0034
2198.00,0.0035
2197.00,0.0036
2196.00,0.0037
2195.00,0.0038
2194.00,0.0039
2193.00,0.0040
2192.00,0.0040
2191.00,0.0040
2190.00,0.0038
2189.00,0.0038
2188.00,0.0038
2187.00,0.0038
2186.00,0.0036
2185.00,0.0034
2184.00,0.0031
2183.00,0.0029
2182.00,0.0028
2181.00,0.0029
2180.00,0.0031
2179.00,0.0032
2178.00,0.0031
2177.00,0.0030
2176.00,0.0030
2175.00,0.0030
2174.00,0.0032
2173.00,0.0034
2172.00,0.0037
2171.00,0.0041
2170.00,0.0043
2169.00,0.0045
2168.00,0.0046
2167.00,0.0047
2166.00,0.0047
2165.00,0.0048
2164.00,0.0050
2163.00,0.0049
2162.00,0.0042
2161.00,0.0029
2160.00,0.0013
2159.00,-0.0001
2158.00,-0.0007
2157.00,-0.0006
2156.00,-0.0002
2155.00,0.0003
2154.00,0.0006
2153.00,0.0009
2152.00,0.0011
2151.00,0.0013
2150.00,0.0014
2149.00,0.0014
2148.00,0.0014
2147.00,0.0012
2146.00,0.0011
2145.00,0.0011
2144.00,0.0013
2143.00,0.0015
2142.00,0.0017
2141.00,0.0019
2140.00,0.0020
2139.00,0.0019
2138.00,0.0017
2137.00,0.0014
2136.00,0.0012
2135.00,0.0010
2134.00,0.0009
2133.00,0.0010
2132.00,0.0012
2131.00,0.0014
2130.00,0.0016
2129.00,0.0017
2128.00,0.0019
2127.00,0.0020
2126.00,0.0020
2125.00,0.0020
2124.00,0.0021
2123.00,0.0022
2122.00,0.0023
2121.00,0.0024
2120.00,0.0026
2119.00,0.0027
2118.00,0.0028
2117.00,0.0029
2116.00,0.0030
2115.00,0.0030
2114.00,0.0029
2113.00,0.0030
2112.00,0.0030
2111.00,0.0031
2110.00,0.0030
2109.00,0.0030
2108.00,0.0030
2107.00,0.0030
2106.00,0.0030
2105.00,0.0030
2104.00,0.0030
2103.00,0.0030
2102.00,0.0030
2101.00,0.0030
2100.00,0.0031
2099.00,0.0030
2098.00,0.0029
2097.00,0.0028
2096.00,0.0027
2095.00,0.0026
2094.00,0.0025
2093.00,0.0026
2092.00,0.0028
2091.00,0.0030
2090.00,0.0031
2089.00,0.0031
2088.00,0.0032
2087.00,0.0032
2086.00,0.0033
2085.00,0.0033
2084.00,0.0034
2083.00,0.0034
2082.00,0.0034
2081.00,0.0034
2080.00,0.0034
2079.00,0.0033
2078.00,0.0032
2077.00,0.0031
2076.00,0.0030
2075.00,0.0030
2074.00,0.0030
2073.00,0.0030
2072.00,0.0031
2071.00,0.0031
2070.00,0.0031
2069.00,0.0030
2068.00,0.0030
2067.00,0.0030
2066.00,0.0030
2065.00,0.0030
2064.00,0.0029
2063.00,0.0029
2062.00,0.0029
2061.00,0.0030
2060.00,0.0031
2059.00,0.0031
2058.00,0.0031
2057.00,0.0031
2056.00,0.0031
2055.00,0.0031
2054.00,0.0034
2053.00,0.0039
2052.00,0.0043
2051.00,0.0043
2050.00,0.0040
2049.00,0.0035
2048.00,0.0032
2047.00,0.0030
2046.00,0.0029
2045.00,0.0029
2044.00,0.0031
2043.00,0.0032
2042.00,0.0032
2041.00,0.0032
2040.00,0.0033
2039.00,0.0033
2038.00,0.0031
2037.00,0.0030
2036.00,0.0030
2035.00,0.0029
2034.00,0.0028
2033.00,0.0027
2032.00,0.0026
2031.00,0.0026
2030.00,0.0025
2029.00,0.0024
2028.00,0.0025
2027.00,0.0025
2026.00,0.0023
2025.00,0.0023
2024.00,0.0023
2023.00,0.0022
2022.00,0.0021
2021.00,0.0020
2020.00,0.0021
2019.00,0.0021
2018.00,0.0021
2017.00,0.0021
2016.00,0.0021
2015.00,0.0020
2014.00,0.0019
2013.00,0.0020
2012.00,0.0022
2011.00,0.0023
2010.00,0.0021
2009.00,0.0018
2008.00,0.0016
2007.00,0.0015
2006.00,0.0014
2005.00,0.0016
2004.00,0.0018
2003.00,0.0019
2002.00,0.0019
2001.00,0.0019
2000.00,0.0021
1999.00,0.0022
1998.00,0.0022
1997.00,0.0023
1996.00,0.0025
1995.00,0.0028
1994.00,0.0029
1993.00,0.0030
1992.00,0.0031
1991.00,0.0031
1990.00,0.0031
1989.00,0.0031
1988.00,0.0033
1987.00,0.0034
1986.00,0.0036
1985.00,0.0038
1984.00,0.0042
1983.00,0.0045
1982.00,0.0045
1981.00,0.0044
1980.00,0.0039
1979.00,0.0031
1978.00,0.0022
1977.00,0.0016
1976.00,0.0016
1975.00,0.0018
1974.00,0.0018
1973.00,0.0020
1972.00,0.0021
1971.00,0.0020
1970.00,0.0019
1969.00,0.0019
1968.00,0.0020
1967.00,0.0020
1966.00,0.0019
1965.00,0.0019
1964.00,0.0019
1963.00,0.0019
1962.00,0.0017
1961.00,0.0015
1960.00,0.0014
1959.00,0.0014
1958.00,0.0014
1957.00,0.0016
1956.00,0.0020
1955.00,0.0022
1954.00,0.0023
1953.00,0.0024
1952.00,0.0025
1951.00,0.0024
1950.00,0.0023
1949.00,0.0021
1948.00,0.0022
1947.00,0.0023
1946.00,0.0023
1945.00,0.0024
1944.00,0.0025
1943.00,0.0025
1942.00,0.0023
1941.00,0.0022
1940.00,0.0022
1939.00,0.0023
1938.00,0.0023
1937.00,0.0022
1936.00,0.0023
1935.00,0.0023
1934.00,0.0023
1933.00,0.0023
1932.00,0.0024
1931.00,0.0024
1930.00,0.0024
1929.00,0.0024
1928.00,0.0024
1927.00,0.0024
1926.00,0.0024
1925.00,0.0025
1924.00,0.0027
1923.00,0.0028
1922.00,0.0029
1921.00,0.0029
1920.00,0.0029
1919.00,0.0029
1918.00,0.0029
1917.00,0.0028
1916.00,0.0028
1915.00,0.0027
1914.00,0.0027
1913.00,0.0027
1912.00,0.0028
1911.00,0.0029
1910.00,0.0030
1909.00,0.0030
1908.00,0.0030
1907.00,0.0030
1906.00,0.0030
1905.00,0.0030
1904.00,0.0030
1903.00,0.0030
1902.00,0.0029
1901.00,0.0029
1900.00,0.0030
1899.00,0.0031
1898.00,0.0031
1897.00,0.0032
1896.00,0.0032
1895.00,0.0032
1894.00,0.0031
1893.00,0.0031
1892.00,0.0032
1891.00,0.0032
1890.00,0.0032
1889.00,0.0032
1888.00,0.0032
1887.00,0.0032
1886.00,0.0032
1885.00,0.0031
1884.00,0.0032
1883.00,0.0031
1882.00,0.0031
1881.00,0.0031
1880.00,0.0031
1879.00,0.0031
1878.00,0.0030
1877.00,0.0030
1876.00,0.0030
1875.00,0.0030
1874.00,0.0030
1873.00,0.0030
1872.00,0.0031
1871.00,0.0032
1870.00,0.0033
1869.00,0.0034
1868.00,0.0034
1867.00,0.0033
1866.00,0.0032
1865.00,0.0031
1864.00,0.0031
1863.00,0.0031
1862.00,0.0031
1861.00,0.0032
1860.00,0.0032
1859.00,0.0033
1858.00,0.0032
1857.00,0.0032
1856.00,0.0032
1855.00,0.0032
1854.00,0.0032
1853.00,0.0032
1852.00,0.0032
1851.00,0.0032
1850.00,0.0033
1849.00,0.0034
1848.00,0.0034
1847.00,0.0034
1846.00,0.0034
1845.00,0.0034
1844.00,0.0034
1843.00,0.0034
1842.00,0.0033
1841.00,0.0033
1840.00,0.0034
1839.00,0.0034
1838.00,0.0034
1837.00,0.0033
1836.00,0.0033
1835.00,0.0033
1834.00,0.0033
1833.00,0.0033
1832.00,0.0034
1831.00,0.0034
1830.00,0.0034
1829.00,0.0034
1828.00,0.0034
1827.00,0.0034
1826.00,0.0034
1825.00,0.0034
1824.00,0.0033
1823.00,0.0033
1822.00,0.0032
1821.00,0.0032
1820.00,0.0032
1819.00,0.0031
1818.00,0.0030
1817.00,0.0030
1816.00,0.0030
1815.00,0.0031
1814.00,0.0032
1813.00,0.0033
1812.00,0.0034
1811.00,0.0035
1810.00,0.0035
1809.00,0.0034
1808.00,0.0034
1807.00,0.0034
1806.00,0.0034
1805.00,0.0034
1804.00,0.0036
1803.00,0.0037
1802.00,0.0037
1801.00,0.0038
1800.00,0.0038
1799.00,0.0038
1798.00,0.0037
1797.00,0.0038
1796.00,0.0038
1795.00,0.0039
1794.00,0.0039
1793.00,0.0039
1792.00,0.0039
1791.00,0.0039
1790.00,0.0038
1789.00,0.0038
1788.00,0.0039
1787.00,0.0040
1786.00,0.0040
1785.00,0.0040
1784.00,0.0041
1783.00,0.0041
1782.00,0.0042
1781.00,0.0042
1780.00,0.0042
1779.00,0.0042
1778.00,0.0042
1777.00,0.0042
1776.00,0.0042
1775.00,0.0042
1774.00,0.0042
1773.00,0.0042
1772.00,0.0043
1771.00,0.0043
1770.00,0.0043
1769.00,0.0043
1768.00,0.0043
1767.00,0.0043
1766.00,0.0043
1765.00,0.0043
1764.00,0.0044
1763.00,0.0044
1762.00,0.0044
1761.00,0.0043
1760.00,0.0044
1759.00,0.0044
1758.00,0.0043
1757.00,0.0043
1756.00,0.0042
1755.00,0.0041
1754.00,0.0039
1753.00,0.0038
1752.00,0.0038
1751.00,0.0039
1750.00,0.0039
1749.00,0.0038
1748.00,0.0038
1747.00,0.0037
1746.00,0.0035
1745.00,0.0035
1744.00,0.0035
1743.00,0.0035
1742.00,0.0034
1741.00,0.0034
1740.00,0.0036
1739.00,0.0037
1738.00,0.0037
1737.00,0.0038
1736.00,0.0039
1735.00,0.0041
1734.00,0.0044
1733.00,0.0048
1732.00,0.0053
1731.00,0.0057
1730.00,0.0060
1729.00,0.0062
1728.00,0.0065
1727.00,0.0068
1726.00,0.0071
1725.00,0.0075
1724.00,0.0080
1723.00,0.0084
1722.00,0.0087
1721.00,0.0089
1720.00,0.0093
1719.00,0.0098
1718.00,0.0104
1717.00,0.0110
1716.00,0.0118
1715.00,0.0125
1714.00,0.0130
1713.00,0.0137
1712.00,0.0146
1711.00,0.0155
1710.00,0.0164
1709.00,0.0175
1708.00,0.0188
1707.00,0.0205
1706.00,0.0224
1705.00,0.0245
1704.00,0.0264
1703.00,0.0281
1702.00,0.0300
1701.00,0.0337
1700.00,0.0392
1699.00,0.0440
1698.00,0.0478
1697.00,0.0523
1696.00,0.0588
1695.00,0.0659
1694.00,0.0720
1693.00,0.0772
1692.00,0.0825
1691.00,0.0885
1690.00,0.0950
1689.00,0.1014
1688.00,0.1068
1687.00,0.1111
1686.00,0.1154
1685.00,0.1218
1684.00,0.1299
1683.00,0.1362
1682.00,0.1397
1681.00,0.1420
1680.00,0.1441
1679.00,0.1458
1678.00,0.1470
1677.00,0.1481
1676.00,0.1498
1675.00,0.1518
1674.00,0.1533
1673.00,0.1541
1672.00,0.1549
1671.00,0.1563
1670.00,0.1587
1669.00,0.1617
1668.00,0.1644
1667.00,0.1664
1666.00,0.1680
1665.00,0.1697
1664.00,0.1723
1663.00,0.1757
1662.00,0.1790
1661.00,0.1816
1660.00,0.1834
1659.00,0.1847
1658.00,0.1854
1657.00,0.1855
1656.00,0.1850
1655.00,0.1844
1654.00,0.1847
1653.00,0.1855
1652.00,0.1849
1651.00,0.1826
1650.00,0.1795
1649.00,0.1759
1648.00,0.1717
1647.00,0.1666
1646.00,0.1610
1645.00,0.1552
1644.00,0.1496
1643.00,0.1439
1642.00,0.1379
1641.00,0.1318
1640.00,0.1259
1639.00,0.1202
1638.00,0.1147
1637.00,0.1090
1636.00,0.1030
1635.00,0.0972
1634.00,0.0925
1633.00,0.0888
1632.00,0.0855
1631.00,0.0826
1630.00,0.0802
1629.00,0.0786
1628.00,0.0779
1627.00,0.0781
1626.00,0.0791
1625.00,0.0811
1624.00,0.0845
1623.00,0.0890
1622.00,0.0932
1621.00,0.0962
1620.00,0.0979
1619.00,0.0988
1618.00,0.0989
1617.00,0.0980
1616.00,0.0963
1615.00,0.0943
1614.00,0.0921
1613.00,0.0901
1612.00,0.0884
1611.00,0.0869
1610.00,0.0853
1609.00,0.0831
1608.00,0.0802
1607.00,0.0765
1606.00,0.0721
1605.00,0.0673
1604.00,0.0625
1603.00,0.0580
1602.00,0.0538
1601.00,0.0501
1600.00,0.0470
1599.00,0.0446
1598.00,0.0429
1597.00,0.0419
1596.00,0.0416
1595.00,0.0422
1594.00,0.0437
1593.00,0.0461
1592.00,0.0495
1591.00,0.0538
1590.00,0.0587
1589.00,0.0637
1588.00,0.0683
1587.00,0.0721
1586.00,0.0746
1585.00,0.0753
1584.00,0.0744
1583.00,0.0722
1582.00,0.0689
1581.00,0.0650
1580.00,0.0610
1579.00,0.0573
1578.00,0.0538
1577.00,0.0503
1576.00,0.0472
1575.00,0.0448
1574.00,0.0430
1573.00,0.0415
1572.00,0.0401
1571.00,0.0388
1570.00,0.0374
1569.00,0.0360
1568.00,0.0347
1567.00,0.0336
1566.00,0.0326
1565.00,0.0315
1564.00,0.0304
1563.00,0.0293
1562.00,0.0283
1561.00,0.0273
1560.00,0.0267
1559.00,0.0260
1558.00,0.0252
1557.00,0.0247
1556.00,0.0243
1555.00,0.0239
1554.00,0.0236
1553.00,0.0232
1552.00,0.0229
1551.00,0.0227
1550.00,0.0224
1549.00,0.0221
1548.00,0.0217
1547.00,0.0214
1546.00,0.0213
1545.00,0.0212
1544.00,0.0211
1543.00,0.0208
1542.00,0.0205
1541.00,0.0203
1540.00,0.0200
1539.00,0.0198
1538.00,0.0197
1537.00,0.0198
1536.00,0.0198
1535.00,0.0198
1534.00,0.0199
1533.00,0.0200
1532.00,0.0200
1531.00,0.0200
1530.00,0.0202
1529.00,0.0204
1528.00,0.0207
1527.00,0.0210
1526.00,0.0214
1525.00,0.0217
1524.00,0.0221
1523.00,0.0226
1522.00,0.0235
1521.00,0.0244
1520.00,0.0252
1519.00,0.0259
1518.00,0.0267
1517.00,0.0275
1516.00,0.0282
1515.00,0.0285
1514.00,0.0287
1513.00,0.0289
1512.00,0.0291
1511.00,0.0292
1510.00,0.0293
1509.00,0.0295
1508.00,0.0297
1507.00,0.0301
1506.00,0.0306
1505.00,0.0314
1504.00,0.0326
1503.00,0.0341
1502.00,0.0360
1501.00,0.0384
1500.00,0.0415
1499.00,0.0451
1498.00,0.0489
1497.00,0.0525
1496.00,0.0550
1495.00,0.0563
1494.00,0.0564
1493.00,0.0557
1492.00,0.0543
1491.00,0.0522
1490.00,0.0494
1489.00,0.0462
1488.00,0.0428
1487.00,0.0396
1486.00,0.0367
1485.00,0.0342
1484.00,0.0322
1483.00,0.0306
1482.00,0.0292
1481.00,0.0283
1480.00,0.0276
1479.00,0.0273
1478.00,0.0273
1477.00,0.0278
1476.00,0.0285
1475.00,0.0296
1474.00,0.0313
1473.00,0.0342
1472.00,0.0380
1471.00,0.0420
1470.00,0.0460
1469.00,0.0503
1468.00,0.0548
1467.00,0.0599
1466.00,0.0659
1465.00,0.0727
1464.00,0.0790
1463.00,0.0837
1462.00,0.0867
1461.00,0.0884
1460.00,0.0890
1459.00,0.0884
1458.00,0.0864
1457.00,0.0828
1456.00,0.0787
1455.00,0.0752
1454.00,0.0724
1453.00,0.0702
1452.00,0.0687
1451.00,0.0680
1450.00,0.0684
1449.00,0.0700
1448.00,0.0728
1447.00,0.0761
1446.00,0.0796
1445.00,0.0831
1444.00,0.0867
1443.00,0.0902
1442.00,0.0936
1441.00,0.0966
1440.00,0.0990
1439.00,0.1011
1438.00,0.1035
1437.00,0.1067
1436.00,0.1101
1435.00,0.1126
1434.00,0.1142
1433.00,0.1155
1432.00,0.1169
1431.00,0.1184
1430.00,0.1201
1429.00,0.1220
1428.00,0.1241
1427.00,0.1262
1426.00,0.1285
1425.00,0.1315
1424.00,0.1344
1423.00,0.1363
1422.00,0.1366
1421.00,0.1353
1420.00,0.1323
1419.00,0.1271
1418.00,0.1205
1417.00,0.1138
1416.00,0.1073
1415.00,0.1012
1414.00,0.0958
1413.00,0.0915
1412.00,0.0883
1411.00,0.0861
1410.00,0.0850
1409.00,0.0848
1408.00,0.0853
1407.00,0.0863
1406.00,0.0880
1405.00,0.0900
1404.00,0.0919
1403.00,0.0932
1402.00,0.0936
1401.00,0.0931
1400.00,0.0915
1399.00,0.0885
1398.00,0.0845
1397.00,0.0800
1396.00,0.0749
1395.00,0.0695
1394.00,0.0645
1393.00,0.0603
1392.00,0.0570
1391.00,0.0544
1390.00,0.0525
1389.00,0.0513
1388.00,0.0508
1387.00,0.0510
1386.00,0.0519
1385.00,0.0532
1384.00,0.0549
1383.00,0.0569
1382.00,0.0592
1381.00,0.0612
1380.00,0.0628
1379.00,0.0637
1378.00,0.0640
1377.00,0.0637
1376.00,0.0629
1375.00,0.0619
1374.00,0.0606
1373.00,0.0593
1372.00,0.0580
1371.00,0.0569
1370.00,0.0560
1369.00,0.0553
1368.00,0.0548
1367.00,0.0547
1366.00,0.0552
1365.00,0.0563
1364.00,0.0581
1363.00,0.0604
1362.00,0.0625
1361.00,0.0636
1360.00,0.0633
1359.00,0.0616
1358.00,0.0589
1357.00,0.0555
1356.00,0.0518
1355.00,0.0484
1354.00,0.0456
1353.00,0.0435
1352.00,0.0419
1351.00,0.0408
1350.00,0.0400
1349.00,0.0395
1348.00,0.0391
1347.00,0.0388
1346.00,0.0386
1345.00,0.0385
1344.00,0.0384
1343.00,0.0384
1342.00,0.0385
1341.00,0.0387
1340.00,0.0390
1339.00,0.0392
1338.00,0.0396
1337.00,0.0400
1336.00,0.0404
1335.00,0.0410
1334.00,0.0417
1333.00,0.0424
1332.00,0.0431
1331.00,0.0438
1330.00,0.0445
1329.00,0.0454
1328.00,0.0462
1327.00,0.0472
1326.00,0.0483
1325.00,0.0496
1324.00,0.0509
1323.00,0.0522
1322.00,0.0535
1321.00,0.0547
1320.00,0.0557
1319.00,0.0562
1318.00,0.0564
1317.00,0.0562
1316.00,0.0556
1315.00,0.0548
1314.00,0.0538
1313.00,0.0529
1312.00,0.0520
1311.00,0.0515
1310.00,0.0513
1309.00,0.0514
1308.00,0.0520
1307.00,0.0528
1306.00,0.0540
1305.00,0.0555
1304.00,0.0571
1303.00,0.0591
1302.00,0.0615
1301.00,0.0645
1300.00,0.0682
1299.00,0.0729
1298.00,0.0787
1297.00,0.0855
1296.00,0.0932
1295.00,0.1014
1294.00,0.1099
1293.00,0.1182
1292.00,0.1260
1291.00,0.1328
1290.00,0.1387
1289.00,0.1434
1288.00,0.1469
1287.00,0.1492
1286.00,0.1501
1285.00,0.1497
1284.00,0.1481
1283.00,0.1453
1282.00,0.1419
1281.00,0.1381
1280.00,0.1345
1279.00,0.1312
1278.00,0.1287
1277.00,0.1269
1276.00,0.1257
1275.00,0.1250
1274.00,0.1244
1273.00,0.1236
1272.00,0.1223
1271.00,0.1204
1270.00,0.1176
1269.00,0.1140
1268.00,0.1098
1267.00,0.1050
1266.00,0.1000
1265.00,0.0949
1264.00,0.0898
1263.00,0.0850
1262.00,0.0804
1261.00,0.0761
1260.00,0.0721
1259.00,0.0684
1258.00,0.0650
1257.00,0.0620
1256.00,0.0593
1255.00,0.0569
1254.00,0.0548
1253.00,0.0532
1252.00,0.0519
1251.00,0.0511
1250.00,0.0509
1249.00,0.0512
1248.00,0.0520
1247.00,0.0535
1246.00,0.0554
1245.00,0.0578
1244.00,0.0604
1243.00,0.0631
1242.00,0.0657
1241.00,0.0680
1240.00,0.0699
1239.00,0.0714
1238.00,0.0726
1237.00,0.0735
1236.00,0.0741
1235.00,0.0745
1234.00,0.0747
1233.00,0.0747
1232.00,0.0744
1231.00,0.0738
1230.00,0.0732
1229.00,0.0724
1228.00,0.0717
1227.00,0.0710
1226.00,0.0705
1225.00,0.0702
1224.00,0.0701
1223.00,0.0702
1222.00,0.0705
1221.00,0.0708
1220.00,0.0711
1219.00,0.0713
1218.00,0.0712
1217.00,0.0705
1216.00,0.0693
1215.00,0.0674
1214.00,0.0650
1213.00,0.0622
1212.00,0.0592
1211.00,0.0562
1210.00,0.0535
1209.00,0.0511
1208.00,0.0491
1207.00,0.0476
1206.00,0.0466
1205.00,0.0462
1204.00,0.0464
1203.00,0.0472
1202.00,0.0486
1201.00,0.0506
1200.00,0.0530
1199.00,0.0559
1198.00,0.0590
1197.00,0.0621
1196.00,0.0650
1195.00,0.0673
1194.00,0.0687
1193.00,0.0689
1192.00,0.0678
1191.00,0.0655
1190.00,0.0624
1189.00,0.0588
1188.00,0.0551
1187.00,0.0515
1186.00,0.0483
1185.00,0.0455
1184.00,0.0431
1183.00,0.0412
1182.00,0.0396
1181.00,0.0385
1180.00,0.0376
1179.00,0.0371
1178.00,0.0368
1177.00,0.0368
1176.00,0.0369
1175.00,0.0372
1174.00,0.0376
1173.00,0.0380
1172.00,0.0384
1171.00,0.0388
1170.00,0.0391
1169.00,0.0394
1168.00,0.0397
1167.00,0.0400
1166.00,0.0407
1165.00,0.0416
1164.00,0.0431
1163.00,0.0453
1162.00,0.0481
1161.00,0.0515
1160.00,0.0551
1159.00,0.0586
1158.00,0.0616
1157.00,0.0637
1156.00,0.0646
1155.00,0.0641
1154.00,0.0625
1153.00,0.0599
1152.00,0.0566
1151.00,0.0528
1150.00,0.0489
1149.00,0.0450
1148.00,0.0414
1147.00,0.0381
1146.00,0.0354
1145.00,0.0331
1144.00,0.0313
1143.00,0.0299
1142.00,0.0290
1141.00,0.0286
1140.00,0.0285
1139.00,0.0290
1138.00,0.0302
1137.00,0.0321
1136.00,0.0351
1135.00,0.0390
1134.00,0.0440
1133.00,0.0497
1132.00,0.0553
1131.00,0.0602
1130.00,0.0635
1129.00,0.0645
1128.00,0.0630
1127.00,0.0594
1126.00,0.0544
1125.00,0.0490
1124.00,0.0439
1123.00,0.0395
1122.00,0.0361
1121.00,0.0334
1120.00,0.0315
1119.00,0.0301
1118.00,0.0291
1117.00,0.0286
1116.00,0.0283
1115.00,0.0283
1114.00,0.0284
1113.00,0.0287
1112.00,0.0291
1111.00,0.0295
1110.00,0.0300
1109.00,0.0306
1108.00,0.0313
1107.00,0.0322
1106.00,0.0335
1105.00,0.0351
1104.00,0.0369
1103.00,0.0389
1102.00,0.0408
1101.00,0.0423
1100.00,0.0429
1099.00,0.0427
1098.00,0.0418
1097.00,0.0403
1096.00,0.0384
1095.00,0.0365
1094.00,0.0347
1093.00,0.0330
1092.00,0.0314
1091.00,0.0300
1090.00,0.0290
1089.00,0.0281
1088.00,0.0275
1087.00,0.0271
1086.00,0.0270
1085.00,0.0270
1084.00,0.0272
1083.00,0.0275
1082.00,0.0280
1081.00,0.0287
1080.00,0.0294
1079.00,0.0304
1078.00,0.0316
1077.00,0.0329
1076.00,0.0342
1075.00,0.0357
1074.00,0.0373
1073.00,0.0392
1072.00,0.0413
1071.00,0.0437
1070.00,0.0467
1069.00,0.0502
1068.00,0.0544
1067.00,0.0593
1066.00,0.0648
1065.00,0.0710
1064.00,0.0776
1063.00,0.0846
1062.00,0.0918
1061.00,0.0987
1060.00,0.1048
1059.00,0.1098
1058.00,0.1130
1057.00,0.1140
1056.00,0.1125
1055.00,0.1086
1054.00,0.1026
1053.00,0.0952
1052.00,0.0870
1051.00,0.0789
1050.00,0.0714
1049.00,0.0648
1048.00,0.0594
1047.00,0.0550
1046.00,0.0518
1045.00,0.0494
1044.00,0.0477
1043.00,0.0464
1042.00,0.0457
1041.00,0.0452
1040.00,0.0450
1039.00,0.0449
1038.00,0.0450
1037.00,0.0453
1036.00,0.0458
1035.00,0.0467
1034.00,0.0480
1033.00,0.0496
1032.00,0.0512
1031.00,0.0524
1030.00,0.0530
1029.00,0.0525
1028.00,0.0510
1027.00,0.0489
1026.00,0.0466
1025.00,0.0444
1024.00,0.0424
1023.00,0.0409
1022.00,0.0400
1021.00,0.0393
1020.00,0.0389
1019.00,0.0386
1018.00,0.0383
1017.00,0.0378
1016.00,0.0370
1015.00,0.0359
1014.00,0.0348
1013.00,0.0337
1012.00,0.0327
1011.00,0.0321
1010.00,0.0320
1009.00,0.0324
1008.00,0.0333
1007.00,0.0346
1006.00,0.0363
1005.00,0.0379
1004.00,0.0393
1003.00,0.0402
1002.00,0.0406
1001.00,0.0403
1000.00,0.0395
999.00,0.0385
998.00,0.0375
997.00,0.0365
996.00,0.0356
995.00,0.0347
994.00,0.0340
993.00,0.0332
992.00,0.0323
991.00,0.0315
990.00,0.0307
989.00,0.0297
988.00,0.0286
987.00,0.0276
986.00,0.0266
985.00,0.0257
984.00,0.0249
983.00,0.0244
982.00,0.0241
981.00,0.0241
980.00,0.0241
979.00,0.0242
978.00,0.0244
977.00,0.0245
976.00,0.0245
975.00,0.0243
974.00,0.0241
973.00,0.0237
972.00,0.0233
971.00,0.0228
970.00,0.0224
969.00,0.0219
968.00,0.0215
967.00,0.0210
966.00,0.0207
965.00,0.0204
964.00,0.0200
963.00,0.0197
962.00,0.0194
961.00,0.0191
960.00,0.0188
959.00,0.0184
958.00,0.0181
957.00,0.0178
956.00,0.0175
955.00,0.0172
954.00,0.0171
953.00,0.0169
952.00,0.0168
951.00,0.0167
950.00,0.0167
949.00,0.0168
948.00,0.0169
947.00,0.0171
946.00,0.0174
945.00,0.0178
944.00,0.0182
943.00,0.0187
942.00,0.0195
941.00,0.0205
940.00,0.0216
939.00,0.0230
938.00,0.0246
937.00,0.0262
936.00,0.0276
935.00,0.0288
934.00,0.0298
933.00,0.0303
932.00,0.0304
931.00,0.0302
930.00,0.0300
929.00,0.0298
928.00,0.0297
927.00,0.0297
926.00,0.0299
925.00,0.0300
924.00,0.0299
923.00,0.0296
922.00,0.0292
921.00,0.0287
920.00,0.0280
919.00,0.0274
918.00,0.0267
917.00,0.0260
916.00,0.0253
915.00,0.0245
914.00,0.0239
913.00,0.0235
912.00,0.0231
911.00,0.0229
910.00,0.0229
909.00,0.0231
908.00,0.0234
907.00,0.0240
906.00,0.0248
905.00,0.0259
904.00,0.0271
903.00,0.0285
902.00,0.0300
901.00,0.0316
900.00,0.0330
899.00,0.0343
898.00,0.0352
897.00,0.0357
896.00,0.0356
895.00,0.0351
894.00,0.0343
893.00,0.0332
892.00,0.0320
891.00,0.0308
890.00,0.0299
889.00,0.0292
888.00,0.0287
887.00,0.0285
886.00,0.0286
885.00,0.0290
884.00,0.0295
883.00,0.0302
882.00,0.0312
881.00,0.0325
880.00,0.0338
879.00,0.0355
878.00,0.0373
877.00,0.0393
876.00,0.0414
875.00,0.0434
874.00,0.0455
873.00,0.0473
872.00,0.0487
871.00,0.0497
870.00,0.0503
869.00,0.0505
868.00,0.0503
867.00,0.0500
866.00,0.0498
865.00,0.0496
864.00,0.0494
863.00,0.0493
862.00,0.0492
861.00,0.0491
860.00,0.0491
859.00,0.0492
858.00,0.0495
857.00,0.0500
856.00,0.0506
855.00,0.0514
854.00,0.0523
853.00,0.0533
852.00,0.0542
851.00,0.0551
850.00,0.0561
849.00,0.0569
848.00,0.0576
847.00,0.0581
846.00,0.0587
845.00,0.0591
844.00,0.0593
843.00,0.0594
842.00,0.0595
841.00,0.0595
840.00,0.0594
839.00,0.0593
838.00,0.0594
837.00,0.0595
836.00,0.0597
835.00,0.0599
834.00,0.0602
833.00,0.0605
832.00,0.0607
831.00,0.0608
830.00,0.0609
829.00,0.0610
828.00,0.0609
827.00,0.0608
826.00,0.0609
825.00,0.0612
824.00,0.0616
823.00,0.0623
822.00,0.0633
821.00,0.0645
820.00,0.0657
819.00,0.0668
818.00,0.0680
817.00,0.0691
816.00,0.0699
815.00,0.0705
814.00,0.0707
813.00,0.0703
812.00,0.0691
811.00,0.0671
810.00,0.0642
809.00,0.0604
808.00,0.0561
807.00,0.0518
806.00,0.0477
805.00,0.0442
804.00,0.0412
803.00,0.0390
802.00,0.0373
801.00,0.0362
800.00,0.0353
799.00,0.0348
798.00,0.0345
797.00,0.0343
796.00,0.0343
795.00,0.0343
794.00,0.0345
793.00,0.0347
792.00,0.0347
791.00,0.0348
790.00,0.0349
789.00,0.0350
788.00,0.0349
787.00,0.0349
786.00,0.0350
785.00,0.0351
784.00,0.0352
783.00,0.0355
782.00,0.0359
781.00,0.0365
780.00,0.0372
779.00,0.0379
778.00,0.0386
777.00,0.0389
776.00,0.0387
775.00,0.0381
774.00,0.0373
773.00,0.0366
772.00,0.0361
771.00,0.0359
770.00,0.0359
769.00,0.0362
768.00,0.0365
767.00,0.0368
766.00,0.0373
765.00,0.0378
764.00,0.0383
763.00,0.0389
762.00,0.0396
761.00,0.0403
760.00,0.0410
759.00,0.0418
758.00,0.0426
757.00,0.0435
756.00,0.0442
755.00,0.0451
754.00,0.0460
753.00,0.0469
752.00,0.0477
751.00,0.0485
750.00,0.0493
749.00,0.0502
748.00,0.0511
747.00,0.0520
746.00,0.0531
745.00,0.0543
744.00,0.0555
743.00,0.0569
742.00,0.0588
741.00,0.0610
740.00,0.0634
739.00,0.0659
738.00,0.0680
737.00,0.0694
736.00,0.0697
735.00,0.0689
734.00,0.0674
733.00,0.0654
732.00,0.0631
731.00,0.0609
730.00,0.0589
729.00,0.0570
728.00,0.0552
727.00,0.0535
726.00,0.0520
725.00,0.0507
724.00,0.0494
723.00,0.0483
722.00,0.0474
721.00,0.0466
720.00,0.0460
719.00,0.0456
718.00,0.0454
717.00,0.0453
716.00,0.0452
715.00,0.0452
714.00,0.0452
713.00,0.0451
712.00,0.0449
711.00,0.0445
710.00,0.0442
709.00,0.0438
708.00,0.0434
707.00,0.0432
706.00,0.0432
705.00,0.0432
704.00,0.0433
703.00,0.0433
702.00,0.0435
701.00,0.0437
700.00,0.0439
699.00,0.0445
698.00,0.0454
697.00,0.0466
696.00,0.0480
695.00,0.0496
694.00,0.0513
693.00,0.0530
692.00,0.0542
691.00,0.0552
690.00,0.0559
689.00,0.0563
688.00,0.0562
687.00,0.0559
686.00,0.0555
685.00,0.0549
684.00,0.0541
683.00,0.0535
682.00,0.0531
681.00,0.0528
680.00,0.0527
679.00,0.0527
678.00,0.0530
677.00,0.0534
676.00,0.0538
675.00,0.0544
674.00,0.0551
673.00,0.0559
672.00,0.0567
671.00,0.0576
670.00,0.0586
669.00,0.0598
668.00,0.0614
667.00,0.0630
666.00,0.0641
665.00,0.0649
664.00,0.0658
663.00,0.0670
662.00,0.0683
661.00,0.0697
660.00,0.0711
659.00,0.0725
658.00,0.0740
657.00,0.0755
656.00,0.0768
655.00,0.0781
654.00,0.0793
653.00,0.0804
652.00,0.0812
651.00,0.0819
650.00,0.0824
649.00,0.0826
648.00,0.0824
647.00,0.0819
646.00,0.0813
645.00,0.0804
644.00,0.0793
643.00,0.0779
642.00,0.0765
641.00,0.0750
640.00,0.0734
639.00,0.0719
638.00,0.0706
637.00,0.0693
636.00,0.0681
635.00,0.0669
634.00,0.0658
633.00,0.0649
632.00,0.0640
631.00,0.0634
630.00,0.0631
629.00,0.0629
628.00,0.0628
627.00,0.0627
626.00,0.0628
625.00,0.0628
624.00,0.0625
623.00,0.0622
622.00,0.0619
621.00,0.0615
620.00,0.0610
619.00,0.0605
618.00,0.0601
617.00,0.0598
616.00,0.0595
615.00,0.0591
614.00,0.0589
613.00,0.0588
612.00,0.0588
611.00,0.0590
610.00,0.0595
609.00,0.0601
608.00,0.0605
607.00,0.0610
606.00,0.0616
605.00,0.0622
604.00,0.0626
603.00,0.0631
602.00,0.0637
601.00,0.0642
600.00,0.0646
599.00,0.0648
598.00,0.0648
597.00,0.0647
596.00,0.0643
595.00,0.0639
594.00,0.0637
593.00,0.0636
592.00,0.0636
591.00,0.0639
590.00,0.0649
589.00,0.0664
588.00,0.0686
587.00,0.0715
586.00,0.0751
585.00,0.0789
584.00,0.0822
583.00,0.0850
582.00,0.0871
581.00,0.0883
580.00,0.0885
579.00,0.0883
578.00,0.0879
577.00,0.0874
576.00,0.0867
575.00,0.0860
574.00,0.0854
573.00,0.0849
572.00,0.0843
571.00,0.0839
570.00,0.0837
569.00,0.0837
568.00,0.0834
567.00,0.0831
566.00,0.0826
565.00,0.0820
564.00,0.0810
563.00,0.0799
562.00,0.0788
561.00,0.0778
560.00,0.0769
559.00,0.0762
558.00,0.0759
557.00,0.0754
556.00,0.0747
555.00,0.0737
554.00,0.0729
553.00,0.0720
552.00,0.0712
551.00,0.0705
550.00,0.0701
549.00,0.0698
548.00,0.0691
547.00,0.0683
546.00,0.0676
545.00,0.0667
544.00,0.0657
543.00,0.0648
542.00,0.0642
541.00,0.0638
540.00,0.0636
539.00,0.0639
538.00,0.0647
537.00,0.0657
536.00,0.0669
535.00,0.0682
534.00,0.0698
533.00,0.0711
532.00,0.0720
531.00,0.0723
530.00,0.0723
529.00,0.0718
528.00,0.0707
527.00,0.0693
526.00,0.0677
525.00,0.0661
524.00,0.0644
523.00,0.0632
522.00,0.0624
521.00,0.0619
520.00,0.0611
519.00,0.0603
518.00,0.0599
517.00,0.0594
516.00,0.0589
515.00,0.0585
514.00,0.0585
513.00,0.0588
512.00,0.0590
511.00,0.0594
510.00,0.0602
509.00,0.0609
508.00,0.0613
507.00,0.0615
506.00,0.0617
505.00,0.0616
504.00,0.0610
503.00,0.0602
502.00,0.0596
501.00,0.0592
500.00,0.0587
499.00,0.0583
498.00,0.0582
497.00,0.0581
496.00,0.0579
495.00,0.0579
494.00,0.0584
493.00,0.0588
492.00,0.0588
491.00,0.0589
490.00,0.0592
489.00,0.0596
488.00,0.0596
487.00,0.0598
486.00,0.0602
485.00,0.0604
484.00,0.0603
483.00,0.0601
482.00,0.0602
481.00,0.0603
480.00,0.0600
479.00,0.0597
478.00,0.0598
477.00,0.0599
476.00,0.0598
475.00,0.0598
474.00,0.0602
473.00,0.0605
472.00,0.0603
471.00,0.0601
470.00,0.0602
469.00,0.0600
468.00,0.0595
467.00,0.0590
466.00,0.0589
465.00,0.0588
464.00,0.0584
463.00,0.0582
462.00,0.0586
461.00,0.0589
460.00,0.0586
459.00,0.0580
458.00,0.0578
457.00,0.0573
456.00,0.0563
455.00,0.0556
454.00,0.0557
453.00,0.0559
452.00,0.0557
451.00,0.0555
450.00,0.0556
449.00,0.0556
448.00,0.0553
447.00,0.0551
446.00,0.0555
445.00,0.0558
444.00,0.0554
443.00,0.0549
442.00,0.0549
441.00,0.0546
440.00,0.0538
439.00,0.0531
438.00,0.0530
437.00,0.0531
436.00,0.0526
435.00,0.0523
434.00,0.0524
433.00,0.0525
432.00,0.0519
431.00,0.0515
430.00,0.0518
429.00,0.0521
428.00,0.0519
427.00,0.0516
426.00,0.0519
425.00,0.0520
424.00,0.0513
423.00,0.0511
422.00,0.0520
421.00,0.0529
420.00,0.0527
419.00,0.0521
418.00,0.0527
417.00,0.0537
416.00,0.0543
415.00,0.0552
414.00,0.0570
413.00,0.0583
412.00,0.0583
411.00,0.0580
410.00,0.0584
409.00,0.0584
408.00,0.0574
407.00,0.0566
406.00,0.0571
405.00,0.0576
404.00,0.0568
403.00,0.0562
402.00,0.0569
401.00,0.0569
400.00,0.0543
