Created as New Dataset,Sample 699 By YargerLab Date Wednesday, June 18 2025
cm-1,A
4000.00,0.0039
3999.00,0.0039
3998.00,0.0039
3997.00,0.0039
3996.00,0.0039
3995.00,0.0039
3994.00,0.0039
3993.00,0.0039
3992.00,0.0039
3991.00,0.0039
3990.00,0.0038
3989.00,0.0038
3988.00,0.0038
3987.00,0.0039
3986.00,0.0039
3985.00,0.0039
3984.00,0.0039
3983.00,0.0039
3982.00,0.0039
3981.00,0.0039
3980.00,0.0039
3979.00,0.0039
3978.00,0.0039
3977.00,0.0040
3976.00,0.0040
3975.00,0.0039
3974.00,0.0039
3973.00,0.0039
3972.00,0.0039
3971.00,0.0039
3970.00,0.0040
3969.00,0.0040
3968.00,0.0040
3967.00,0.0041
3966.00,0.0041
3965.00,0.0041
3964.00,0.0041
3963.00,0.0041
3962.00,0.0041
3961.00,0.0041
3960.00,0.0041
3959.00,0.0041
3958.00,0.0041
3957.00,0.0041
3956.00,0.0041
3955.00,0.0041
3954.00,0.0041
3953.00,0.0041
3952.00,0.0041
3951.00,0.0041
3950.00,0.0041
3949.00,0.0041
3948.00,0.0040
3947.00,0.0040
3946.00,0.0040
3945.00,0.0040
3944.00,0.0040
3943.00,0.0040
3942.00,0.0040
3941.00,0.0040
3940.00,0.0040
3939.00,0.0041
3938.00,0.0041
3937.00,0.0041
3936.00,0.0041
3935.00,0.0041
3934.00,0.0041
3933.00,0.0041
3932.00,0.0041
3931.00,0.0041
3930.00,0.0041
3929.00,0.0041
3928.00,0.0041
3927.00,0.0042
3926.00,0.0042
3925.00,0.0042
3924.00,0.0042
3923.00,0.0042
3922.00,0.0042
3921.00,0.0042
3920.00,0.0042
3919.00,0.0042
3918.00,0.0041
3917.00,0.0041
3916.00,0.0041
3915.00,0.0041
3914.00,0.0041
3913.00,0.0041
3912.00,0.0041
3911.00,0.0041
3910.00,0.0041
3909.00,0.0041
3908.00,0.0040
3907.00,0.0040
3906.00,0.0040
3905.00,0.0040
3904.00,0.0040
3903.00,0.0040
3902.00,0.0040
3901.00,0.0039
3900.00,0.0039
3899.00,0.0039
3898.00,0.0039
3897.00,0.0039
3896.00,0.0039
3895.00,0.0039
3894.00,0.0039
3893.00,0.0039
3892.00,0.0039
3891.00,0.0039
3890.00,0.0039
3889.00,0.0039
3888.00,0.0039
3887.00,0.0038
3886.00,0.0038
3885.00,0.0038
3884.00,0.0038
3883.00,0.0038
3882.00,0.0039
3881.00,0.0039
3880.00,0.0039
3879.00,0.0039
3878.00,0.0039
3877.00,0.0039
3876.00,0.0039
3875.00,0.0039
3874.00,0.0039
3873.00,0.0039
3872.00,0.0039
3871.00,0.0039
3870.00,0.0038
3869.00,0.0038
3868.00,0.0038
3867.00,0.0038
3866.00,0.0038
3865.00,0.0038
3864.00,0.0038
3863.00,0.0038
3862.00,0.0038
3861.00,0.0038
3860.00,0.0038
3859.00,0.0038
3858.00,0.0038
3857.00,0.0039
3856.00,0.0039
3855.00,0.0040
3854.00,0.0039
3853.00,0.0039
3852.00,0.0039
3851.00,0.0038
3850.00,0.0038
3849.00,0.0037
3848.00,0.0038
3847.00,0.0038
3846.00,0.0038
3845.00,0.0038
3844.00,0.0038
3843.00,0.0038
3842.00,0.0038
3841.00,0.0038
3840.00,0.0038
3839.00,0.0037
3838.00,0.0037
3837.00,0.0037
3836.00,0.0037
3835.00,0.0038
3834.00,0.0038
3833.00,0.0038
3832.00,0.0038
3831.00,0.0038
3830.00,0.0038
3829.00,0.0037
3828.00,0.0037
3827.00,0.0037
3826.00,0.0038
3825.00,0.0038
3824.00,0.0038
3823.00,0.0038
3822.00,0.0037
3821.00,0.0038
3820.00,0.0038
3819.00,0.0038
3818.00,0.0037
3817.00,0.0037
3816.00,0.0036
3815.00,0.0036
3814.00,0.0036
3813.00,0.0036
3812.00,0.0037
3811.00,0.0037
3810.00,0.0037
3809.00,0.0037
3808.00,0.0037
3807.00,0.0037
3806.00,0.0037
3805.00,0.0037
3804.00,0.0037
3803.00,0.0037
3802.00,0.0037
3801.00,0.0037
3800.00,0.0037
3799.00,0.0037
3798.00,0.0037
3797.00,0.0037
3796.00,0.0037
3795.00,0.0037
3794.00,0.0037
3793.00,0.0037
3792.00,0.0037
3791.00,0.0037
3790.00,0.0037
3789.00,0.0036
3788.00,0.0036
3787.00,0.0036
3786.00,0.0036
3785.00,0.0036
3784.00,0.0037
3783.00,0.0037
3782.00,0.0037
3781.00,0.0037
3780.00,0.0037
3779.00,0.0037
3778.00,0.0037
3777.00,0.0037
3776.00,0.0037
3775.00,0.0037
3774.00,0.0037
3773.00,0.0037
3772.00,0.0037
3771.00,0.0037
3770.00,0.0037
3769.00,0.0037
3768.00,0.0037
3767.00,0.0037
3766.00,0.0037
3765.00,0.0037
3764.00,0.0037
3763.00,0.0037
3762.00,0.0037
3761.00,0.0037
3760.00,0.0037
3759.00,0.0037
3758.00,0.0037
3757.00,0.0037
3756.00,0.0036
3755.00,0.0036
3754.00,0.0036
3753.00,0.0036
3752.00,0.0036
3751.00,0.0035
3750.00,0.0035
3749.00,0.0035
3748.00,0.0035
3747.00,0.0034
3746.00,0.0035
3745.00,0.0035
3744.00,0.0035
3743.00,0.0035
3742.00,0.0034
3741.00,0.0033
3740.00,0.0033
3739.00,0.0033
3738.00,0.0033
3737.00,0.0033
3736.00,0.0033
3735.00,0.0033
3734.00,0.0033
3733.00,0.0034
3732.00,0.0034
3731.00,0.0034
3730.00,0.0034
3729.00,0.0033
3728.00,0.0033
3727.00,0.0033
3726.00,0.0033
3725.00,0.0033
3724.00,0.0033
3723.00,0.0033
3722.00,0.0033
3721.00,0.0034
3720.00,0.0034
3719.00,0.0034
3718.00,0.0034
3717.00,0.0034
3716.00,0.0035
3715.00,0.0035
3714.00,0.0035
3713.00,0.0034
3712.00,0.0034
3711.00,0.0034
3710.00,0.0034
3709.00,0.0034
3708.00,0.0034
3707.00,0.0033
3706.00,0.0033
3705.00,0.0034
3704.00,0.0034
3703.00,0.0034
3702.00,0.0034
3701.00,0.0033
3700.00,0.0033
3699.00,0.0033
3698.00,0.0033
3697.00,0.0033
3696.00,0.0033
3695.00,0.0033
3694.00,0.0033
3693.00,0.0034
3692.00,0.0034
3691.00,0.0034
3690.00,0.0034
3689.00,0.0033
3688.00,0.0033
3687.00,0.0033
3686.00,0.0033
3685.00,0.0032
3684.00,0.0032
3683.00,0.0032
3682.00,0.0032
3681.00,0.0032
3680.00,0.0032
3679.00,0.0033
3678.00,0.0033
3677.00,0.0032
3676.00,0.0032
3675.00,0.0032
3674.00,0.0032
3673.00,0.0032
3672.00,0.0032
3671.00,0.0032
3670.00,0.0032
3669.00,0.0032
3668.00,0.0032
3667.00,0.0032
3666.00,0.0032
3665.00,0.0032
3664.00,0.0032
3663.00,0.0032
3662.00,0.0032
3661.00,0.0032
3660.00,0.0032
3659.00,0.0032
3658.00,0.0032
3657.00,0.0032
3656.00,0.0032
3655.00,0.0032
3654.00,0.0032
3653.00,0.0032
3652.00,0.0032
3651.00,0.0032
3650.00,0.0031
3649.00,0.0031
3648.00,0.0031
3647.00,0.0032
3646.00,0.0032
3645.00,0.0032
3644.00,0.0032
3643.00,0.0032
3642.00,0.0032
3641.00,0.0032
3640.00,0.0032
3639.00,0.0032
3638.00,0.0032
3637.00,0.0032
3636.00,0.0032
3635.00,0.0032
3634.00,0.0032
3633.00,0.0033
3632.00,0.0033
3631.00,0.0033
3630.00,0.0032
3629.00,0.0032
3628.00,0.0033
3627.00,0.0032
3626.00,0.0032
3625.00,0.0032
3624.00,0.0032
3623.00,0.0032
3622.00,0.0032
3621.00,0.0033
3620.00,0.0033
3619.00,0.0033
3618.00,0.0034
3617.00,0.0034
3616.00,0.0035
3615.00,0.0035
3614.00,0.0035
3613.00,0.0035
3612.00,0.0036
3611.00,0.0035
3610.00,0.0035
3609.00,0.0035
3608.00,0.0035
3607.00,0.0035
3606.00,0.0035
3605.00,0.0035
3604.00,0.0035
3603.00,0.0035
3602.00,0.0035
3601.00,0.0035
3600.00,0.0036
3599.00,0.0036
3598.00,0.0036
3597.00,0.0037
3596.00,0.0037
3595.00,0.0037
3594.00,0.0037
3593.00,0.0038
3592.00,0.0038
3591.00,0.0038
3590.00,0.0038
3589.00,0.0039
3588.00,0.0039
3587.00,0.0039
3586.00,0.0040
3585.00,0.0040
3584.00,0.0040
3583.00,0.0040
3582.00,0.0041
3581.00,0.0041
3580.00,0.0042
3579.00,0.0043
3578.00,0.0044
3577.00,0.0044
3576.00,0.0045
3575.00,0.0045
3574.00,0.0046
3573.00,0.0046
3572.00,0.0047
3571.00,0.0048
3570.00,0.0048
3569.00,0.0048
3568.00,0.0049
3567.00,0.0049
3566.00,0.0050
3565.00,0.0052
3564.00,0.0053
3563.00,0.0054
3562.00,0.0056
3561.00,0.0057
3560.00,0.0059
3559.00,0.0060
3558.00,0.0061
3557.00,0.0063
3556.00,0.0064
3555.00,0.0066
3554.00,0.0068
3553.00,0.0070
3552.00,0.0072
3551.00,0.0075
3550.00,0.0077
3549.00,0.0080
3548.00,0.0082
3547.00,0.0086
3546.00,0.0090
3545.00,0.0094
3544.00,0.0099
3543.00,0.0104
3542.00,0.0110
3541.00,0.0116
3540.00,0.0123
3539.00,0.0130
3538.00,0.0139
3537.00,0.0148
3536.00,0.0159
3535.00,0.0172
3534.00,0.0186
3533.00,0.0203
3532.00,0.0223
3531.00,0.0246
3530.00,0.0274
3529.00,0.0306
3528.00,0.0341
3527.00,0.0378
3526.00,0.0416
3525.00,0.0453
3524.00,0.0487
3523.00,0.0516
3522.00,0.0539
3521.00,0.0552
3520.00,0.0558
3519.00,0.0555
3518.00,0.0546
3517.00,0.0530
3516.00,0.0510
3515.00,0.0486
3514.00,0.0461
3513.00,0.0435
3512.00,0.0409
3511.00,0.0384
3510.00,0.0362
3509.00,0.0341
3508.00,0.0323
3507.00,0.0308
3506.00,0.0294
3505.00,0.0283
3504.00,0.0273
3503.00,0.0266
3502.00,0.0261
3501.00,0.0256
3500.00,0.0253
3499.00,0.0250
3498.00,0.0248
3497.00,0.0247
3496.00,0.0246
3495.00,0.0246
3494.00,0.0247
3493.00,0.0248
3492.00,0.0249
3491.00,0.0251
3490.00,0.0252
3489.00,0.0255
3488.00,0.0257
3487.00,0.0260
3486.00,0.0263
3485.00,0.0266
3484.00,0.0270
3483.00,0.0273
3482.00,0.0278
3481.00,0.0282
3480.00,0.0287
3479.00,0.0292
3478.00,0.0296
3477.00,0.0301
3476.00,0.0307
3475.00,0.0313
3474.00,0.0319
3473.00,0.0326
3472.00,0.0332
3471.00,0.0339
3470.00,0.0346
3469.00,0.0353
3468.00,0.0360
3467.00,0.0367
3466.00,0.0374
3465.00,0.0382
3464.00,0.0390
3463.00,0.0398
3462.00,0.0407
3461.00,0.0415
3460.00,0.0424
3459.00,0.0432
3458.00,0.0440
3457.00,0.0448
3456.00,0.0456
3455.00,0.0464
3454.00,0.0472
3453.00,0.0480
3452.00,0.0487
3451.00,0.0495
3450.00,0.0502
3449.00,0.0510
3448.00,0.0518
3447.00,0.0526
3446.00,0.0535
3445.00,0.0542
3444.00,0.0549
3443.00,0.0556
3442.00,0.0564
3441.00,0.0571
3440.00,0.0579
3439.00,0.0586
3438.00,0.0594
3437.00,0.0601
3436.00,0.0608
3435.00,0.0614
3434.00,0.0621
3433.00,0.0628
3432.00,0.0634
3431.00,0.0641
3430.00,0.0648
3429.00,0.0655
3428.00,0.0662
3427.00,0.0669
3426.00,0.0676
3425.00,0.0684
3424.00,0.0692
3423.00,0.0701
3422.00,0.0711
3421.00,0.0722
3420.00,0.0734
3419.00,0.0746
3418.00,0.0758
3417.00,0.0771
3416.00,0.0784
3415.00,0.0796
3414.00,0.0809
3413.00,0.0821
3412.00,0.0831
3411.00,0.0840
3410.00,0.0847
3409.00,0.0852
3408.00,0.0854
3407.00,0.0853
3406.00,0.0849
3405.00,0.0842
3404.00,0.0832
3403.00,0.0818
3402.00,0.0802
3401.00,0.0783
3400.00,0.0761
3399.00,0.0737
3398.00,0.0711
3397.00,0.0686
3396.00,0.0661
3395.00,0.0636
3394.00,0.0611
3393.00,0.0588
3392.00,0.0566
3391.00,0.0544
3390.00,0.0524
3389.00,0.0505
3388.00,0.0487
3387.00,0.0470
3386.00,0.0454
3385.00,0.0440
3384.00,0.0427
3383.00,0.0415
3382.00,0.0403
3381.00,0.0392
3380.00,0.0381
3379.00,0.0371
3378.00,0.0361
3377.00,0.0352
3376.00,0.0343
3375.00,0.0335
3374.00,0.0327
3373.00,0.0319
3372.00,0.0312
3371.00,0.0305
3370.00,0.0298
3369.00,0.0292
3368.00,0.0285
3367.00,0.0279
3366.00,0.0273
3365.00,0.0267
3364.00,0.0262
3363.00,0.0256
3362.00,0.0251
3361.00,0.0246
3360.00,0.0241
3359.00,0.0236
3358.00,0.0231
3357.00,0.0226
3356.00,0.0222
3355.00,0.0218
3354.00,0.0214
3353.00,0.0211
3352.00,0.0207
3351.00,0.0204
3350.00,0.0200
3349.00,0.0196
3348.00,0.0193
3347.00,0.0190
3346.00,0.0186
3345.00,0.0184
3344.00,0.0181
3343.00,0.0178
3342.00,0.0176
3341.00,0.0173
3340.00,0.0170
3339.00,0.0168
3338.00,0.0165
3337.00,0.0163
3336.00,0.0161
3335.00,0.0158
3334.00,0.0156
3333.00,0.0154
3332.00,0.0152
3331.00,0.0150
3330.00,0.0149
3329.00,0.0147
3328.00,0.0145
3327.00,0.0144
3326.00,0.0142
3325.00,0.0140
3324.00,0.0138
3323.00,0.0136
3322.00,0.0135
3321.00,0.0134
3320.00,0.0132
3319.00,0.0131
3318.00,0.0129
3317.00,0.0128
3316.00,0.0127
3315.00,0.0125
3314.00,0.0124
3313.00,0.0123
3312.00,0.0122
3311.00,0.0121
3310.00,0.0119
3309.00,0.0118
3308.00,0.0116
3307.00,0.0115
3306.00,0.0114
3305.00,0.0113
3304.00,0.0112
3303.00,0.0111
3302.00,0.0110
3301.00,0.0109
3300.00,0.0108
3299.00,0.0107
3298.00,0.0105
3297.00,0.0104
3296.00,0.0103
3295.00,0.0102
3294.00,0.0101
3293.00,0.0100
3292.00,0.0100
3291.00,0.0099
3290.00,0.0099
3289.00,0.0098
3288.00,0.0097
3287.00,0.0096
3286.00,0.0095
3285.00,0.0094
3284.00,0.0093
3283.00,0.0092
3282.00,0.0091
3281.00,0.0090
3280.00,0.0090
3279.00,0.0089
3278.00,0.0087
3277.00,0.0087
3276.00,0.0086
3275.00,0.0085
3274.00,0.0085
3273.00,0.0084
3272.00,0.0084
3271.00,0.0083
3270.00,0.0083
3269.00,0.0083
3268.00,0.0083
3267.00,0.0083
3266.00,0.0083
3265.00,0.0083
3264.00,0.0083
3263.00,0.0083
3262.00,0.0082
3261.00,0.0082
3260.00,0.0081
3259.00,0.0081
3258.00,0.0080
3257.00,0.0080
3256.00,0.0079
3255.00,0.0079
3254.00,0.0079
3253.00,0.0079
3252.00,0.0078
3251.00,0.0078
3250.00,0.0077
3249.00,0.0076
3248.00,0.0076
3247.00,0.0076
3246.00,0.0076
3245.00,0.0076
3244.00,0.0076
3243.00,0.0076
3242.00,0.0075
3241.00,0.0075
3240.00,0.0074
3239.00,0.0074
3238.00,0.0073
3237.00,0.0072
3236.00,0.0071
3235.00,0.0070
3234.00,0.0070
3233.00,0.0069
3232.00,0.0069
3231.00,0.0069
3230.00,0.0068
3229.00,0.0068
3228.00,0.0068
3227.00,0.0068
3226.00,0.0068
3225.00,0.0068
3224.00,0.0068
3223.00,0.0068
3222.00,0.0068
3221.00,0.0068
3220.00,0.0068
3219.00,0.0067
3218.00,0.0067
3217.00,0.0067
3216.00,0.0067
3215.00,0.0067
3214.00,0.0067
3213.00,0.0067
3212.00,0.0067
3211.00,0.0066
3210.00,0.0066
3209.00,0.0066
3208.00,0.0066
3207.00,0.0066
3206.00,0.0065
3205.00,0.0065
3204.00,0.0065
3203.00,0.0065
3202.00,0.0065
3201.00,0.0065
3200.00,0.0064
3199.00,0.0064
3198.00,0.0064
3197.00,0.0063
3196.00,0.0063
3195.00,0.0063
3194.00,0.0063
3193.00,0.0063
3192.00,0.0063
3191.00,0.0063
3190.00,0.0062
3189.00,0.0062
3188.00,0.0062
3187.00,0.0062
3186.00,0.0062
3185.00,0.0062
3184.00,0.0062
3183.00,0.0062
3182.00,0.0062
3181.00,0.0062
3180.00,0.0062
3179.00,0.0063
3178.00,0.0063
3177.00,0.0063
3176.00,0.0063
3175.00,0.0063
3174.00,0.0064
3173.00,0.0064
3172.00,0.0064
3171.00,0.0064
3170.00,0.0064
3169.00,0.0065
3168.00,0.0065
3167.00,0.0065
3166.00,0.0065
3165.00,0.0065
3164.00,0.0065
3163.00,0.0064
3162.00,0.0064
3161.00,0.0064
3160.00,0.0064
3159.00,0.0064
3158.00,0.0063
3157.00,0.0062
3156.00,0.0061
3155.00,0.0060
3154.00,0.0059
3153.00,0.0058
3152.00,0.0058
3151.00,0.0059
3150.00,0.0059
3149.00,0.0059
3148.00,0.0059
3147.00,0.0059
3146.00,0.0059
3145.00,0.0059
3144.00,0.0059
3143.00,0.0058
3142.00,0.0058
3141.00,0.0058
3140.00,0.0057
3139.00,0.0057
3138.00,0.0058
3137.00,0.0058
3136.00,0.0058
3135.00,0.0058
3134.00,0.0058
3133.00,0.0057
3132.00,0.0057
3131.00,0.0057
3130.00,0.0057
3129.00,0.0057
3128.00,0.0057
3127.00,0.0057
3126.00,0.0056
3125.00,0.0056
3124.00,0.0056
3123.00,0.0055
3122.00,0.0055
3121.00,0.0054
3120.00,0.0054
3119.00,0.0054
3118.00,0.0054
3117.00,0.0054
3116.00,0.0054
3115.00,0.0054
3114.00,0.0054
3113.00,0.0054
3112.00,0.0054
3111.00,0.0054
3110.00,0.0054
3109.00,0.0054
3108.00,0.0054
3107.00,0.0054
3106.00,0.0054
3105.00,0.0054
3104.00,0.0055
3103.00,0.0054
3102.00,0.0055
3101.00,0.0055
3100.00,0.0055
3099.00,0.0056
3098.00,0.0056
3097.00,0.0056
3096.00,0.0057
3095.00,0.0057
3094.00,0.0057
3093.00,0.0057
3092.00,0.0058
3091.00,0.0058
3090.00,0.0059
3089.00,0.0060
3088.00,0.0062
3087.00,0.0063
3086.00,0.0065
3085.00,0.0068
3084.00,0.0072
3083.00,0.0077
3082.00,0.0084
3081.00,0.0093
3080.00,0.0105
3079.00,0.0119
3078.00,0.0134
3077.00,0.0148
3076.00,0.0159
3075.00,0.0164
3074.00,0.0161
3073.00,0.0153
3072.00,0.0140
3071.00,0.0126
3070.00,0.0112
3069.00,0.0101
3068.00,0.0091
3067.00,0.0084
3066.00,0.0079
3065.00,0.0075
3064.00,0.0072
3063.00,0.0070
3062.00,0.0068
3061.00,0.0066
3060.00,0.0065
3059.00,0.0064
3058.00,0.0063
3057.00,0.0062
3056.00,0.0062
3055.00,0.0061
3054.00,0.0061
3053.00,0.0061
3052.00,0.0061
3051.00,0.0062
3050.00,0.0062
3049.00,0.0063
3048.00,0.0064
3047.00,0.0066
3046.00,0.0067
3045.00,0.0068
3044.00,0.0070
3043.00,0.0071
3042.00,0.0073
3041.00,0.0074
3040.00,0.0076
3039.00,0.0078
3038.00,0.0079
3037.00,0.0081
3036.00,0.0083
3035.00,0.0085
3034.00,0.0087
3033.00,0.0088
3032.00,0.0088
3031.00,0.0087
3030.00,0.0085
3029.00,0.0083
3028.00,0.0081
3027.00,0.0078
3026.00,0.0076
3025.00,0.0074
3024.00,0.0073
3023.00,0.0072
3022.00,0.0071
3021.00,0.0070
3020.00,0.0070
3019.00,0.0070
3018.00,0.0070
3017.00,0.0070
3016.00,0.0070
3015.00,0.0070
3014.00,0.0071
3013.00,0.0072
3012.00,0.0073
3011.00,0.0074
3010.00,0.0076
3009.00,0.0077
3008.00,0.0078
3007.00,0.0078
3006.00,0.0079
3005.00,0.0079
3004.00,0.0080
3003.00,0.0081
3002.00,0.0083
3001.00,0.0084
3000.00,0.0086
2999.00,0.0088
2998.00,0.0090
2997.00,0.0093
2996.00,0.0095
2995.00,0.0099
2994.00,0.0102
2993.00,0.0106
2992.00,0.0111
2991.00,0.0115
2990.00,0.0120
2989.00,0.0124
2988.00,0.0127
2987.00,0.0130
2986.00,0.0132
2985.00,0.0135
2984.00,0.0139
2983.00,0.0143
2982.00,0.0150
2981.00,0.0159
2980.00,0.0170
2979.00,0.0183
2978.00,0.0199
2977.00,0.0217
2976.00,0.0238
2975.00,0.0262
2974.00,0.0288
2973.00,0.0315
2972.00,0.0344
2971.00,0.0373
2970.00,0.0401
2969.00,0.0427
2968.00,0.0449
2967.00,0.0466
2966.00,0.0477
2965.00,0.0482
2964.00,0.0483
2963.00,0.0481
2962.00,0.0478
2961.00,0.0472
2960.00,0.0463
2959.00,0.0452
2958.00,0.0439
2957.00,0.0425
2956.00,0.0410
2955.00,0.0396
2954.00,0.0383
2953.00,0.0373
2952.00,0.0366
2951.00,0.0362
2950.00,0.0364
2949.00,0.0371
2948.00,0.0384
2947.00,0.0403
2946.00,0.0426
2945.00,0.0452
2944.00,0.0478
2943.00,0.0504
2942.00,0.0528
2941.00,0.0550
2940.00,0.0571
2939.00,0.0592
2938.00,0.0614
2937.00,0.0639
2936.00,0.0666
2935.00,0.0695
2934.00,0.0724
2933.00,0.0755
2932.00,0.0786
2931.00,0.0817
2930.00,0.0848
2929.00,0.0878
2928.00,0.0905
2927.00,0.0926
2926.00,0.0940
2925.00,0.0946
2924.00,0.0945
2923.00,0.0939
2922.00,0.0930
2921.00,0.0920
2920.00,0.0910
2919.00,0.0902
2918.00,0.0894
2917.00,0.0886
2916.00,0.0876
2915.00,0.0862
2914.00,0.0845
2913.00,0.0823
2912.00,0.0797
2911.00,0.0769
2910.00,0.0740
2909.00,0.0710
2908.00,0.0682
2907.00,0.0655
2906.00,0.0631
2905.00,0.0609
2904.00,0.0589
2903.00,0.0573
2902.00,0.0557
2901.00,0.0543
2900.00,0.0528
2899.00,0.0512
2898.00,0.0495
2897.00,0.0477
2896.00,0.0459
2895.00,0.0442
2894.00,0.0426
2893.00,0.0412
2892.00,0.0401
2891.00,0.0391
2890.00,0.0384
2889.00,0.0379
2888.00,0.0374
2887.00,0.0372
2886.00,0.0369
2885.00,0.0368
2884.00,0.0367
2883.00,0.0367
2882.00,0.0368
2881.00,0.0370
2880.00,0.0373
2879.00,0.0378
2878.00,0.0385
2877.00,0.0392
2876.00,0.0401
2875.00,0.0410
2874.00,0.0418
2873.00,0.0425
2872.00,0.0429
2871.00,0.0430
2870.00,0.0427
2869.00,0.0422
2868.00,0.0417
2867.00,0.0414
2866.00,0.0415
2865.00,0.0423
2864.00,0.0438
2863.00,0.0461
2862.00,0.0492
2861.00,0.0530
2860.00,0.0574
2859.00,0.0619
2858.00,0.0660
2857.00,0.0689
2856.00,0.0702
2855.00,0.0694
2854.00,0.0669
2853.00,0.0630
2852.00,0.0583
2851.00,0.0534
2850.00,0.0487
2849.00,0.0443
2848.00,0.0402
2847.00,0.0366
2846.00,0.0335
2845.00,0.0308
2844.00,0.0285
2843.00,0.0266
2842.00,0.0251
2841.00,0.0240
2840.00,0.0232
2839.00,0.0228
2838.00,0.0227
2837.00,0.0231
2836.00,0.0240
2835.00,0.0255
2834.00,0.0276
2833.00,0.0301
2832.00,0.0327
2831.00,0.0349
2830.00,0.0362
2829.00,0.0362
2828.00,0.0347
2827.00,0.0322
2826.00,0.0291
2825.00,0.0260
2824.00,0.0231
2823.00,0.0207
2822.00,0.0188
2821.00,0.0172
2820.00,0.0160
2819.00,0.0150
2818.00,0.0142
2817.00,0.0135
2816.00,0.0130
2815.00,0.0125
2814.00,0.0121
2813.00,0.0118
2812.00,0.0115
2811.00,0.0112
2810.00,0.0110
2809.00,0.0108
2808.00,0.0106
2807.00,0.0104
2806.00,0.0102
2805.00,0.0100
2804.00,0.0098
2803.00,0.0096
2802.00,0.0095
2801.00,0.0093
2800.00,0.0091
2799.00,0.0090
2798.00,0.0089
2797.00,0.0088
2796.00,0.0087
2795.00,0.0086
2794.00,0.0085
2793.00,0.0084
2792.00,0.0083
2791.00,0.0082
2790.00,0.0081
2789.00,0.0080
2788.00,0.0080
2787.00,0.0079
2786.00,0.0079
2785.00,0.0078
2784.00,0.0077
2783.00,0.0076
2782.00,0.0075
2781.00,0.0074
2780.00,0.0073
2779.00,0.0072
2778.00,0.0072
2777.00,0.0071
2776.00,0.0071
2775.00,0.0070
2774.00,0.0070
2773.00,0.0069
2772.00,0.0069
2771.00,0.0068
2770.00,0.0068
2769.00,0.0067
2768.00,0.0067
2767.00,0.0066
2766.00,0.0066
2765.00,0.0065
2764.00,0.0065
2763.00,0.0064
2762.00,0.0064
2761.00,0.0063
2760.00,0.0063
2759.00,0.0063
2758.00,0.0062
2757.00,0.0062
2756.00,0.0062
2755.00,0.0062
2754.00,0.0061
2753.00,0.0061
2752.00,0.0061
2751.00,0.0061
2750.00,0.0061
2749.00,0.0061
2748.00,0.0062
2747.00,0.0062
2746.00,0.0062
2745.00,0.0063
2744.00,0.0063
2743.00,0.0064
2742.00,0.0064
2741.00,0.0065
2740.00,0.0066
2739.00,0.0066
2738.00,0.0067
2737.00,0.0068
2736.00,0.0069
2735.00,0.0071
2734.00,0.0073
2733.00,0.0075
2732.00,0.0077
2731.00,0.0080
2730.00,0.0081
2729.00,0.0082
2728.00,0.0082
2727.00,0.0081
2726.00,0.0079
2725.00,0.0077
2724.00,0.0075
2723.00,0.0073
2722.00,0.0071
2721.00,0.0069
2720.00,0.0068
2719.00,0.0067
2718.00,0.0065
2717.00,0.0064
2716.00,0.0063
2715.00,0.0063
2714.00,0.0062
2713.00,0.0061
2712.00,0.0060
2711.00,0.0060
2710.00,0.0059
2709.00,0.0059
2708.00,0.0058
2707.00,0.0058
2706.00,0.0058
2705.00,0.0057
2704.00,0.0057
2703.00,0.0056
2702.00,0.0055
2701.00,0.0055
2700.00,0.0054
2699.00,0.0054
2698.00,0.0054
2697.00,0.0054
2696.00,0.0054
2695.00,0.0053
2694.00,0.0053
2693.00,0.0053
2692.00,0.0054
2691.00,0.0054
2690.00,0.0054
2689.00,0.0054
2688.00,0.0055
2687.00,0.0055
2686.00,0.0055
2685.00,0.0055
2684.00,0.0056
2683.00,0.0056
2682.00,0.0056
2681.00,0.0057
2680.00,0.0057
2679.00,0.0057
2678.00,0.0058
2677.00,0.0058
2676.00,0.0059
2675.00,0.0059
2674.00,0.0060
2673.00,0.0060
2672.00,0.0060
2671.00,0.0061
2670.00,0.0061
2669.00,0.0061
2668.00,0.0061
2667.00,0.0061
2666.00,0.0061
2665.00,0.0062
2664.00,0.0062
2663.00,0.0062
2662.00,0.0062
2661.00,0.0062
2660.00,0.0062
2659.00,0.0061
2658.00,0.0061
2657.00,0.0061
2656.00,0.0061
2655.00,0.0061
2654.00,0.0060
2653.00,0.0060
2652.00,0.0059
2651.00,0.0059
2650.00,0.0059
2649.00,0.0058
2648.00,0.0058
2647.00,0.0057
2646.00,0.0057
2645.00,0.0056
2644.00,0.0056
2643.00,0.0056
2642.00,0.0055
2641.00,0.0055
2640.00,0.0055
2639.00,0.0055
2638.00,0.0055
2637.00,0.0055
2636.00,0.0055
2635.00,0.0055
2634.00,0.0055
2633.00,0.0055
2632.00,0.0055
2631.00,0.0055
2630.00,0.0055
2629.00,0.0055
2628.00,0.0055
2627.00,0.0055
2626.00,0.0055
2625.00,0.0055
2624.00,0.0055
2623.00,0.0055
2622.00,0.0055
2621.00,0.0055
2620.00,0.0054
2619.00,0.0054
2618.00,0.0054
2617.00,0.0054
2616.00,0.0054
2615.00,0.0054
2614.00,0.0054
2613.00,0.0054
2612.00,0.0054
2611.00,0.0054
2610.00,0.0054
2609.00,0.0053
2608.00,0.0053
2607.00,0.0053
2606.00,0.0053
2605.00,0.0053
2604.00,0.0053
2603.00,0.0053
2602.00,0.0053
2601.00,0.0053
2600.00,0.0053
2599.00,0.0053
2598.00,0.0052
2597.00,0.0052
2596.00,0.0052
2595.00,0.0052
2594.00,0.0052
2593.00,0.0052
2592.00,0.0052
2591.00,0.0051
2590.00,0.0051
2589.00,0.0051
2588.00,0.0051
2587.00,0.0050
2586.00,0.0050
2585.00,0.0049
2584.00,0.0049
2583.00,0.0048
2582.00,0.0048
2581.00,0.0048
2580.00,0.0048
2579.00,0.0048
2578.00,0.0048
2577.00,0.0048
2576.00,0.0048
2575.00,0.0048
2574.00,0.0048
2573.00,0.0048
2572.00,0.0048
2571.00,0.0048
2570.00,0.0048
2569.00,0.0048
2568.00,0.0048
2567.00,0.0048
2566.00,0.0048
2565.00,0.0048
2564.00,0.0048
2563.00,0.0048
2562.00,0.0048
2561.00,0.0048
2560.00,0.0048
2559.00,0.0048
2558.00,0.0048
2557.00,0.0048
2556.00,0.0048
2555.00,0.0048
2554.00,0.0047
2553.00,0.0047
2552.00,0.0047
2551.00,0.0047
2550.00,0.0047
2549.00,0.0047
2548.00,0.0047
2547.00,0.0048
2546.00,0.0048
2545.00,0.0048
2544.00,0.0048
2543.00,0.0048
2542.00,0.0048
2541.00,0.0047
2540.00,0.0047
2539.00,0.0047
2538.00,0.0047
2537.00,0.0047
2536.00,0.0047
2535.00,0.0047
2534.00,0.0047
2533.00,0.0047
2532.00,0.0047
2531.00,0.0047
2530.00,0.0047
2529.00,0.0047
2528.00,0.0047
2527.00,0.0047
2526.00,0.0047
2525.00,0.0047
2524.00,0.0047
2523.00,0.0047
2522.00,0.0047
2521.00,0.0047
2520.00,0.0047
2519.00,0.0048
2518.00,0.0048
2517.00,0.0048
2516.00,0.0048
2515.00,0.0048
2514.00,0.0048
2513.00,0.0048
2512.00,0.0049
2511.00,0.0049
2510.00,0.0049
2509.00,0.0049
2508.00,0.0049
2507.00,0.0049
2506.00,0.0049
2505.00,0.0049
2504.00,0.0049
2503.00,0.0049
2502.00,0.0049
2501.00,0.0050
2500.00,0.0050
2499.00,0.0050
2498.00,0.0050
2497.00,0.0050
2496.00,0.0050
2495.00,0.0051
2494.00,0.0051
2493.00,0.0051
2492.00,0.0051
2491.00,0.0050
2490.00,0.0050
2489.00,0.0050
2488.00,0.0050
2487.00,0.0050
2486.00,0.0051
2485.00,0.0051
2484.00,0.0052
2483.00,0.0052
2482.00,0.0052
2481.00,0.0052
2480.00,0.0053
2479.00,0.0053
2478.00,0.0054
2477.00,0.0054
2476.00,0.0054
2475.00,0.0054
2474.00,0.0054
2473.00,0.0054
2472.00,0.0054
2471.00,0.0054
2470.00,0.0054
2469.00,0.0054
2468.00,0.0054
2467.00,0.0054
2466.00,0.0054
2465.00,0.0054
2464.00,0.0055
2463.00,0.0055
2462.00,0.0056
2461.00,0.0056
2460.00,0.0057
2459.00,0.0057
2458.00,0.0057
2457.00,0.0057
2456.00,0.0057
2455.00,0.0057
2454.00,0.0057
2453.00,0.0057
2452.00,0.0057
2451.00,0.0057
2450.00,0.0057
2449.00,0.0056
2448.00,0.0056
2447.00,0.0055
2446.00,0.0054
2445.00,0.0054
2444.00,0.0053
2443.00,0.0053
2442.00,0.0053
2441.00,0.0052
2440.00,0.0052
2439.00,0.0052
2438.00,0.0051
2437.00,0.0050
2436.00,0.0050
2435.00,0.0049
2434.00,0.0049
2433.00,0.0048
2432.00,0.0048
2431.00,0.0048
2430.00,0.0047
2429.00,0.0047
2428.00,0.0047
2427.00,0.0047
2426.00,0.0046
2425.00,0.0046
2424.00,0.0046
2423.00,0.0046
2422.00,0.0046
2421.00,0.0045
2420.00,0.0045
2419.00,0.0045
2418.00,0.0044
2417.00,0.0044
2416.00,0.0044
2415.00,0.0044
2414.00,0.0044
2413.00,0.0044
2412.00,0.0044
2411.00,0.0044
2410.00,0.0044
2409.00,0.0043
2408.00,0.0042
2407.00,0.0042
2406.00,0.0042
2405.00,0.0042
2404.00,0.0042
2403.00,0.0042
2402.00,0.0043
2401.00,0.0043
2400.00,0.0043
2399.00,0.0042
2398.00,0.0042
2397.00,0.0042
2396.00,0.0042
2395.00,0.0042
2394.00,0.0043
2393.00,0.0043
2392.00,0.0043
2391.00,0.0043
2390.00,0.0043
2389.00,0.0043
2388.00,0.0043
2387.00,0.0043
2386.00,0.0042
2385.00,0.0042
2384.00,0.0041
2383.00,0.0040
2382.00,0.0039
2381.00,0.0039
2380.00,0.0038
2379.00,0.0037
2378.00,0.0037
2377.00,0.0037
2376.00,0.0038
2375.00,0.0038
2374.00,0.0038
2373.00,0.0038
2372.00,0.0038
2371.00,0.0038
2370.00,0.0037
2369.00,0.0036
2368.00,0.0036
2367.00,0.0036
2366.00,0.0035
2365.00,0.0036
2364.00,0.0036
2363.00,0.0036
2362.00,0.0037
2361.00,0.0037
2360.00,0.0037
2359.00,0.0037
2358.00,0.0037
2357.00,0.0038
2356.00,0.0039
2355.00,0.0040
2354.00,0.0040
2353.00,0.0040
2352.00,0.0039
2351.00,0.0039
2350.00,0.0039
2349.00,0.0039
2348.00,0.0039
2347.00,0.0040
2346.00,0.0040
2345.00,0.0040
2344.00,0.0039
2343.00,0.0039
2342.00,0.0039
2341.00,0.0040
2340.00,0.0041
2339.00,0.0042
2338.00,0.0042
2337.00,0.0043
2336.00,0.0043
2335.00,0.0043
2334.00,0.0043
2333.00,0.0043
2332.00,0.0043
2331.00,0.0042
2330.00,0.0043
2329.00,0.0044
2328.00,0.0048
2327.00,0.0053
2326.00,0.0056
2325.00,0.0057
2324.00,0.0055
2323.00,0.0053
2322.00,0.0050
2321.00,0.0049
2320.00,0.0048
2319.00,0.0047
2318.00,0.0047
2317.00,0.0046
2316.00,0.0046
2315.00,0.0046
2314.00,0.0045
2313.00,0.0045
2312.00,0.0044
2311.00,0.0043
2310.00,0.0042
2309.00,0.0042
2308.00,0.0042
2307.00,0.0042
2306.00,0.0043
2305.00,0.0043
2304.00,0.0044
2303.00,0.0044
2302.00,0.0044
2301.00,0.0044
2300.00,0.0044
2299.00,0.0045
2298.00,0.0046
2297.00,0.0047
2296.00,0.0048
2295.00,0.0050
2294.00,0.0051
2293.00,0.0052
2292.00,0.0053
2291.00,0.0054
2290.00,0.0055
2289.00,0.0056
2288.00,0.0057
2287.00,0.0057
2286.00,0.0056
2285.00,0.0056
2284.00,0.0055
2283.00,0.0054
2282.00,0.0054
2281.00,0.0053
2280.00,0.0053
2279.00,0.0052
2278.00,0.0052
2277.00,0.0052
2276.00,0.0051
2275.00,0.0051
2274.00,0.0050
2273.00,0.0050
2272.00,0.0050
2271.00,0.0050
2270.00,0.0049
2269.00,0.0048
2268.00,0.0047
2267.00,0.0046
2266.00,0.0046
2265.00,0.0045
2264.00,0.0045
2263.00,0.0045
2262.00,0.0045
2261.00,0.0046
2260.00,0.0046
2259.00,0.0047
2258.00,0.0046
2257.00,0.0045
2256.00,0.0045
2255.00,0.0045
2254.00,0.0045
2253.00,0.0045
2252.00,0.0045
2251.00,0.0045
2250.00,0.0046
2249.00,0.0046
2248.00,0.0047
2247.00,0.0047
2246.00,0.0047
2245.00,0.0047
2244.00,0.0046
2243.00,0.0046
2242.00,0.0046
2241.00,0.0046
2240.00,0.0046
2239.00,0.0047
2238.00,0.0047
2237.00,0.0047
2236.00,0.0046
2235.00,0.0046
2234.00,0.0046
2233.00,0.0047
2232.00,0.0046
2231.00,0.0046
2230.00,0.0045
2229.00,0.0044
2228.00,0.0044
2227.00,0.0044
2226.00,0.0044
2225.00,0.0045
2224.00,0.0045
2223.00,0.0046
2222.00,0.0047
2221.00,0.0047
2220.00,0.0046
2219.00,0.0045
2218.00,0.0045
2217.00,0.0045
2216.00,0.0045
2215.00,0.0045
2214.00,0.0045
2213.00,0.0045
2212.00,0.0045
2211.00,0.0045
2210.00,0.0045
2209.00,0.0045
2208.00,0.0045
2207.00,0.0045
2206.00,0.0044
2205.00,0.0044
2204.00,0.0044
2203.00,0.0044
2202.00,0.0044
2201.00,0.0045
2200.00,0.0045
2199.00,0.0046
2198.00,0.0046
2197.00,0.0046
2196.00,0.0045
2195.00,0.0044
2194.00,0.0044
2193.00,0.0045
2192.00,0.0046
2191.00,0.0047
2190.00,0.0047
2189.00,0.0049
2188.00,0.0050
2187.00,0.0051
2186.00,0.0050
2185.00,0.0047
2184.00,0.0043
2183.00,0.0039
2182.00,0.0037
2181.00,0.0036
2180.00,0.0038
2179.00,0.0039
2178.00,0.0038
2177.00,0.0037
2176.00,0.0037
2175.00,0.0038
2174.00,0.0040
2173.00,0.0043
2172.00,0.0045
2171.00,0.0048
2170.00,0.0049
2169.00,0.0050
2168.00,0.0051
2167.00,0.0052
2166.00,0.0052
2165.00,0.0054
2164.00,0.0056
2163.00,0.0055
2162.00,0.0049
2161.00,0.0036
2160.00,0.0021
2159.00,0.0008
2158.00,0.0002
2157.00,0.0003
2156.00,0.0007
2155.00,0.0011
2154.00,0.0014
2153.00,0.0017
2152.00,0.0019
2151.00,0.0019
2150.00,0.0019
2149.00,0.0019
2148.00,0.0019
2147.00,0.0019
2146.00,0.0019
2145.00,0.0021
2144.00,0.0022
2143.00,0.0022
2142.00,0.0022
2141.00,0.0022
2140.00,0.0022
2139.00,0.0022
2138.00,0.0020
2137.00,0.0017
2136.00,0.0013
2135.00,0.0011
2134.00,0.0011
2133.00,0.0013
2132.00,0.0016
2131.00,0.0019
2130.00,0.0020
2129.00,0.0022
2128.00,0.0025
2127.00,0.0026
2126.00,0.0028
2125.00,0.0028
2124.00,0.0029
2123.00,0.0030
2122.00,0.0031
2121.00,0.0032
2120.00,0.0033
2119.00,0.0035
2118.00,0.0036
2117.00,0.0038
2116.00,0.0039
2115.00,0.0039
2114.00,0.0039
2113.00,0.0039
2112.00,0.0039
2111.00,0.0038
2110.00,0.0038
2109.00,0.0037
2108.00,0.0038
2107.00,0.0037
2106.00,0.0037
2105.00,0.0036
2104.00,0.0035
2103.00,0.0035
2102.00,0.0035
2101.00,0.0034
2100.00,0.0034
2099.00,0.0033
2098.00,0.0032
2097.00,0.0030
2096.00,0.0029
2095.00,0.0028
2094.00,0.0029
2093.00,0.0031
2092.00,0.0033
2091.00,0.0035
2090.00,0.0036
2089.00,0.0037
2088.00,0.0038
2087.00,0.0038
2086.00,0.0039
2085.00,0.0039
2084.00,0.0040
2083.00,0.0040
2082.00,0.0040
2081.00,0.0040
2080.00,0.0039
2079.00,0.0039
2078.00,0.0039
2077.00,0.0038
2076.00,0.0038
2075.00,0.0038
2074.00,0.0037
2073.00,0.0036
2072.00,0.0036
2071.00,0.0035
2070.00,0.0034
2069.00,0.0033
2068.00,0.0032
2067.00,0.0031
2066.00,0.0031
2065.00,0.0031
2064.00,0.0031
2063.00,0.0031
2062.00,0.0031
2061.00,0.0031
2060.00,0.0031
2059.00,0.0032
2058.00,0.0034
2057.00,0.0035
2056.00,0.0036
2055.00,0.0037
2054.00,0.0039
2053.00,0.0043
2052.00,0.0047
2051.00,0.0046
2050.00,0.0042
2049.00,0.0036
2048.00,0.0033
2047.00,0.0031
2046.00,0.0030
2045.00,0.0029
2044.00,0.0028
2043.00,0.0028
2042.00,0.0027
2041.00,0.0027
2040.00,0.0028
2039.00,0.0028
2038.00,0.0028
2037.00,0.0027
2036.00,0.0025
2035.00,0.0022
2034.00,0.0019
2033.00,0.0018
2032.00,0.0018
2031.00,0.0018
2030.00,0.0017
2029.00,0.0017
2028.00,0.0017
2027.00,0.0018
2026.00,0.0019
2025.00,0.0020
2024.00,0.0021
2023.00,0.0021
2022.00,0.0021
2021.00,0.0022
2020.00,0.0022
2019.00,0.0022
2018.00,0.0022
2017.00,0.0022
2016.00,0.0023
2015.00,0.0024
2014.00,0.0024
2013.00,0.0025
2012.00,0.0026
2011.00,0.0026
2010.00,0.0025
2009.00,0.0021
2008.00,0.0018
2007.00,0.0015
2006.00,0.0014
2005.00,0.0014
2004.00,0.0016
2003.00,0.0017
2002.00,0.0019
2001.00,0.0021
2000.00,0.0023
1999.00,0.0024
1998.00,0.0025
1997.00,0.0027
1996.00,0.0028
1995.00,0.0029
1994.00,0.0030
1993.00,0.0030
1992.00,0.0031
1991.00,0.0033
1990.00,0.0034
1989.00,0.0035
1988.00,0.0035
1987.00,0.0034
1986.00,0.0034
1985.00,0.0037
1984.00,0.0040
1983.00,0.0044
1982.00,0.0047
1981.00,0.0047
1980.00,0.0042
1979.00,0.0033
1978.00,0.0025
1977.00,0.0021
1976.00,0.0020
1975.00,0.0020
1974.00,0.0019
1973.00,0.0017
1972.00,0.0017
1971.00,0.0016
1970.00,0.0015
1969.00,0.0016
1968.00,0.0018
1967.00,0.0020
1966.00,0.0021
1965.00,0.0021
1964.00,0.0020
1963.00,0.0018
1962.00,0.0017
1961.00,0.0016
1960.00,0.0015
1959.00,0.0015
1958.00,0.0016
1957.00,0.0017
1956.00,0.0019
1955.00,0.0021
1954.00,0.0022
1953.00,0.0023
1952.00,0.0024
1951.00,0.0025
1950.00,0.0024
1949.00,0.0024
1948.00,0.0024
1947.00,0.0024
1946.00,0.0024
1945.00,0.0024
1944.00,0.0024
1943.00,0.0024
1942.00,0.0024
1941.00,0.0024
1940.00,0.0025
1939.00,0.0026
1938.00,0.0026
1937.00,0.0025
1936.00,0.0025
1935.00,0.0025
1934.00,0.0026
1933.00,0.0026
1932.00,0.0026
1931.00,0.0026
1930.00,0.0026
1929.00,0.0026
1928.00,0.0026
1927.00,0.0026
1926.00,0.0027
1925.00,0.0027
1924.00,0.0026
1923.00,0.0026
1922.00,0.0027
1921.00,0.0028
1920.00,0.0029
1919.00,0.0030
1918.00,0.0030
1917.00,0.0030
1916.00,0.0030
1915.00,0.0030
1914.00,0.0030
1913.00,0.0031
1912.00,0.0031
1911.00,0.0031
1910.00,0.0031
1909.00,0.0031
1908.00,0.0031
1907.00,0.0031
1906.00,0.0031
1905.00,0.0032
1904.00,0.0033
1903.00,0.0034
1902.00,0.0034
1901.00,0.0034
1900.00,0.0034
1899.00,0.0034
1898.00,0.0034
1897.00,0.0034
1896.00,0.0034
1895.00,0.0034
1894.00,0.0034
1893.00,0.0034
1892.00,0.0035
1891.00,0.0035
1890.00,0.0035
1889.00,0.0035
1888.00,0.0035
1887.00,0.0036
1886.00,0.0035
1885.00,0.0035
1884.00,0.0035
1883.00,0.0035
1882.00,0.0035
1881.00,0.0036
1880.00,0.0036
1879.00,0.0036
1878.00,0.0036
1877.00,0.0036
1876.00,0.0037
1875.00,0.0037
1874.00,0.0037
1873.00,0.0037
1872.00,0.0037
1871.00,0.0037
1870.00,0.0036
1869.00,0.0035
1868.00,0.0035
1867.00,0.0035
1866.00,0.0035
1865.00,0.0036
1864.00,0.0036
1863.00,0.0037
1862.00,0.0036
1861.00,0.0036
1860.00,0.0036
1859.00,0.0036
1858.00,0.0036
1857.00,0.0037
1856.00,0.0037
1855.00,0.0037
1854.00,0.0037
1853.00,0.0037
1852.00,0.0037
1851.00,0.0037
1850.00,0.0037
1849.00,0.0037
1848.00,0.0037
1847.00,0.0037
1846.00,0.0037
1845.00,0.0037
1844.00,0.0037
1843.00,0.0037
1842.00,0.0036
1841.00,0.0036
1840.00,0.0037
1839.00,0.0037
1838.00,0.0037
1837.00,0.0038
1836.00,0.0038
1835.00,0.0038
1834.00,0.0038
1833.00,0.0038
1832.00,0.0039
1831.00,0.0040
1830.00,0.0040
1829.00,0.0040
1828.00,0.0040
1827.00,0.0040
1826.00,0.0040
1825.00,0.0041
1824.00,0.0042
1823.00,0.0042
1822.00,0.0042
1821.00,0.0042
1820.00,0.0041
1819.00,0.0040
1818.00,0.0039
1817.00,0.0038
1816.00,0.0039
1815.00,0.0041
1814.00,0.0042
1813.00,0.0043
1812.00,0.0044
1811.00,0.0045
1810.00,0.0045
1809.00,0.0047
1808.00,0.0048
1807.00,0.0049
1806.00,0.0050
1805.00,0.0051
1804.00,0.0052
1803.00,0.0053
1802.00,0.0053
1801.00,0.0053
1800.00,0.0053
1799.00,0.0053
1798.00,0.0053
1797.00,0.0052
1796.00,0.0051
1795.00,0.0050
1794.00,0.0049
1793.00,0.0048
1792.00,0.0048
1791.00,0.0048
1790.00,0.0047
1789.00,0.0048
1788.00,0.0048
1787.00,0.0048
1786.00,0.0048
1785.00,0.0049
1784.00,0.0049
1783.00,0.0049
1782.00,0.0049
1781.00,0.0049
1780.00,0.0050
1779.00,0.0051
1778.00,0.0051
1777.00,0.0053
1776.00,0.0054
1775.00,0.0056
1774.00,0.0057
1773.00,0.0059
1772.00,0.0061
1771.00,0.0061
1770.00,0.0061
1769.00,0.0060
1768.00,0.0058
1767.00,0.0057
1766.00,0.0055
1765.00,0.0054
1764.00,0.0053
1763.00,0.0052
1762.00,0.0052
1761.00,0.0051
1760.00,0.0051
1759.00,0.0051
1758.00,0.0051
1757.00,0.0050
1756.00,0.0050
1755.00,0.0050
1754.00,0.0050
1753.00,0.0050
1752.00,0.0049
1751.00,0.0048
1750.00,0.0047
1749.00,0.0047
1748.00,0.0047
1747.00,0.0048
1746.00,0.0048
1745.00,0.0048
1744.00,0.0049
1743.00,0.0049
1742.00,0.0050
1741.00,0.0051
1740.00,0.0052
1739.00,0.0053
1738.00,0.0053
1737.00,0.0054
1736.00,0.0054
1735.00,0.0054
1734.00,0.0054
1733.00,0.0053
1732.00,0.0053
1731.00,0.0053
1730.00,0.0054
1729.00,0.0055
1728.00,0.0057
1727.00,0.0058
1726.00,0.0059
1725.00,0.0060
1724.00,0.0061
1723.00,0.0062
1722.00,0.0063
1721.00,0.0064
1720.00,0.0065
1719.00,0.0065
1718.00,0.0065
1717.00,0.0065
1716.00,0.0065
1715.00,0.0067
1714.00,0.0068
1713.00,0.0069
1712.00,0.0070
1711.00,0.0070
1710.00,0.0070
1709.00,0.0070
1708.00,0.0069
1707.00,0.0068
1706.00,0.0066
1705.00,0.0064
1704.00,0.0063
1703.00,0.0061
1702.00,0.0058
1701.00,0.0054
1700.00,0.0047
1699.00,0.0039
1698.00,0.0031
1697.00,0.0025
1696.00,0.0019
1695.00,0.0015
1694.00,0.0012
1693.00,0.0010
1692.00,0.0010
1691.00,0.0010
1690.00,0.0011
1689.00,0.0012
1688.00,0.0013
1687.00,0.0013
1686.00,0.0013
1685.00,0.0012
1684.00,0.0012
1683.00,0.0012
1682.00,0.0012
1681.00,0.0011
1680.00,0.0010
1679.00,0.0009
1678.00,0.0007
1677.00,0.0005
1676.00,0.0003
1675.00,0.0000
1674.00,-0.0002
1673.00,-0.0004
1672.00,-0.0003
1671.00,0.0000
1670.00,0.0007
1669.00,0.0017
1668.00,0.0027
1667.00,0.0037
1666.00,0.0045
1665.00,0.0054
1664.00,0.0064
1663.00,0.0073
1662.00,0.0081
1661.00,0.0086
1660.00,0.0089
1659.00,0.0091
1658.00,0.0094
1657.00,0.0096
1656.00,0.0100
1655.00,0.0106
1654.00,0.0119
1653.00,0.0140
1652.00,0.0162
1651.00,0.0176
1650.00,0.0189
1649.00,0.0210
1648.00,0.0249
1647.00,0.0309
1646.00,0.0374
1645.00,0.0422
1644.00,0.0443
1643.00,0.0439
1642.00,0.0417
1641.00,0.0389
1640.00,0.0361
1639.00,0.0342
1638.00,0.0337
1637.00,0.0361
1636.00,0.0424
1635.00,0.0513
1634.00,0.0590
1633.00,0.0644
1632.00,0.0683
1631.00,0.0713
1630.00,0.0739
1629.00,0.0764
1628.00,0.0795
1627.00,0.0831
1626.00,0.0869
1625.00,0.0908
1624.00,0.0944
1623.00,0.0961
1622.00,0.0942
1621.00,0.0887
1620.00,0.0810
1619.00,0.0724
1618.00,0.0631
1617.00,0.0537
1616.00,0.0456
1615.00,0.0395
1614.00,0.0350
1613.00,0.0314
1612.00,0.0284
1611.00,0.0260
1610.00,0.0242
1609.00,0.0229
1608.00,0.0221
1607.00,0.0214
1606.00,0.0211
1605.00,0.0208
1604.00,0.0207
1603.00,0.0207
1602.00,0.0210
1601.00,0.0215
1600.00,0.0222
1599.00,0.0231
1598.00,0.0243
1597.00,0.0259
1596.00,0.0280
1595.00,0.0309
1594.00,0.0345
1593.00,0.0393
1592.00,0.0454
1591.00,0.0530
1590.00,0.0618
1589.00,0.0715
1588.00,0.0814
1587.00,0.0910
1586.00,0.0997
1585.00,0.1074
1584.00,0.1141
1583.00,0.1191
1582.00,0.1216
1581.00,0.1210
1580.00,0.1174
1579.00,0.1112
1578.00,0.1030
1577.00,0.0932
1576.00,0.0832
1575.00,0.0745
1574.00,0.0672
1573.00,0.0610
1572.00,0.0553
1571.00,0.0498
1570.00,0.0445
1569.00,0.0397
1568.00,0.0358
1567.00,0.0325
1566.00,0.0296
1565.00,0.0269
1564.00,0.0247
1563.00,0.0230
1562.00,0.0216
1561.00,0.0204
1560.00,0.0193
1559.00,0.0183
1558.00,0.0177
1557.00,0.0172
1556.00,0.0166
1555.00,0.0161
1554.00,0.0156
1553.00,0.0151
1552.00,0.0146
1551.00,0.0142
1550.00,0.0138
1549.00,0.0135
1548.00,0.0132
1547.00,0.0130
1546.00,0.0127
1545.00,0.0125
1544.00,0.0122
1543.00,0.0120
1542.00,0.0119
1541.00,0.0119
1540.00,0.0119
1539.00,0.0120
1538.00,0.0121
1537.00,0.0120
1536.00,0.0120
1535.00,0.0120
1534.00,0.0121
1533.00,0.0122
1532.00,0.0123
1531.00,0.0123
1530.00,0.0124
1529.00,0.0125
1528.00,0.0127
1527.00,0.0130
1526.00,0.0134
1525.00,0.0140
1524.00,0.0147
1523.00,0.0157
1522.00,0.0174
1521.00,0.0199
1520.00,0.0223
1519.00,0.0244
1518.00,0.0264
1517.00,0.0287
1516.00,0.0306
1515.00,0.0317
1514.00,0.0318
1513.00,0.0312
1512.00,0.0298
1511.00,0.0280
1510.00,0.0261
1509.00,0.0243
1508.00,0.0226
1507.00,0.0212
1506.00,0.0205
1505.00,0.0200
1504.00,0.0195
1503.00,0.0189
1502.00,0.0184
1501.00,0.0180
1500.00,0.0175
1499.00,0.0169
1498.00,0.0163
1497.00,0.0157
1496.00,0.0151
1495.00,0.0145
1494.00,0.0140
1493.00,0.0136
1492.00,0.0132
1491.00,0.0127
1490.00,0.0124
1489.00,0.0121
1488.00,0.0120
1487.00,0.0119
1486.00,0.0119
1485.00,0.0120
1484.00,0.0121
1483.00,0.0121
1482.00,0.0122
1481.00,0.0124
1480.00,0.0127
1479.00,0.0130
1478.00,0.0133
1477.00,0.0138
1476.00,0.0145
1475.00,0.0152
1474.00,0.0163
1473.00,0.0182
1472.00,0.0211
1471.00,0.0245
1470.00,0.0282
1469.00,0.0321
1468.00,0.0359
1467.00,0.0390
1466.00,0.0415
1465.00,0.0435
1464.00,0.0453
1463.00,0.0468
1462.00,0.0481
1461.00,0.0492
1460.00,0.0502
1459.00,0.0511
1458.00,0.0530
1457.00,0.0564
1456.00,0.0606
1455.00,0.0643
1454.00,0.0682
1453.00,0.0733
1452.00,0.0798
1451.00,0.0875
1450.00,0.0963
1449.00,0.1067
1448.00,0.1181
1447.00,0.1289
1446.00,0.1375
1445.00,0.1435
1444.00,0.1469
1443.00,0.1482
1442.00,0.1479
1441.00,0.1465
1440.00,0.1439
1439.00,0.1406
1438.00,0.1373
1437.00,0.1342
1436.00,0.1308
1435.00,0.1263
1434.00,0.1210
1433.00,0.1152
1432.00,0.1090
1431.00,0.1021
1430.00,0.0942
1429.00,0.0852
1428.00,0.0756
1427.00,0.0662
1426.00,0.0574
1425.00,0.0496
1424.00,0.0429
1423.00,0.0377
1422.00,0.0337
1421.00,0.0305
1420.00,0.0276
1419.00,0.0252
1418.00,0.0233
1417.00,0.0218
1416.00,0.0206
1415.00,0.0197
1414.00,0.0191
1413.00,0.0185
1412.00,0.0180
1411.00,0.0177
1410.00,0.0175
1409.00,0.0173
1408.00,0.0171
1407.00,0.0170
1406.00,0.0170
1405.00,0.0169
1404.00,0.0167
1403.00,0.0166
1402.00,0.0165
1401.00,0.0163
1400.00,0.0162
1399.00,0.0161
1398.00,0.0160
1397.00,0.0159
1396.00,0.0157
1395.00,0.0156
1394.00,0.0155
1393.00,0.0154
1392.00,0.0153
1391.00,0.0153
1390.00,0.0155
1389.00,0.0158
1388.00,0.0162
1387.00,0.0170
1386.00,0.0181
1385.00,0.0195
1384.00,0.0213
1383.00,0.0238
1382.00,0.0272
1381.00,0.0316
1380.00,0.0372
1379.00,0.0440
1378.00,0.0511
1377.00,0.0577
1376.00,0.0624
1375.00,0.0645
1374.00,0.0637
1373.00,0.0606
1372.00,0.0565
1371.00,0.0523
1370.00,0.0485
1369.00,0.0450
1368.00,0.0422
1367.00,0.0398
1366.00,0.0377
1365.00,0.0357
1364.00,0.0337
1363.00,0.0319
1362.00,0.0305
1361.00,0.0294
1360.00,0.0286
1359.00,0.0280
1358.00,0.0276
1357.00,0.0273
1356.00,0.0271
1355.00,0.0272
1354.00,0.0273
1353.00,0.0274
1352.00,0.0275
1351.00,0.0278
1350.00,0.0281
1349.00,0.0286
1348.00,0.0293
1347.00,0.0301
1346.00,0.0310
1345.00,0.0318
1344.00,0.0324
1343.00,0.0328
1342.00,0.0328
1341.00,0.0322
1340.00,0.0310
1339.00,0.0294
1338.00,0.0278
1337.00,0.0264
1336.00,0.0254
1335.00,0.0250
1334.00,0.0251
1333.00,0.0257
1332.00,0.0266
1331.00,0.0278
1330.00,0.0292
1329.00,0.0307
1328.00,0.0324
1327.00,0.0342
1326.00,0.0361
1325.00,0.0379
1324.00,0.0390
1323.00,0.0392
1322.00,0.0384
1321.00,0.0370
1320.00,0.0357
1319.00,0.0351
1318.00,0.0357
1317.00,0.0377
1316.00,0.0412
1315.00,0.0458
1314.00,0.0510
1313.00,0.0558
1312.00,0.0592
1311.00,0.0607
1310.00,0.0604
1309.00,0.0590
1308.00,0.0575
1307.00,0.0566
1306.00,0.0567
1305.00,0.0577
1304.00,0.0590
1303.00,0.0604
1302.00,0.0613
1301.00,0.0616
1300.00,0.0614
1299.00,0.0608
1298.00,0.0600
1297.00,0.0588
1296.00,0.0572
1295.00,0.0554
1294.00,0.0536
1293.00,0.0516
1292.00,0.0498
1291.00,0.0481
1290.00,0.0468
1289.00,0.0459
1288.00,0.0457
1287.00,0.0464
1286.00,0.0479
1285.00,0.0500
1284.00,0.0524
1283.00,0.0550
1282.00,0.0572
1281.00,0.0590
1280.00,0.0602
1279.00,0.0607
1278.00,0.0605
1277.00,0.0594
1276.00,0.0578
1275.00,0.0555
1274.00,0.0527
1273.00,0.0493
1272.00,0.0454
1271.00,0.0412
1270.00,0.0368
1269.00,0.0325
1268.00,0.0284
1267.00,0.0247
1266.00,0.0214
1265.00,0.0186
1264.00,0.0164
1263.00,0.0149
1262.00,0.0143
1261.00,0.0142
1260.00,0.0146
1259.00,0.0153
1258.00,0.0160
1257.00,0.0167
1256.00,0.0174
1255.00,0.0182
1254.00,0.0191
1253.00,0.0203
1252.00,0.0219
1251.00,0.0237
1250.00,0.0257
1249.00,0.0273
1248.00,0.0285
1247.00,0.0295
1246.00,0.0307
1245.00,0.0325
1244.00,0.0353
1243.00,0.0395
1242.00,0.0451
1241.00,0.0519
1240.00,0.0593
1239.00,0.0664
1238.00,0.0721
1237.00,0.0757
1236.00,0.0771
1235.00,0.0769
1234.00,0.0755
1233.00,0.0732
1232.00,0.0704
1231.00,0.0676
1230.00,0.0657
1229.00,0.0657
1228.00,0.0678
1227.00,0.0720
1226.00,0.0777
1225.00,0.0841
1224.00,0.0908
1223.00,0.0979
1222.00,0.1057
1221.00,0.1148
1220.00,0.1257
1219.00,0.1385
1218.00,0.1524
1217.00,0.1659
1216.00,0.1771
1215.00,0.1842
1214.00,0.1863
1213.00,0.1833
1212.00,0.1761
1211.00,0.1661
1210.00,0.1548
1209.00,0.1434
1208.00,0.1328
1207.00,0.1234
1206.00,0.1151
1205.00,0.1072
1204.00,0.0994
1203.00,0.0916
1202.00,0.0837
1201.00,0.0760
1200.00,0.0689
1199.00,0.0626
1198.00,0.0573
1197.00,0.0530
1196.00,0.0496
1195.00,0.0471
1194.00,0.0456
1193.00,0.0447
1192.00,0.0446
1191.00,0.0450
1190.00,0.0458
1189.00,0.0469
1188.00,0.0480
1187.00,0.0493
1186.00,0.0508
1185.00,0.0523
1184.00,0.0538
1183.00,0.0551
1182.00,0.0561
1181.00,0.0570
1180.00,0.0576
1179.00,0.0582
1178.00,0.0587
1177.00,0.0591
1176.00,0.0598
1175.00,0.0614
1174.00,0.0639
1173.00,0.0667
1172.00,0.0679
1171.00,0.0662
1170.00,0.0614
1169.00,0.0547
1168.00,0.0479
1167.00,0.0419
1166.00,0.0370
1165.00,0.0332
1164.00,0.0303
1163.00,0.0280
1162.00,0.0263
1161.00,0.0251
1160.00,0.0244
1159.00,0.0243
1158.00,0.0250
1157.00,0.0265
1156.00,0.0295
1155.00,0.0344
1154.00,0.0417
1153.00,0.0510
1152.00,0.0604
1151.00,0.0671
1150.00,0.0683
1149.00,0.0637
1148.00,0.0552
1147.00,0.0460
1146.00,0.0382
1145.00,0.0325
1144.00,0.0287
1143.00,0.0263
1142.00,0.0247
1141.00,0.0239
1140.00,0.0236
1139.00,0.0239
1138.00,0.0246
1137.00,0.0254
1136.00,0.0260
1135.00,0.0264
1134.00,0.0263
1133.00,0.0256
1132.00,0.0245
1131.00,0.0230
1130.00,0.0217
1129.00,0.0204
1128.00,0.0193
1127.00,0.0184
1126.00,0.0178
1125.00,0.0174
1124.00,0.0170
1123.00,0.0168
1122.00,0.0167
1121.00,0.0167
1120.00,0.0167
1119.00,0.0168
1118.00,0.0170
1117.00,0.0173
1116.00,0.0177
1115.00,0.0180
1114.00,0.0184
1113.00,0.0187
1112.00,0.0191
1111.00,0.0195
1110.00,0.0202
1109.00,0.0210
1108.00,0.0218
1107.00,0.0229
1106.00,0.0242
1105.00,0.0255
1104.00,0.0270
1103.00,0.0287
1102.00,0.0307
1101.00,0.0328
1100.00,0.0345
1099.00,0.0354
1098.00,0.0351
1097.00,0.0335
1096.00,0.0312
1095.00,0.0287
1094.00,0.0266
1093.00,0.0250
1092.00,0.0237
1091.00,0.0228
1090.00,0.0220
1089.00,0.0215
1088.00,0.0212
1087.00,0.0214
1086.00,0.0222
1085.00,0.0236
1084.00,0.0255
1083.00,0.0280
1082.00,0.0308
1081.00,0.0334
1080.00,0.0350
1079.00,0.0355
1078.00,0.0347
1077.00,0.0328
1076.00,0.0305
1075.00,0.0283
1074.00,0.0265
1073.00,0.0251
1072.00,0.0240
1071.00,0.0231
1070.00,0.0225
1069.00,0.0220
1068.00,0.0217
1067.00,0.0215
1066.00,0.0216
1065.00,0.0219
1064.00,0.0224
1063.00,0.0232
1062.00,0.0243
1061.00,0.0258
1060.00,0.0278
1059.00,0.0309
1058.00,0.0355
1057.00,0.0418
1056.00,0.0500
1055.00,0.0593
1054.00,0.0683
1053.00,0.0754
1052.00,0.0797
1051.00,0.0811
1050.00,0.0797
1049.00,0.0755
1048.00,0.0693
1047.00,0.0620
1046.00,0.0553
1045.00,0.0501
1044.00,0.0468
1043.00,0.0454
1042.00,0.0455
1041.00,0.0465
1040.00,0.0481
1039.00,0.0505
1038.00,0.0541
1037.00,0.0593
1036.00,0.0662
1035.00,0.0745
1034.00,0.0830
1033.00,0.0898
1032.00,0.0933
1031.00,0.0928
1030.00,0.0889
1029.00,0.0834
1028.00,0.0778
1027.00,0.0737
1026.00,0.0721
1025.00,0.0733
1024.00,0.0775
1023.00,0.0847
1022.00,0.0941
1021.00,0.1041
1020.00,0.1124
1019.00,0.1170
1018.00,0.1167
1017.00,0.1120
1016.00,0.1045
1015.00,0.0959
1014.00,0.0874
1013.00,0.0796
1012.00,0.0731
1011.00,0.0685
1010.00,0.0657
1009.00,0.0644
1008.00,0.0642
1007.00,0.0650
1006.00,0.0670
1005.00,0.0699
1004.00,0.0732
1003.00,0.0762
1002.00,0.0778
1001.00,0.0773
1000.00,0.0744
999.00,0.0694
998.00,0.0632
997.00,0.0568
996.00,0.0511
995.00,0.0466
994.00,0.0434
993.00,0.0414
992.00,0.0404
991.00,0.0405
990.00,0.0414
989.00,0.0428
988.00,0.0443
987.00,0.0457
986.00,0.0468
985.00,0.0473
984.00,0.0467
983.00,0.0450
982.00,0.0426
981.00,0.0400
980.00,0.0377
979.00,0.0361
978.00,0.0351
977.00,0.0342
976.00,0.0334
975.00,0.0325
974.00,0.0319
973.00,0.0317
972.00,0.0319
971.00,0.0327
970.00,0.0339
969.00,0.0355
968.00,0.0371
967.00,0.0390
966.00,0.0411
965.00,0.0437
964.00,0.0466
963.00,0.0497
962.00,0.0521
961.00,0.0529
960.00,0.0515
959.00,0.0482
958.00,0.0438
957.00,0.0391
956.00,0.0347
955.00,0.0311
954.00,0.0283
953.00,0.0261
952.00,0.0244
951.00,0.0231
950.00,0.0222
949.00,0.0214
948.00,0.0208
947.00,0.0204
946.00,0.0200
945.00,0.0197
944.00,0.0195
943.00,0.0193
942.00,0.0192
941.00,0.0190
940.00,0.0189
939.00,0.0187
938.00,0.0187
937.00,0.0188
936.00,0.0189
935.00,0.0191
934.00,0.0195
933.00,0.0200
932.00,0.0206
931.00,0.0214
930.00,0.0220
929.00,0.0224
928.00,0.0226
927.00,0.0226
926.00,0.0226
925.00,0.0225
924.00,0.0224
923.00,0.0224
922.00,0.0224
921.00,0.0227
920.00,0.0232
919.00,0.0241
918.00,0.0253
917.00,0.0266
916.00,0.0276
915.00,0.0283
914.00,0.0285
913.00,0.0283
912.00,0.0280
911.00,0.0281
910.00,0.0288
909.00,0.0301
908.00,0.0320
907.00,0.0349
906.00,0.0384
905.00,0.0426
904.00,0.0473
903.00,0.0528
902.00,0.0595
901.00,0.0680
900.00,0.0786
899.00,0.0908
898.00,0.1027
897.00,0.1112
896.00,0.1139
895.00,0.1104
894.00,0.1023
893.00,0.0924
892.00,0.0830
891.00,0.0755
890.00,0.0711
889.00,0.0704
888.00,0.0741
887.00,0.0828
886.00,0.0959
885.00,0.1109
884.00,0.1233
883.00,0.1284
882.00,0.1241
881.00,0.1122
880.00,0.0969
879.00,0.0825
878.00,0.0709
877.00,0.0624
876.00,0.0568
875.00,0.0535
874.00,0.0522
873.00,0.0527
872.00,0.0546
871.00,0.0571
870.00,0.0590
869.00,0.0593
868.00,0.0583
867.00,0.0572
866.00,0.0575
865.00,0.0602
864.00,0.0646
863.00,0.0696
862.00,0.0736
861.00,0.0755
860.00,0.0754
859.00,0.0744
858.00,0.0739
857.00,0.0745
856.00,0.0761
855.00,0.0784
854.00,0.0807
853.00,0.0827
852.00,0.0842
851.00,0.0849
850.00,0.0843
849.00,0.0822
848.00,0.0789
847.00,0.0754
846.00,0.0725
845.00,0.0704
844.00,0.0690
843.00,0.0678
842.00,0.0664
841.00,0.0647
840.00,0.0631
839.00,0.0620
838.00,0.0618
837.00,0.0624
836.00,0.0637
835.00,0.0656
834.00,0.0682
833.00,0.0712
832.00,0.0743
831.00,0.0773
830.00,0.0800
829.00,0.0821
828.00,0.0832
827.00,0.0829
826.00,0.0810
825.00,0.0773
824.00,0.0724
823.00,0.0669
822.00,0.0613
821.00,0.0558
820.00,0.0506
819.00,0.0460
818.00,0.0422
817.00,0.0394
816.00,0.0373
815.00,0.0358
814.00,0.0347
813.00,0.0337
812.00,0.0330
811.00,0.0330
810.00,0.0342
809.00,0.0374
808.00,0.0432
807.00,0.0514
806.00,0.0604
805.00,0.0672
804.00,0.0694
803.00,0.0666
802.00,0.0608
801.00,0.0540
800.00,0.0479
799.00,0.0430
798.00,0.0392
797.00,0.0364
796.00,0.0344
795.00,0.0332
794.00,0.0325
793.00,0.0322
792.00,0.0318
791.00,0.0314
790.00,0.0310
789.00,0.0308
788.00,0.0307
787.00,0.0309
786.00,0.0311
785.00,0.0309
784.00,0.0301
783.00,0.0290
782.00,0.0280
781.00,0.0273
780.00,0.0269
779.00,0.0268
778.00,0.0268
777.00,0.0267
776.00,0.0264
775.00,0.0261
774.00,0.0259
773.00,0.0260
772.00,0.0262
771.00,0.0264
770.00,0.0264
769.00,0.0260
768.00,0.0251
767.00,0.0240
766.00,0.0230
765.00,0.0220
764.00,0.0212
763.00,0.0206
762.00,0.0203
761.00,0.0201
760.00,0.0200
759.00,0.0201
758.00,0.0205
757.00,0.0213
756.00,0.0225
755.00,0.0244
754.00,0.0270
753.00,0.0296
752.00,0.0317
751.00,0.0333
750.00,0.0345
749.00,0.0350
748.00,0.0346
747.00,0.0330
746.00,0.0305
745.00,0.0278
744.00,0.0254
743.00,0.0236
742.00,0.0223
741.00,0.0215
740.00,0.0210
739.00,0.0209
738.00,0.0211
737.00,0.0217
736.00,0.0226
735.00,0.0240
734.00,0.0260
733.00,0.0285
732.00,0.0309
731.00,0.0324
730.00,0.0324
729.00,0.0310
728.00,0.0290
727.00,0.0273
726.00,0.0261
725.00,0.0255
724.00,0.0250
723.00,0.0246
722.00,0.0243
721.00,0.0239
720.00,0.0235
719.00,0.0230
718.00,0.0224
717.00,0.0215
716.00,0.0206
715.00,0.0198
714.00,0.0194
713.00,0.0193
712.00,0.0192
711.00,0.0192
710.00,0.0190
709.00,0.0185
708.00,0.0178
707.00,0.0172
706.00,0.0166
705.00,0.0160
704.00,0.0153
703.00,0.0146
702.00,0.0141
701.00,0.0138
700.00,0.0137
699.00,0.0140
698.00,0.0144
697.00,0.0147
696.00,0.0148
695.00,0.0149
694.00,0.0151
693.00,0.0153
692.00,0.0155
691.00,0.0157
690.00,0.0159
689.00,0.0161
688.00,0.0162
687.00,0.0164
686.00,0.0167
685.00,0.0170
684.00,0.0171
683.00,0.0174
682.00,0.0177
681.00,0.0180
680.00,0.0184
679.00,0.0189
678.00,0.0195
677.00,0.0202
676.00,0.0208
675.00,0.0217
674.00,0.0229
673.00,0.0243
672.00,0.0259
671.00,0.0276
670.00,0.0294
669.00,0.0312
668.00,0.0329
667.00,0.0340
666.00,0.0344
665.00,0.0344
664.00,0.0345
663.00,0.0348
662.00,0.0351
661.00,0.0352
660.00,0.0353
659.00,0.0353
658.00,0.0353
657.00,0.0351
656.00,0.0346
655.00,0.0342
654.00,0.0342
653.00,0.0346
652.00,0.0354
651.00,0.0366
650.00,0.0379
649.00,0.0386
648.00,0.0385
647.00,0.0376
646.00,0.0362
645.00,0.0344
644.00,0.0326
643.00,0.0309
642.00,0.0296
641.00,0.0286
640.00,0.0278
639.00,0.0273
638.00,0.0272
637.00,0.0273
636.00,0.0274
635.00,0.0276
634.00,0.0281
633.00,0.0287
632.00,0.0292
631.00,0.0300
630.00,0.0308
629.00,0.0317
628.00,0.0324
627.00,0.0332
626.00,0.0341
625.00,0.0349
624.00,0.0353
623.00,0.0353
622.00,0.0348
621.00,0.0337
620.00,0.0320
619.00,0.0300
618.00,0.0283
617.00,0.0273
616.00,0.0274
615.00,0.0289
614.00,0.0318
613.00,0.0356
612.00,0.0392
611.00,0.0415
610.00,0.0422
609.00,0.0414
608.00,0.0400
607.00,0.0393
606.00,0.0394
605.00,0.0401
604.00,0.0409
603.00,0.0418
602.00,0.0430
601.00,0.0445
600.00,0.0461
599.00,0.0473
598.00,0.0479
597.00,0.0478
596.00,0.0472
595.00,0.0471
594.00,0.0478
593.00,0.0494
592.00,0.0516
591.00,0.0545
590.00,0.0578
589.00,0.0609
588.00,0.0634
587.00,0.0648
586.00,0.0649
585.00,0.0638
584.00,0.0617
583.00,0.0590
582.00,0.0562
581.00,0.0534
580.00,0.0507
579.00,0.0487
578.00,0.0475
577.00,0.0468
576.00,0.0466
575.00,0.0468
574.00,0.0475
573.00,0.0482
572.00,0.0490
571.00,0.0498
570.00,0.0507
569.00,0.0515
568.00,0.0520
567.00,0.0525
566.00,0.0532
565.00,0.0536
564.00,0.0537
563.00,0.0537
562.00,0.0538
561.00,0.0538
560.00,0.0536
559.00,0.0534
558.00,0.0534
557.00,0.0533
556.00,0.0532
555.00,0.0533
554.00,0.0540
553.00,0.0552
552.00,0.0567
551.00,0.0587
550.00,0.0605
549.00,0.0620
548.00,0.0632
547.00,0.0648
546.00,0.0670
545.00,0.0691
544.00,0.0705
543.00,0.0712
542.00,0.0720
541.00,0.0732
540.00,0.0753
539.00,0.0787
538.00,0.0831
537.00,0.0873
536.00,0.0901
535.00,0.0909
534.00,0.0901
533.00,0.0882
532.00,0.0860
531.00,0.0842
530.00,0.0830
529.00,0.0828
528.00,0.0838
527.00,0.0869
526.00,0.0918
525.00,0.0977
524.00,0.1035
523.00,0.1084
522.00,0.1110
521.00,0.1097
520.00,0.1038
519.00,0.0952
518.00,0.0863
517.00,0.0789
516.00,0.0733
515.00,0.0697
514.00,0.0679
513.00,0.0670
512.00,0.0668
511.00,0.0675
510.00,0.0691
509.00,0.0714
508.00,0.0741
507.00,0.0773
506.00,0.0811
505.00,0.0850
504.00,0.0890
503.00,0.0935
502.00,0.0985
501.00,0.1034
500.00,0.1074
499.00,0.1110
498.00,0.1141
497.00,0.1167
496.00,0.1183
495.00,0.1192
494.00,0.1198
493.00,0.1198
492.00,0.1191
491.00,0.1180
490.00,0.1172
489.00,0.1164
488.00,0.1158
487.00,0.1156
486.00,0.1157
485.00,0.1155
484.00,0.1145
483.00,0.1130
482.00,0.1111
481.00,0.1086
480.00,0.1054
479.00,0.1021
478.00,0.0996
477.00,0.0976
476.00,0.0963
475.00,0.0958
474.00,0.0965
473.00,0.0978
472.00,0.0994
471.00,0.1013
470.00,0.1037
469.00,0.1059
468.00,0.1075
467.00,0.1088
466.00,0.1098
465.00,0.1100
464.00,0.1095
463.00,0.1088
462.00,0.1083
461.00,0.1076
460.00,0.1065
459.00,0.1056
458.00,0.1054
457.00,0.1054
456.00,0.1050
455.00,0.1047
454.00,0.1047
453.00,0.1045
452.00,0.1036
451.00,0.1024
450.00,0.1011
449.00,0.0993
448.00,0.0969
447.00,0.0949
446.00,0.0936
445.00,0.0922
444.00,0.0903
443.00,0.0885
442.00,0.0873
441.00,0.0865
440.00,0.0855
439.00,0.0850
438.00,0.0853
437.00,0.0857
436.00,0.0855
435.00,0.0852
434.00,0.0854
433.00,0.0858
432.00,0.0862
431.00,0.0876
430.00,0.0905
429.00,0.0945
428.00,0.0987
427.00,0.1033
426.00,0.1079
425.00,0.1112
424.00,0.1121
423.00,0.1113
422.00,0.1101
421.00,0.1087
420.00,0.1066
419.00,0.1051
418.00,0.1048
417.00,0.1044
416.00,0.1031
415.00,0.1021
414.00,0.1025
413.00,0.1036
412.00,0.1045
411.00,0.1064
410.00,0.1096
409.00,0.1130
408.00,0.1152
407.00,0.1171
406.00,0.1196
405.00,0.1214
404.00,0.1217
403.00,0.1219
402.00,0.1235
401.00,0.1259
400.00,0.1278
