Created as New Dataset,Sample 567 By YargerLab Date Thursday, June 05 2025
cm-1,A
4000.00,0.0013
3999.00,0.0013
3998.00,0.0012
3997.00,0.0012
3996.00,0.0012
3995.00,0.0012
3994.00,0.0012
3993.00,0.0012
3992.00,0.0012
3991.00,0.0012
3990.00,0.0012
3989.00,0.0012
3988.00,0.0012
3987.00,0.0012
3986.00,0.0013
3985.00,0.0013
3984.00,0.0013
3983.00,0.0013
3982.00,0.0012
3981.00,0.0012
3980.00,0.0012
3979.00,0.0012
3978.00,0.0012
3977.00,0.0012
3976.00,0.0012
3975.00,0.0012
3974.00,0.0012
3973.00,0.0012
3972.00,0.0012
3971.00,0.0012
3970.00,0.0012
3969.00,0.0012
3968.00,0.0012
3967.00,0.0012
3966.00,0.0012
3965.00,0.0012
3964.00,0.0012
3963.00,0.0012
3962.00,0.0012
3961.00,0.0012
3960.00,0.0012
3959.00,0.0012
3958.00,0.0012
3957.00,0.0012
3956.00,0.0012
3955.00,0.0012
3954.00,0.0012
3953.00,0.0012
3952.00,0.0012
3951.00,0.0012
3950.00,0.0012
3949.00,0.0011
3948.00,0.0011
3947.00,0.0011
3946.00,0.0012
3945.00,0.0012
3944.00,0.0012
3943.00,0.0011
3942.00,0.0011
3941.00,0.0011
3940.00,0.0011
3939.00,0.0012
3938.00,0.0012
3937.00,0.0012
3936.00,0.0011
3935.00,0.0011
3934.00,0.0011
3933.00,0.0012
3932.00,0.0012
3931.00,0.0012
3930.00,0.0012
3929.00,0.0012
3928.00,0.0011
3927.00,0.0011
3926.00,0.0011
3925.00,0.0011
3924.00,0.0011
3923.00,0.0011
3922.00,0.0012
3921.00,0.0012
3920.00,0.0012
3919.00,0.0012
3918.00,0.0012
3917.00,0.0012
3916.00,0.0011
3915.00,0.0011
3914.00,0.0011
3913.00,0.0011
3912.00,0.0011
3911.00,0.0011
3910.00,0.0011
3909.00,0.0011
3908.00,0.0011
3907.00,0.0011
3906.00,0.0011
3905.00,0.0011
3904.00,0.0011
3903.00,0.0011
3902.00,0.0011
3901.00,0.0011
3900.00,0.0011
3899.00,0.0011
3898.00,0.0011
3897.00,0.0011
3896.00,0.0011
3895.00,0.0011
3894.00,0.0011
3893.00,0.0011
3892.00,0.0011
3891.00,0.0011
3890.00,0.0011
3889.00,0.0010
3888.00,0.0010
3887.00,0.0010
3886.00,0.0010
3885.00,0.0010
3884.00,0.0010
3883.00,0.0010
3882.00,0.0010
3881.00,0.0010
3880.00,0.0010
3879.00,0.0010
3878.00,0.0010
3877.00,0.0010
3876.00,0.0010
3875.00,0.0010
3874.00,0.0010
3873.00,0.0010
3872.00,0.0010
3871.00,0.0010
3870.00,0.0010
3869.00,0.0010
3868.00,0.0010
3867.00,0.0010
3866.00,0.0010
3865.00,0.0010
3864.00,0.0010
3863.00,0.0010
3862.00,0.0010
3861.00,0.0009
3860.00,0.0009
3859.00,0.0009
3858.00,0.0010
3857.00,0.0010
3856.00,0.0011
3855.00,0.0011
3854.00,0.0011
3853.00,0.0010
3852.00,0.0009
3851.00,0.0009
3850.00,0.0008
3849.00,0.0009
3848.00,0.0009
3847.00,0.0009
3846.00,0.0010
3845.00,0.0010
3844.00,0.0010
3843.00,0.0010
3842.00,0.0010
3841.00,0.0010
3840.00,0.0010
3839.00,0.0009
3838.00,0.0009
3837.00,0.0009
3836.00,0.0009
3835.00,0.0009
3834.00,0.0009
3833.00,0.0010
3832.00,0.0010
3831.00,0.0010
3830.00,0.0010
3829.00,0.0010
3828.00,0.0009
3827.00,0.0009
3826.00,0.0009
3825.00,0.0009
3824.00,0.0010
3823.00,0.0010
3822.00,0.0010
3821.00,0.0009
3820.00,0.0009
3819.00,0.0009
3818.00,0.0009
3817.00,0.0009
3816.00,0.0009
3815.00,0.0009
3814.00,0.0009
3813.00,0.0009
3812.00,0.0009
3811.00,0.0009
3810.00,0.0010
3809.00,0.0010
3808.00,0.0010
3807.00,0.0010
3806.00,0.0010
3805.00,0.0009
3804.00,0.0009
3803.00,0.0009
3802.00,0.0009
3801.00,0.0008
3800.00,0.0009
3799.00,0.0009
3798.00,0.0010
3797.00,0.0010
3796.00,0.0010
3795.00,0.0010
3794.00,0.0010
3793.00,0.0010
3792.00,0.0010
3791.00,0.0010
3790.00,0.0010
3789.00,0.0010
3788.00,0.0010
3787.00,0.0010
3786.00,0.0010
3785.00,0.0010
3784.00,0.0011
3783.00,0.0011
3782.00,0.0011
3781.00,0.0011
3780.00,0.0011
3779.00,0.0011
3778.00,0.0011
3777.00,0.0011
3776.00,0.0011
3775.00,0.0011
3774.00,0.0011
3773.00,0.0011
3772.00,0.0011
3771.00,0.0011
3770.00,0.0010
3769.00,0.0010
3768.00,0.0010
3767.00,0.0011
3766.00,0.0011
3765.00,0.0010
3764.00,0.0010
3763.00,0.0010
3762.00,0.0010
3761.00,0.0011
3760.00,0.0011
3759.00,0.0011
3758.00,0.0011
3757.00,0.0011
3756.00,0.0011
3755.00,0.0010
3754.00,0.0010
3753.00,0.0009
3752.00,0.0009
3751.00,0.0008
3750.00,0.0008
3749.00,0.0009
3748.00,0.0009
3747.00,0.0010
3746.00,0.0011
3745.00,0.0010
3744.00,0.0010
3743.00,0.0009
3742.00,0.0009
3741.00,0.0009
3740.00,0.0009
3739.00,0.0009
3738.00,0.0009
3737.00,0.0010
3736.00,0.0010
3735.00,0.0010
3734.00,0.0010
3733.00,0.0011
3732.00,0.0011
3731.00,0.0011
3730.00,0.0011
3729.00,0.0011
3728.00,0.0011
3727.00,0.0011
3726.00,0.0011
3725.00,0.0011
3724.00,0.0011
3723.00,0.0011
3722.00,0.0011
3721.00,0.0011
3720.00,0.0011
3719.00,0.0011
3718.00,0.0011
3717.00,0.0011
3716.00,0.0011
3715.00,0.0011
3714.00,0.0011
3713.00,0.0011
3712.00,0.0011
3711.00,0.0011
3710.00,0.0012
3709.00,0.0013
3708.00,0.0013
3707.00,0.0013
3706.00,0.0013
3705.00,0.0012
3704.00,0.0012
3703.00,0.0013
3702.00,0.0013
3701.00,0.0013
3700.00,0.0014
3699.00,0.0014
3698.00,0.0014
3697.00,0.0014
3696.00,0.0014
3695.00,0.0014
3694.00,0.0014
3693.00,0.0014
3692.00,0.0014
3691.00,0.0015
3690.00,0.0015
3689.00,0.0015
3688.00,0.0016
3687.00,0.0016
3686.00,0.0017
3685.00,0.0017
3684.00,0.0018
3683.00,0.0018
3682.00,0.0019
3681.00,0.0019
3680.00,0.0019
3679.00,0.0019
3678.00,0.0020
3677.00,0.0020
3676.00,0.0021
3675.00,0.0021
3674.00,0.0021
3673.00,0.0022
3672.00,0.0022
3671.00,0.0023
3670.00,0.0023
3669.00,0.0025
3668.00,0.0026
3667.00,0.0027
3666.00,0.0027
3665.00,0.0028
3664.00,0.0029
3663.00,0.0030
3662.00,0.0031
3661.00,0.0031
3660.00,0.0032
3659.00,0.0033
3658.00,0.0034
3657.00,0.0035
3656.00,0.0036
3655.00,0.0036
3654.00,0.0037
3653.00,0.0038
3652.00,0.0039
3651.00,0.0040
3650.00,0.0041
3649.00,0.0042
3648.00,0.0043
3647.00,0.0044
3646.00,0.0045
3645.00,0.0046
3644.00,0.0047
3643.00,0.0048
3642.00,0.0049
3641.00,0.0050
3640.00,0.0051
3639.00,0.0052
3638.00,0.0053
3637.00,0.0054
3636.00,0.0055
3635.00,0.0056
3634.00,0.0057
3633.00,0.0058
3632.00,0.0059
3631.00,0.0060
3630.00,0.0062
3629.00,0.0064
3628.00,0.0066
3627.00,0.0068
3626.00,0.0069
3625.00,0.0069
3624.00,0.0070
3623.00,0.0070
3622.00,0.0071
3621.00,0.0072
3620.00,0.0073
3619.00,0.0075
3618.00,0.0076
3617.00,0.0078
3616.00,0.0080
3615.00,0.0081
3614.00,0.0082
3613.00,0.0083
3612.00,0.0085
3611.00,0.0087
3610.00,0.0088
3609.00,0.0090
3608.00,0.0091
3607.00,0.0092
3606.00,0.0093
3605.00,0.0094
3604.00,0.0095
3603.00,0.0096
3602.00,0.0098
3601.00,0.0099
3600.00,0.0101
3599.00,0.0103
3598.00,0.0104
3597.00,0.0106
3596.00,0.0107
3595.00,0.0108
3594.00,0.0110
3593.00,0.0111
3592.00,0.0113
3591.00,0.0114
3590.00,0.0115
3589.00,0.0116
3588.00,0.0118
3587.00,0.0120
3586.00,0.0122
3585.00,0.0123
3584.00,0.0125
3583.00,0.0126
3582.00,0.0128
3581.00,0.0130
3580.00,0.0131
3579.00,0.0133
3578.00,0.0134
3577.00,0.0136
3576.00,0.0137
3575.00,0.0139
3574.00,0.0140
3573.00,0.0142
3572.00,0.0143
3571.00,0.0144
3570.00,0.0145
3569.00,0.0147
3568.00,0.0148
3567.00,0.0150
3566.00,0.0152
3565.00,0.0154
3564.00,0.0156
3563.00,0.0157
3562.00,0.0159
3561.00,0.0160
3560.00,0.0162
3559.00,0.0164
3558.00,0.0166
3557.00,0.0168
3556.00,0.0169
3555.00,0.0170
3554.00,0.0172
3553.00,0.0174
3552.00,0.0176
3551.00,0.0178
3550.00,0.0180
3549.00,0.0182
3548.00,0.0183
3547.00,0.0185
3546.00,0.0186
3545.00,0.0188
3544.00,0.0189
3543.00,0.0191
3542.00,0.0192
3541.00,0.0193
3540.00,0.0195
3539.00,0.0196
3538.00,0.0197
3537.00,0.0199
3536.00,0.0201
3535.00,0.0203
3534.00,0.0205
3533.00,0.0206
3532.00,0.0208
3531.00,0.0209
3530.00,0.0211
3529.00,0.0212
3528.00,0.0214
3527.00,0.0216
3526.00,0.0217
3525.00,0.0219
3524.00,0.0220
3523.00,0.0222
3522.00,0.0223
3521.00,0.0225
3520.00,0.0227
3519.00,0.0229
3518.00,0.0230
3517.00,0.0232
3516.00,0.0233
3515.00,0.0234
3514.00,0.0235
3513.00,0.0237
3512.00,0.0238
3511.00,0.0240
3510.00,0.0242
3509.00,0.0244
3508.00,0.0246
3507.00,0.0247
3506.00,0.0249
3505.00,0.0250
3504.00,0.0251
3503.00,0.0253
3502.00,0.0255
3501.00,0.0256
3500.00,0.0258
3499.00,0.0259
3498.00,0.0261
3497.00,0.0262
3496.00,0.0264
3495.00,0.0265
3494.00,0.0267
3493.00,0.0269
3492.00,0.0271
3491.00,0.0272
3490.00,0.0273
3489.00,0.0275
3488.00,0.0277
3487.00,0.0278
3486.00,0.0280
3485.00,0.0281
3484.00,0.0283
3483.00,0.0285
3482.00,0.0287
3481.00,0.0288
3480.00,0.0290
3479.00,0.0292
3478.00,0.0293
3477.00,0.0294
3476.00,0.0296
3475.00,0.0298
3474.00,0.0300
3473.00,0.0302
3472.00,0.0303
3471.00,0.0305
3470.00,0.0307
3469.00,0.0308
3468.00,0.0310
3467.00,0.0312
3466.00,0.0314
3465.00,0.0315
3464.00,0.0317
3463.00,0.0319
3462.00,0.0321
3461.00,0.0323
3460.00,0.0325
3459.00,0.0326
3458.00,0.0327
3457.00,0.0329
3456.00,0.0330
3455.00,0.0331
3454.00,0.0333
3453.00,0.0335
3452.00,0.0336
3451.00,0.0338
3450.00,0.0340
3449.00,0.0341
3448.00,0.0343
3447.00,0.0345
3446.00,0.0346
3445.00,0.0348
3444.00,0.0350
3443.00,0.0351
3442.00,0.0352
3441.00,0.0354
3440.00,0.0356
3439.00,0.0358
3438.00,0.0360
3437.00,0.0362
3436.00,0.0364
3435.00,0.0365
3434.00,0.0366
3433.00,0.0368
3432.00,0.0369
3431.00,0.0371
3430.00,0.0373
3429.00,0.0375
3428.00,0.0377
3427.00,0.0379
3426.00,0.0380
3425.00,0.0382
3424.00,0.0383
3423.00,0.0385
3422.00,0.0386
3421.00,0.0388
3420.00,0.0390
3419.00,0.0392
3418.00,0.0393
3417.00,0.0395
3416.00,0.0397
3415.00,0.0399
3414.00,0.0401
3413.00,0.0402
3412.00,0.0404
3411.00,0.0406
3410.00,0.0407
3409.00,0.0409
3408.00,0.0410
3407.00,0.0412
3406.00,0.0414
3405.00,0.0416
3404.00,0.0417
3403.00,0.0419
3402.00,0.0421
3401.00,0.0422
3400.00,0.0424
3399.00,0.0426
3398.00,0.0428
3397.00,0.0429
3396.00,0.0430
3395.00,0.0432
3394.00,0.0433
3393.00,0.0435
3392.00,0.0437
3391.00,0.0440
3390.00,0.0442
3389.00,0.0444
3388.00,0.0446
3387.00,0.0448
3386.00,0.0450
3385.00,0.0452
3384.00,0.0454
3383.00,0.0456
3382.00,0.0458
3381.00,0.0460
3380.00,0.0462
3379.00,0.0464
3378.00,0.0466
3377.00,0.0468
3376.00,0.0471
3375.00,0.0473
3374.00,0.0475
3373.00,0.0476
3372.00,0.0478
3371.00,0.0480
3370.00,0.0482
3369.00,0.0485
3368.00,0.0487
3367.00,0.0490
3366.00,0.0493
3365.00,0.0496
3364.00,0.0499
3363.00,0.0501
3362.00,0.0504
3361.00,0.0506
3360.00,0.0509
3359.00,0.0512
3358.00,0.0515
3357.00,0.0518
3356.00,0.0521
3355.00,0.0523
3354.00,0.0526
3353.00,0.0528
3352.00,0.0531
3351.00,0.0533
3350.00,0.0537
3349.00,0.0540
3348.00,0.0543
3347.00,0.0546
3346.00,0.0549
3345.00,0.0552
3344.00,0.0555
3343.00,0.0557
3342.00,0.0560
3341.00,0.0564
3340.00,0.0567
3339.00,0.0570
3338.00,0.0574
3337.00,0.0577
3336.00,0.0581
3335.00,0.0585
3334.00,0.0589
3333.00,0.0593
3332.00,0.0597
3331.00,0.0601
3330.00,0.0604
3329.00,0.0608
3328.00,0.0611
3327.00,0.0615
3326.00,0.0619
3325.00,0.0623
3324.00,0.0627
3323.00,0.0632
3322.00,0.0637
3321.00,0.0643
3320.00,0.0648
3319.00,0.0653
3318.00,0.0657
3317.00,0.0662
3316.00,0.0667
3315.00,0.0672
3314.00,0.0677
3313.00,0.0681
3312.00,0.0686
3311.00,0.0690
3310.00,0.0694
3309.00,0.0699
3308.00,0.0704
3307.00,0.0709
3306.00,0.0714
3305.00,0.0721
3304.00,0.0727
3303.00,0.0734
3302.00,0.0740
3301.00,0.0746
3300.00,0.0752
3299.00,0.0757
3298.00,0.0762
3297.00,0.0768
3296.00,0.0773
3295.00,0.0778
3294.00,0.0784
3293.00,0.0789
3292.00,0.0795
3291.00,0.0801
3290.00,0.0807
3289.00,0.0812
3288.00,0.0818
3287.00,0.0823
3286.00,0.0827
3285.00,0.0832
3284.00,0.0836
3283.00,0.0840
3282.00,0.0844
3281.00,0.0847
3280.00,0.0850
3279.00,0.0853
3278.00,0.0855
3277.00,0.0856
3276.00,0.0857
3275.00,0.0858
3274.00,0.0858
3273.00,0.0858
3272.00,0.0858
3271.00,0.0857
3270.00,0.0857
3269.00,0.0856
3268.00,0.0855
3267.00,0.0853
3266.00,0.0850
3265.00,0.0847
3264.00,0.0844
3263.00,0.0840
3262.00,0.0836
3261.00,0.0832
3260.00,0.0827
3259.00,0.0822
3258.00,0.0816
3257.00,0.0811
3256.00,0.0805
3255.00,0.0800
3254.00,0.0795
3253.00,0.0790
3252.00,0.0785
3251.00,0.0779
3250.00,0.0773
3249.00,0.0767
3248.00,0.0761
3247.00,0.0756
3246.00,0.0751
3245.00,0.0747
3244.00,0.0743
3243.00,0.0739
3242.00,0.0734
3241.00,0.0729
3240.00,0.0725
3239.00,0.0720
3238.00,0.0715
3237.00,0.0710
3236.00,0.0704
3235.00,0.0699
3234.00,0.0694
3233.00,0.0690
3232.00,0.0687
3231.00,0.0685
3230.00,0.0683
3229.00,0.0680
3228.00,0.0677
3227.00,0.0674
3226.00,0.0670
3225.00,0.0667
3224.00,0.0663
3223.00,0.0660
3222.00,0.0657
3221.00,0.0654
3220.00,0.0651
3219.00,0.0648
3218.00,0.0645
3217.00,0.0642
3216.00,0.0639
3215.00,0.0637
3214.00,0.0634
3213.00,0.0632
3212.00,0.0629
3211.00,0.0627
3210.00,0.0624
3209.00,0.0622
3208.00,0.0620
3207.00,0.0617
3206.00,0.0615
3205.00,0.0613
3204.00,0.0610
3203.00,0.0608
3202.00,0.0605
3201.00,0.0603
3200.00,0.0601
3199.00,0.0598
3198.00,0.0596
3197.00,0.0594
3196.00,0.0592
3195.00,0.0589
3194.00,0.0586
3193.00,0.0584
3192.00,0.0582
3191.00,0.0580
3190.00,0.0577
3189.00,0.0575
3188.00,0.0573
3187.00,0.0570
3186.00,0.0568
3185.00,0.0566
3184.00,0.0563
3183.00,0.0561
3182.00,0.0559
3181.00,0.0556
3180.00,0.0554
3179.00,0.0552
3178.00,0.0550
3177.00,0.0547
3176.00,0.0545
3175.00,0.0543
3174.00,0.0541
3173.00,0.0539
3172.00,0.0536
3171.00,0.0534
3170.00,0.0532
3169.00,0.0530
3168.00,0.0528
3167.00,0.0525
3166.00,0.0523
3165.00,0.0521
3164.00,0.0519
3163.00,0.0517
3162.00,0.0515
3161.00,0.0513
3160.00,0.0510
3159.00,0.0508
3158.00,0.0506
3157.00,0.0504
3156.00,0.0501
3155.00,0.0499
3154.00,0.0496
3153.00,0.0494
3152.00,0.0492
3151.00,0.0491
3150.00,0.0490
3149.00,0.0489
3148.00,0.0488
3147.00,0.0487
3146.00,0.0485
3145.00,0.0483
3144.00,0.0481
3143.00,0.0479
3142.00,0.0477
3141.00,0.0475
3140.00,0.0474
3139.00,0.0472
3138.00,0.0471
3137.00,0.0471
3136.00,0.0470
3135.00,0.0469
3134.00,0.0468
3133.00,0.0466
3132.00,0.0465
3131.00,0.0464
3130.00,0.0463
3129.00,0.0462
3128.00,0.0462
3127.00,0.0461
3126.00,0.0460
3125.00,0.0459
3124.00,0.0458
3123.00,0.0456
3122.00,0.0454
3121.00,0.0453
3120.00,0.0452
3119.00,0.0451
3118.00,0.0451
3117.00,0.0451
3116.00,0.0451
3115.00,0.0452
3114.00,0.0453
3113.00,0.0454
3112.00,0.0454
3111.00,0.0454
3110.00,0.0453
3109.00,0.0453
3108.00,0.0454
3107.00,0.0455
3106.00,0.0455
3105.00,0.0456
3104.00,0.0456
3103.00,0.0456
3102.00,0.0456
3101.00,0.0457
3100.00,0.0457
3099.00,0.0458
3098.00,0.0459
3097.00,0.0460
3096.00,0.0461
3095.00,0.0461
3094.00,0.0461
3093.00,0.0461
3092.00,0.0461
3091.00,0.0461
3090.00,0.0461
3089.00,0.0462
3088.00,0.0462
3087.00,0.0462
3086.00,0.0462
3085.00,0.0462
3084.00,0.0462
3083.00,0.0461
3082.00,0.0461
3081.00,0.0460
3080.00,0.0460
3079.00,0.0460
3078.00,0.0460
3077.00,0.0461
3076.00,0.0461
3075.00,0.0462
3074.00,0.0462
3073.00,0.0462
3072.00,0.0461
3071.00,0.0460
3070.00,0.0459
3069.00,0.0457
3068.00,0.0455
3067.00,0.0454
3066.00,0.0453
3065.00,0.0453
3064.00,0.0452
3063.00,0.0451
3062.00,0.0450
3061.00,0.0448
3060.00,0.0446
3059.00,0.0444
3058.00,0.0442
3057.00,0.0440
3056.00,0.0438
3055.00,0.0435
3054.00,0.0433
3053.00,0.0430
3052.00,0.0428
3051.00,0.0426
3050.00,0.0424
3049.00,0.0422
3048.00,0.0420
3047.00,0.0417
3046.00,0.0414
3045.00,0.0411
3044.00,0.0408
3043.00,0.0406
3042.00,0.0404
3041.00,0.0403
3040.00,0.0402
3039.00,0.0402
3038.00,0.0400
3037.00,0.0398
3036.00,0.0395
3035.00,0.0393
3034.00,0.0391
3033.00,0.0389
3032.00,0.0388
3031.00,0.0387
3030.00,0.0386
3029.00,0.0384
3028.00,0.0383
3027.00,0.0380
3026.00,0.0378
3025.00,0.0375
3024.00,0.0373
3023.00,0.0371
3022.00,0.0369
3021.00,0.0367
3020.00,0.0365
3019.00,0.0363
3018.00,0.0360
3017.00,0.0358
3016.00,0.0356
3015.00,0.0353
3014.00,0.0351
3013.00,0.0350
3012.00,0.0349
3011.00,0.0348
3010.00,0.0348
3009.00,0.0348
3008.00,0.0347
3007.00,0.0346
3006.00,0.0345
3005.00,0.0344
3004.00,0.0343
3003.00,0.0342
3002.00,0.0342
3001.00,0.0341
3000.00,0.0341
2999.00,0.0340
2998.00,0.0340
2997.00,0.0341
2996.00,0.0342
2995.00,0.0342
2994.00,0.0343
2993.00,0.0345
2992.00,0.0347
2991.00,0.0349
2990.00,0.0352
2989.00,0.0354
2988.00,0.0357
2987.00,0.0360
2986.00,0.0363
2985.00,0.0366
2984.00,0.0369
2983.00,0.0371
2982.00,0.0375
2981.00,0.0378
2980.00,0.0383
2979.00,0.0389
2978.00,0.0395
2977.00,0.0400
2976.00,0.0406
2975.00,0.0411
2974.00,0.0416
2973.00,0.0422
2972.00,0.0427
2971.00,0.0433
2970.00,0.0438
2969.00,0.0444
2968.00,0.0449
2967.00,0.0454
2966.00,0.0458
2965.00,0.0462
2964.00,0.0465
2963.00,0.0467
2962.00,0.0469
2961.00,0.0470
2960.00,0.0470
2959.00,0.0470
2958.00,0.0468
2957.00,0.0466
2956.00,0.0464
2955.00,0.0461
2954.00,0.0457
2953.00,0.0453
2952.00,0.0450
2951.00,0.0446
2950.00,0.0444
2949.00,0.0442
2948.00,0.0440
2947.00,0.0440
2946.00,0.0440
2945.00,0.0441
2944.00,0.0443
2943.00,0.0446
2942.00,0.0449
2941.00,0.0452
2940.00,0.0456
2939.00,0.0459
2938.00,0.0462
2937.00,0.0466
2936.00,0.0468
2935.00,0.0471
2934.00,0.0473
2933.00,0.0475
2932.00,0.0476
2931.00,0.0476
2930.00,0.0476
2929.00,0.0476
2928.00,0.0476
2927.00,0.0475
2926.00,0.0475
2925.00,0.0473
2924.00,0.0471
2923.00,0.0469
2922.00,0.0466
2921.00,0.0463
2920.00,0.0459
2919.00,0.0454
2918.00,0.0449
2917.00,0.0444
2916.00,0.0439
2915.00,0.0434
2914.00,0.0428
2913.00,0.0423
2912.00,0.0418
2911.00,0.0413
2910.00,0.0408
2909.00,0.0404
2908.00,0.0400
2907.00,0.0396
2906.00,0.0392
2905.00,0.0388
2904.00,0.0385
2903.00,0.0382
2902.00,0.0379
2901.00,0.0377
2900.00,0.0374
2899.00,0.0372
2898.00,0.0369
2897.00,0.0367
2896.00,0.0365
2895.00,0.0363
2894.00,0.0362
2893.00,0.0360
2892.00,0.0358
2891.00,0.0357
2890.00,0.0356
2889.00,0.0356
2888.00,0.0355
2887.00,0.0355
2886.00,0.0356
2885.00,0.0356
2884.00,0.0358
2883.00,0.0359
2882.00,0.0362
2881.00,0.0364
2880.00,0.0366
2879.00,0.0368
2878.00,0.0370
2877.00,0.0372
2876.00,0.0373
2875.00,0.0373
2874.00,0.0373
2873.00,0.0372
2872.00,0.0370
2871.00,0.0368
2870.00,0.0365
2869.00,0.0362
2868.00,0.0358
2867.00,0.0355
2866.00,0.0351
2865.00,0.0348
2864.00,0.0345
2863.00,0.0342
2862.00,0.0339
2861.00,0.0337
2860.00,0.0335
2859.00,0.0334
2858.00,0.0332
2857.00,0.0331
2856.00,0.0330
2855.00,0.0329
2854.00,0.0328
2853.00,0.0326
2852.00,0.0324
2851.00,0.0321
2850.00,0.0317
2849.00,0.0313
2848.00,0.0309
2847.00,0.0304
2846.00,0.0299
2845.00,0.0295
2844.00,0.0291
2843.00,0.0287
2842.00,0.0284
2841.00,0.0281
2840.00,0.0279
2839.00,0.0276
2838.00,0.0275
2837.00,0.0273
2836.00,0.0272
2835.00,0.0270
2834.00,0.0269
2833.00,0.0268
2832.00,0.0267
2831.00,0.0266
2830.00,0.0265
2829.00,0.0264
2828.00,0.0263
2827.00,0.0262
2826.00,0.0261
2825.00,0.0261
2824.00,0.0260
2823.00,0.0259
2822.00,0.0258
2821.00,0.0258
2820.00,0.0257
2819.00,0.0256
2818.00,0.0256
2817.00,0.0255
2816.00,0.0255
2815.00,0.0254
2814.00,0.0254
2813.00,0.0253
2812.00,0.0252
2811.00,0.0251
2810.00,0.0250
2809.00,0.0250
2808.00,0.0249
2807.00,0.0248
2806.00,0.0248
2805.00,0.0247
2804.00,0.0247
2803.00,0.0246
2802.00,0.0245
2801.00,0.0244
2800.00,0.0243
2799.00,0.0242
2798.00,0.0241
2797.00,0.0241
2796.00,0.0240
2795.00,0.0239
2794.00,0.0239
2793.00,0.0238
2792.00,0.0237
2791.00,0.0236
2790.00,0.0236
2789.00,0.0235
2788.00,0.0234
2787.00,0.0234
2786.00,0.0233
2785.00,0.0232
2784.00,0.0231
2783.00,0.0230
2782.00,0.0229
2781.00,0.0228
2780.00,0.0227
2779.00,0.0226
2778.00,0.0225
2777.00,0.0224
2776.00,0.0223
2775.00,0.0222
2774.00,0.0221
2773.00,0.0220
2772.00,0.0219
2771.00,0.0218
2770.00,0.0217
2769.00,0.0216
2768.00,0.0215
2767.00,0.0214
2766.00,0.0213
2765.00,0.0212
2764.00,0.0211
2763.00,0.0210
2762.00,0.0208
2761.00,0.0207
2760.00,0.0207
2759.00,0.0206
2758.00,0.0205
2757.00,0.0204
2756.00,0.0203
2755.00,0.0202
2754.00,0.0201
2753.00,0.0200
2752.00,0.0199
2751.00,0.0198
2750.00,0.0197
2749.00,0.0197
2748.00,0.0196
2747.00,0.0196
2746.00,0.0195
2745.00,0.0194
2744.00,0.0194
2743.00,0.0193
2742.00,0.0192
2741.00,0.0192
2740.00,0.0191
2739.00,0.0190
2738.00,0.0189
2737.00,0.0188
2736.00,0.0188
2735.00,0.0188
2734.00,0.0187
2733.00,0.0187
2732.00,0.0186
2731.00,0.0185
2730.00,0.0185
2729.00,0.0184
2728.00,0.0183
2727.00,0.0182
2726.00,0.0181
2725.00,0.0181
2724.00,0.0180
2723.00,0.0180
2722.00,0.0179
2721.00,0.0179
2720.00,0.0178
2719.00,0.0177
2718.00,0.0176
2717.00,0.0176
2716.00,0.0175
2715.00,0.0174
2714.00,0.0174
2713.00,0.0173
2712.00,0.0172
2711.00,0.0171
2710.00,0.0171
2709.00,0.0170
2708.00,0.0170
2707.00,0.0170
2706.00,0.0169
2705.00,0.0169
2704.00,0.0168
2703.00,0.0168
2702.00,0.0167
2701.00,0.0167
2700.00,0.0167
2699.00,0.0166
2698.00,0.0166
2697.00,0.0165
2696.00,0.0164
2695.00,0.0164
2694.00,0.0163
2693.00,0.0163
2692.00,0.0163
2691.00,0.0162
2690.00,0.0162
2689.00,0.0161
2688.00,0.0161
2687.00,0.0160
2686.00,0.0160
2685.00,0.0159
2684.00,0.0159
2683.00,0.0158
2682.00,0.0157
2681.00,0.0157
2680.00,0.0156
2679.00,0.0156
2678.00,0.0155
2677.00,0.0155
2676.00,0.0154
2675.00,0.0154
2674.00,0.0154
2673.00,0.0153
2672.00,0.0152
2671.00,0.0152
2670.00,0.0151
2669.00,0.0150
2668.00,0.0150
2667.00,0.0150
2666.00,0.0150
2665.00,0.0150
2664.00,0.0150
2663.00,0.0149
2662.00,0.0149
2661.00,0.0149
2660.00,0.0149
2659.00,0.0149
2658.00,0.0148
2657.00,0.0148
2656.00,0.0147
2655.00,0.0147
2654.00,0.0146
2653.00,0.0146
2652.00,0.0145
2651.00,0.0145
2650.00,0.0144
2649.00,0.0144
2648.00,0.0143
2647.00,0.0143
2646.00,0.0142
2645.00,0.0142
2644.00,0.0142
2643.00,0.0141
2642.00,0.0140
2641.00,0.0140
2640.00,0.0139
2639.00,0.0139
2638.00,0.0138
2637.00,0.0138
2636.00,0.0138
2635.00,0.0138
2634.00,0.0137
2633.00,0.0137
2632.00,0.0136
2631.00,0.0136
2630.00,0.0135
2629.00,0.0134
2628.00,0.0134
2627.00,0.0134
2626.00,0.0134
2625.00,0.0133
2624.00,0.0133
2623.00,0.0132
2622.00,0.0131
2621.00,0.0130
2620.00,0.0130
2619.00,0.0130
2618.00,0.0129
2617.00,0.0129
2616.00,0.0129
2615.00,0.0128
2614.00,0.0128
2613.00,0.0127
2612.00,0.0127
2611.00,0.0127
2610.00,0.0126
2609.00,0.0126
2608.00,0.0125
2607.00,0.0125
2606.00,0.0124
2605.00,0.0124
2604.00,0.0123
2603.00,0.0123
2602.00,0.0122
2601.00,0.0122
2600.00,0.0122
2599.00,0.0121
2598.00,0.0121
2597.00,0.0120
2596.00,0.0120
2595.00,0.0119
2594.00,0.0119
2593.00,0.0118
2592.00,0.0118
2591.00,0.0117
2590.00,0.0117
2589.00,0.0116
2588.00,0.0116
2587.00,0.0116
2586.00,0.0115
2585.00,0.0115
2584.00,0.0115
2583.00,0.0114
2582.00,0.0114
2581.00,0.0114
2580.00,0.0113
2579.00,0.0113
2578.00,0.0113
2577.00,0.0113
2576.00,0.0112
2575.00,0.0112
2574.00,0.0111
2573.00,0.0110
2572.00,0.0109
2571.00,0.0109
2570.00,0.0109
2569.00,0.0108
2568.00,0.0108
2567.00,0.0108
2566.00,0.0108
2565.00,0.0108
2564.00,0.0108
2563.00,0.0108
2562.00,0.0107
2561.00,0.0107
2560.00,0.0107
2559.00,0.0106
2558.00,0.0105
2557.00,0.0105
2556.00,0.0104
2555.00,0.0104
2554.00,0.0104
2553.00,0.0104
2552.00,0.0104
2551.00,0.0104
2550.00,0.0104
2549.00,0.0104
2548.00,0.0103
2547.00,0.0103
2546.00,0.0102
2545.00,0.0102
2544.00,0.0101
2543.00,0.0100
2542.00,0.0100
2541.00,0.0100
2540.00,0.0100
2539.00,0.0100
2538.00,0.0099
2537.00,0.0099
2536.00,0.0098
2535.00,0.0098
2534.00,0.0097
2533.00,0.0097
2532.00,0.0098
2531.00,0.0098
2530.00,0.0098
2529.00,0.0098
2528.00,0.0097
2527.00,0.0096
2526.00,0.0095
2525.00,0.0095
2524.00,0.0094
2523.00,0.0094
2522.00,0.0094
2521.00,0.0094
2520.00,0.0094
2519.00,0.0094
2518.00,0.0094
2517.00,0.0094
2516.00,0.0094
2515.00,0.0094
2514.00,0.0093
2513.00,0.0092
2512.00,0.0091
2511.00,0.0091
2510.00,0.0091
2509.00,0.0091
2508.00,0.0091
2507.00,0.0091
2506.00,0.0091
2505.00,0.0091
2504.00,0.0091
2503.00,0.0090
2502.00,0.0090
2501.00,0.0089
2500.00,0.0089
2499.00,0.0088
2498.00,0.0087
2497.00,0.0087
2496.00,0.0087
2495.00,0.0087
2494.00,0.0086
2493.00,0.0086
2492.00,0.0086
2491.00,0.0086
2490.00,0.0085
2489.00,0.0085
2488.00,0.0085
2487.00,0.0085
2486.00,0.0084
2485.00,0.0084
2484.00,0.0084
2483.00,0.0083
2482.00,0.0083
2481.00,0.0082
2480.00,0.0081
2479.00,0.0081
2478.00,0.0080
2477.00,0.0080
2476.00,0.0080
2475.00,0.0080
2474.00,0.0080
2473.00,0.0081
2472.00,0.0081
2471.00,0.0080
2470.00,0.0080
2469.00,0.0079
2468.00,0.0079
2467.00,0.0078
2466.00,0.0078
2465.00,0.0078
2464.00,0.0078
2463.00,0.0077
2462.00,0.0077
2461.00,0.0077
2460.00,0.0078
2459.00,0.0078
2458.00,0.0079
2457.00,0.0079
2456.00,0.0079
2455.00,0.0078
2454.00,0.0078
2453.00,0.0077
2452.00,0.0077
2451.00,0.0076
2450.00,0.0075
2449.00,0.0074
2448.00,0.0074
2447.00,0.0073
2446.00,0.0073
2445.00,0.0073
2444.00,0.0073
2443.00,0.0072
2442.00,0.0071
2441.00,0.0071
2440.00,0.0071
2439.00,0.0071
2438.00,0.0070
2437.00,0.0070
2436.00,0.0069
2435.00,0.0068
2434.00,0.0068
2433.00,0.0068
2432.00,0.0068
2431.00,0.0068
2430.00,0.0068
2429.00,0.0067
2428.00,0.0067
2427.00,0.0067
2426.00,0.0067
2425.00,0.0067
2424.00,0.0067
2423.00,0.0066
2422.00,0.0066
2421.00,0.0066
2420.00,0.0065
2419.00,0.0065
2418.00,0.0064
2417.00,0.0064
2416.00,0.0064
2415.00,0.0063
2414.00,0.0064
2413.00,0.0064
2412.00,0.0064
2411.00,0.0064
2410.00,0.0063
2409.00,0.0063
2408.00,0.0062
2407.00,0.0061
2406.00,0.0061
2405.00,0.0061
2404.00,0.0060
2403.00,0.0060
2402.00,0.0060
2401.00,0.0059
2400.00,0.0060
2399.00,0.0059
2398.00,0.0059
2397.00,0.0059
2396.00,0.0059
2395.00,0.0058
2394.00,0.0058
2393.00,0.0058
2392.00,0.0058
2391.00,0.0057
2390.00,0.0057
2389.00,0.0056
2388.00,0.0056
2387.00,0.0057
2386.00,0.0057
2385.00,0.0056
2384.00,0.0056
2383.00,0.0055
2382.00,0.0055
2381.00,0.0054
2380.00,0.0054
2379.00,0.0054
2378.00,0.0054
2377.00,0.0055
2376.00,0.0055
2375.00,0.0054
2374.00,0.0054
2373.00,0.0054
2372.00,0.0054
2371.00,0.0053
2370.00,0.0053
2369.00,0.0053
2368.00,0.0053
2367.00,0.0053
2366.00,0.0053
2365.00,0.0054
2364.00,0.0054
2363.00,0.0053
2362.00,0.0053
2361.00,0.0054
2360.00,0.0054
2359.00,0.0055
2358.00,0.0054
2357.00,0.0054
2356.00,0.0054
2355.00,0.0054
2354.00,0.0054
2353.00,0.0053
2352.00,0.0052
2351.00,0.0052
2350.00,0.0052
2349.00,0.0053
2348.00,0.0055
2347.00,0.0057
2346.00,0.0057
2345.00,0.0057
2344.00,0.0056
2343.00,0.0055
2342.00,0.0055
2341.00,0.0055
2340.00,0.0056
2339.00,0.0056
2338.00,0.0056
2337.00,0.0056
2336.00,0.0056
2335.00,0.0056
2334.00,0.0056
2333.00,0.0055
2332.00,0.0055
2331.00,0.0055
2330.00,0.0055
2329.00,0.0057
2328.00,0.0060
2327.00,0.0063
2326.00,0.0067
2325.00,0.0068
2324.00,0.0067
2323.00,0.0065
2322.00,0.0062
2321.00,0.0060
2320.00,0.0058
2319.00,0.0057
2318.00,0.0057
2317.00,0.0057
2316.00,0.0057
2315.00,0.0057
2314.00,0.0057
2313.00,0.0056
2312.00,0.0055
2311.00,0.0054
2310.00,0.0054
2309.00,0.0053
2308.00,0.0052
2307.00,0.0052
2306.00,0.0052
2305.00,0.0053
2304.00,0.0054
2303.00,0.0055
2302.00,0.0055
2301.00,0.0054
2300.00,0.0054
2299.00,0.0055
2298.00,0.0055
2297.00,0.0055
2296.00,0.0056
2295.00,0.0056
2294.00,0.0057
2293.00,0.0058
2292.00,0.0059
2291.00,0.0060
2290.00,0.0060
2289.00,0.0060
2288.00,0.0061
2287.00,0.0061
2286.00,0.0061
2285.00,0.0061
2284.00,0.0060
2283.00,0.0059
2282.00,0.0059
2281.00,0.0059
2280.00,0.0058
2279.00,0.0058
2278.00,0.0057
2277.00,0.0057
2276.00,0.0057
2275.00,0.0056
2274.00,0.0056
2273.00,0.0056
2272.00,0.0055
2271.00,0.0054
2270.00,0.0053
2269.00,0.0052
2268.00,0.0052
2267.00,0.0052
2266.00,0.0052
2265.00,0.0052
2264.00,0.0052
2263.00,0.0052
2262.00,0.0051
2261.00,0.0050
2260.00,0.0049
2259.00,0.0048
2258.00,0.0049
2257.00,0.0050
2256.00,0.0050
2255.00,0.0051
2254.00,0.0050
2253.00,0.0050
2252.00,0.0050
2251.00,0.0050
2250.00,0.0050
2249.00,0.0050
2248.00,0.0050
2247.00,0.0050
2246.00,0.0050
2245.00,0.0050
2244.00,0.0050
2243.00,0.0049
2242.00,0.0049
2241.00,0.0048
2240.00,0.0048
2239.00,0.0048
2238.00,0.0048
2237.00,0.0048
2236.00,0.0049
2235.00,0.0049
2234.00,0.0049
2233.00,0.0050
2232.00,0.0051
2231.00,0.0051
2230.00,0.0052
2229.00,0.0052
2228.00,0.0051
2227.00,0.0050
2226.00,0.0049
2225.00,0.0048
2224.00,0.0048
2223.00,0.0047
2222.00,0.0045
2221.00,0.0044
2220.00,0.0044
2219.00,0.0044
2218.00,0.0044
2217.00,0.0045
2216.00,0.0047
2215.00,0.0047
2214.00,0.0048
2213.00,0.0048
2212.00,0.0048
2211.00,0.0048
2210.00,0.0047
2209.00,0.0046
2208.00,0.0046
2207.00,0.0046
2206.00,0.0046
2205.00,0.0046
2204.00,0.0046
2203.00,0.0046
2202.00,0.0045
2201.00,0.0046
2200.00,0.0047
2199.00,0.0047
2198.00,0.0047
2197.00,0.0047
2196.00,0.0047
2195.00,0.0047
2194.00,0.0047
2193.00,0.0047
2192.00,0.0047
2191.00,0.0047
2190.00,0.0046
2189.00,0.0046
2188.00,0.0046
2187.00,0.0046
2186.00,0.0046
2185.00,0.0045
2184.00,0.0043
2183.00,0.0040
2182.00,0.0038
2181.00,0.0038
2180.00,0.0038
2179.00,0.0038
2178.00,0.0036
2177.00,0.0034
2176.00,0.0033
2175.00,0.0032
2174.00,0.0034
2173.00,0.0038
2172.00,0.0043
2171.00,0.0047
2170.00,0.0048
2169.00,0.0048
2168.00,0.0048
2167.00,0.0048
2166.00,0.0048
2165.00,0.0050
2164.00,0.0052
2163.00,0.0052
2162.00,0.0045
2161.00,0.0032
2160.00,0.0017
2159.00,0.0004
2158.00,-0.0001
2157.00,0.0002
2156.00,0.0008
2155.00,0.0013
2154.00,0.0017
2153.00,0.0020
2152.00,0.0023
2151.00,0.0024
2150.00,0.0024
2149.00,0.0023
2148.00,0.0023
2147.00,0.0024
2146.00,0.0024
2145.00,0.0026
2144.00,0.0027
2143.00,0.0027
2142.00,0.0027
2141.00,0.0028
2140.00,0.0028
2139.00,0.0029
2138.00,0.0028
2137.00,0.0026
2136.00,0.0024
2135.00,0.0022
2134.00,0.0021
2133.00,0.0022
2132.00,0.0024
2131.00,0.0025
2130.00,0.0028
2129.00,0.0030
2128.00,0.0033
2127.00,0.0035
2126.00,0.0036
2125.00,0.0038
2124.00,0.0038
2123.00,0.0039
2122.00,0.0039
2121.00,0.0039
2120.00,0.0040
2119.00,0.0040
2118.00,0.0041
2117.00,0.0042
2116.00,0.0043
2115.00,0.0044
2114.00,0.0044
2113.00,0.0045
2112.00,0.0045
2111.00,0.0045
2110.00,0.0044
2109.00,0.0044
2108.00,0.0044
2107.00,0.0044
2106.00,0.0043
2105.00,0.0043
2104.00,0.0043
2103.00,0.0043
2102.00,0.0043
2101.00,0.0042
2100.00,0.0042
2099.00,0.0042
2098.00,0.0042
2097.00,0.0042
2096.00,0.0041
2095.00,0.0041
2094.00,0.0040
2093.00,0.0040
2092.00,0.0040
2091.00,0.0040
2090.00,0.0040
2089.00,0.0041
2088.00,0.0042
2087.00,0.0042
2086.00,0.0042
2085.00,0.0043
2084.00,0.0044
2083.00,0.0044
2082.00,0.0045
2081.00,0.0045
2080.00,0.0045
2079.00,0.0045
2078.00,0.0044
2077.00,0.0043
2076.00,0.0042
2075.00,0.0041
2074.00,0.0040
2073.00,0.0040
2072.00,0.0040
2071.00,0.0040
2070.00,0.0040
2069.00,0.0040
2068.00,0.0041
2067.00,0.0041
2066.00,0.0041
2065.00,0.0040
2064.00,0.0041
2063.00,0.0041
2062.00,0.0041
2061.00,0.0041
2060.00,0.0040
2059.00,0.0040
2058.00,0.0039
2057.00,0.0039
2056.00,0.0039
2055.00,0.0040
2054.00,0.0043
2053.00,0.0048
2052.00,0.0051
2051.00,0.0050
2050.00,0.0046
2049.00,0.0042
2048.00,0.0040
2047.00,0.0038
2046.00,0.0036
2045.00,0.0035
2044.00,0.0035
2043.00,0.0034
2042.00,0.0033
2041.00,0.0033
2040.00,0.0034
2039.00,0.0034
2038.00,0.0034
2037.00,0.0034
2036.00,0.0034
2035.00,0.0032
2034.00,0.0029
2033.00,0.0026
2032.00,0.0025
2031.00,0.0023
2030.00,0.0022
2029.00,0.0022
2028.00,0.0023
2027.00,0.0024
2026.00,0.0023
2025.00,0.0022
2024.00,0.0022
2023.00,0.0022
2022.00,0.0021
2021.00,0.0022
2020.00,0.0023
2019.00,0.0022
2018.00,0.0019
2017.00,0.0017
2016.00,0.0018
2015.00,0.0021
2014.00,0.0024
2013.00,0.0027
2012.00,0.0028
2011.00,0.0025
2010.00,0.0021
2009.00,0.0018
2008.00,0.0017
2007.00,0.0016
2006.00,0.0016
2005.00,0.0017
2004.00,0.0018
2003.00,0.0019
2002.00,0.0020
2001.00,0.0022
2000.00,0.0025
1999.00,0.0025
1998.00,0.0025
1997.00,0.0025
1996.00,0.0026
1995.00,0.0027
1994.00,0.0027
1993.00,0.0028
1992.00,0.0030
1991.00,0.0031
1990.00,0.0031
1989.00,0.0030
1988.00,0.0031
1987.00,0.0032
1986.00,0.0033
1985.00,0.0035
1984.00,0.0039
1983.00,0.0041
1982.00,0.0042
1981.00,0.0041
1980.00,0.0038
1979.00,0.0031
1978.00,0.0024
1977.00,0.0020
1976.00,0.0018
1975.00,0.0017
1974.00,0.0016
1973.00,0.0016
1972.00,0.0018
1971.00,0.0018
1970.00,0.0018
1969.00,0.0018
1968.00,0.0020
1967.00,0.0021
1966.00,0.0021
1965.00,0.0021
1964.00,0.0022
1963.00,0.0021
1962.00,0.0018
1961.00,0.0016
1960.00,0.0015
1959.00,0.0015
1958.00,0.0015
1957.00,0.0016
1956.00,0.0018
1955.00,0.0019
1954.00,0.0019
1953.00,0.0019
1952.00,0.0020
1951.00,0.0020
1950.00,0.0020
1949.00,0.0020
1948.00,0.0021
1947.00,0.0021
1946.00,0.0020
1945.00,0.0021
1944.00,0.0022
1943.00,0.0022
1942.00,0.0022
1941.00,0.0022
1940.00,0.0022
1939.00,0.0023
1938.00,0.0024
1937.00,0.0025
1936.00,0.0025
1935.00,0.0025
1934.00,0.0024
1933.00,0.0023
1932.00,0.0024
1931.00,0.0024
1930.00,0.0024
1929.00,0.0024
1928.00,0.0025
1927.00,0.0025
1926.00,0.0025
1925.00,0.0026
1924.00,0.0027
1923.00,0.0028
1922.00,0.0028
1921.00,0.0028
1920.00,0.0028
1919.00,0.0028
1918.00,0.0028
1917.00,0.0029
1916.00,0.0030
1915.00,0.0030
1914.00,0.0030
1913.00,0.0029
1912.00,0.0030
1911.00,0.0029
1910.00,0.0029
1909.00,0.0029
1908.00,0.0030
1907.00,0.0030
1906.00,0.0030
1905.00,0.0031
1904.00,0.0031
1903.00,0.0031
1902.00,0.0030
1901.00,0.0030
1900.00,0.0030
1899.00,0.0031
1898.00,0.0031
1897.00,0.0031
1896.00,0.0032
1895.00,0.0032
1894.00,0.0032
1893.00,0.0033
1892.00,0.0033
1891.00,0.0033
1890.00,0.0032
1889.00,0.0031
1888.00,0.0031
1887.00,0.0031
1886.00,0.0031
1885.00,0.0031
1884.00,0.0033
1883.00,0.0034
1882.00,0.0034
1881.00,0.0034
1880.00,0.0034
1879.00,0.0033
1878.00,0.0033
1877.00,0.0033
1876.00,0.0034
1875.00,0.0035
1874.00,0.0035
1873.00,0.0035
1872.00,0.0035
1871.00,0.0034
1870.00,0.0033
1869.00,0.0032
1868.00,0.0032
1867.00,0.0032
1866.00,0.0032
1865.00,0.0033
1864.00,0.0034
1863.00,0.0034
1862.00,0.0035
1861.00,0.0035
1860.00,0.0036
1859.00,0.0036
1858.00,0.0036
1857.00,0.0036
1856.00,0.0037
1855.00,0.0037
1854.00,0.0037
1853.00,0.0037
1852.00,0.0036
1851.00,0.0036
1850.00,0.0036
1849.00,0.0036
1848.00,0.0037
1847.00,0.0037
1846.00,0.0037
1845.00,0.0038
1844.00,0.0038
1843.00,0.0037
1842.00,0.0036
1841.00,0.0035
1840.00,0.0037
1839.00,0.0038
1838.00,0.0038
1837.00,0.0039
1836.00,0.0039
1835.00,0.0039
1834.00,0.0039
1833.00,0.0039
1832.00,0.0040
1831.00,0.0040
1830.00,0.0041
1829.00,0.0041
1828.00,0.0041
1827.00,0.0041
1826.00,0.0041
1825.00,0.0041
1824.00,0.0042
1823.00,0.0042
1822.00,0.0042
1821.00,0.0043
1820.00,0.0043
1819.00,0.0043
1818.00,0.0042
1817.00,0.0042
1816.00,0.0043
1815.00,0.0044
1814.00,0.0044
1813.00,0.0045
1812.00,0.0046
1811.00,0.0046
1810.00,0.0046
1809.00,0.0046
1808.00,0.0047
1807.00,0.0047
1806.00,0.0047
1805.00,0.0048
1804.00,0.0049
1803.00,0.0049
1802.00,0.0049
1801.00,0.0049
1800.00,0.0050
1799.00,0.0051
1798.00,0.0051
1797.00,0.0051
1796.00,0.0052
1795.00,0.0052
1794.00,0.0053
1793.00,0.0054
1792.00,0.0054
1791.00,0.0054
1790.00,0.0053
1789.00,0.0053
1788.00,0.0055
1787.00,0.0056
1786.00,0.0056
1785.00,0.0057
1784.00,0.0057
1783.00,0.0058
1782.00,0.0058
1781.00,0.0059
1780.00,0.0059
1779.00,0.0060
1778.00,0.0059
1777.00,0.0060
1776.00,0.0061
1775.00,0.0062
1774.00,0.0062
1773.00,0.0063
1772.00,0.0064
1771.00,0.0064
1770.00,0.0064
1769.00,0.0064
1768.00,0.0066
1767.00,0.0067
1766.00,0.0068
1765.00,0.0069
1764.00,0.0071
1763.00,0.0073
1762.00,0.0074
1761.00,0.0075
1760.00,0.0075
1759.00,0.0076
1758.00,0.0076
1757.00,0.0078
1756.00,0.0080
1755.00,0.0082
1754.00,0.0082
1753.00,0.0084
1752.00,0.0086
1751.00,0.0087
1750.00,0.0088
1749.00,0.0090
1748.00,0.0094
1747.00,0.0097
1746.00,0.0099
1745.00,0.0101
1744.00,0.0104
1743.00,0.0107
1742.00,0.0110
1741.00,0.0114
1740.00,0.0119
1739.00,0.0123
1738.00,0.0124
1737.00,0.0126
1736.00,0.0130
1735.00,0.0134
1734.00,0.0137
1733.00,0.0139
1732.00,0.0141
1731.00,0.0143
1730.00,0.0147
1729.00,0.0152
1728.00,0.0157
1727.00,0.0162
1726.00,0.0165
1725.00,0.0169
1724.00,0.0174
1723.00,0.0178
1722.00,0.0182
1721.00,0.0186
1720.00,0.0192
1719.00,0.0197
1718.00,0.0203
1717.00,0.0209
1716.00,0.0217
1715.00,0.0225
1714.00,0.0233
1713.00,0.0242
1712.00,0.0253
1711.00,0.0263
1710.00,0.0274
1709.00,0.0287
1708.00,0.0301
1707.00,0.0319
1706.00,0.0339
1705.00,0.0362
1704.00,0.0385
1703.00,0.0405
1702.00,0.0431
1701.00,0.0473
1700.00,0.0528
1699.00,0.0572
1698.00,0.0599
1697.00,0.0624
1696.00,0.0655
1695.00,0.0684
1694.00,0.0702
1693.00,0.0713
1692.00,0.0724
1691.00,0.0738
1690.00,0.0753
1689.00,0.0770
1688.00,0.0785
1687.00,0.0799
1686.00,0.0814
1685.00,0.0840
1684.00,0.0876
1683.00,0.0907
1682.00,0.0927
1681.00,0.0946
1680.00,0.0967
1679.00,0.0988
1678.00,0.1008
1677.00,0.1029
1676.00,0.1056
1675.00,0.1087
1674.00,0.1113
1673.00,0.1133
1672.00,0.1153
1671.00,0.1177
1670.00,0.1208
1669.00,0.1242
1668.00,0.1273
1667.00,0.1298
1666.00,0.1319
1665.00,0.1343
1664.00,0.1373
1663.00,0.1409
1662.00,0.1447
1661.00,0.1481
1660.00,0.1513
1659.00,0.1542
1658.00,0.1570
1657.00,0.1593
1656.00,0.1614
1655.00,0.1635
1654.00,0.1669
1653.00,0.1718
1652.00,0.1754
1651.00,0.1764
1650.00,0.1763
1649.00,0.1764
1648.00,0.1770
1647.00,0.1780
1646.00,0.1789
1645.00,0.1793
1644.00,0.1793
1643.00,0.1792
1642.00,0.1791
1641.00,0.1792
1640.00,0.1795
1639.00,0.1797
1638.00,0.1800
1637.00,0.1809
1636.00,0.1830
1635.00,0.1856
1634.00,0.1876
1633.00,0.1892
1632.00,0.1908
1631.00,0.1929
1630.00,0.1954
1629.00,0.1986
1628.00,0.2023
1627.00,0.2061
1626.00,0.2094
1625.00,0.2127
1624.00,0.2164
1623.00,0.2202
1622.00,0.2231
1621.00,0.2247
1620.00,0.2252
1619.00,0.2250
1618.00,0.2240
1617.00,0.2219
1616.00,0.2188
1615.00,0.2149
1614.00,0.2104
1613.00,0.2053
1612.00,0.1997
1611.00,0.1936
1610.00,0.1873
1609.00,0.1808
1608.00,0.1746
1607.00,0.1686
1606.00,0.1632
1605.00,0.1581
1604.00,0.1533
1603.00,0.1490
1602.00,0.1451
1601.00,0.1416
1600.00,0.1384
1599.00,0.1356
1598.00,0.1331
1597.00,0.1309
1596.00,0.1289
1595.00,0.1270
1594.00,0.1254
1593.00,0.1239
1592.00,0.1224
1591.00,0.1211
1590.00,0.1200
1589.00,0.1191
1588.00,0.1182
1587.00,0.1175
1586.00,0.1170
1585.00,0.1166
1584.00,0.1163
1583.00,0.1161
1582.00,0.1161
1581.00,0.1162
1580.00,0.1162
1579.00,0.1162
1578.00,0.1165
1577.00,0.1173
1576.00,0.1185
1575.00,0.1198
1574.00,0.1207
1573.00,0.1213
1572.00,0.1220
1571.00,0.1231
1570.00,0.1249
1569.00,0.1270
1568.00,0.1287
1567.00,0.1300
1566.00,0.1315
1565.00,0.1333
1564.00,0.1350
1563.00,0.1364
1562.00,0.1374
1561.00,0.1385
1560.00,0.1409
1559.00,0.1455
1558.00,0.1503
1557.00,0.1529
1556.00,0.1546
1555.00,0.1567
1554.00,0.1594
1553.00,0.1620
1552.00,0.1643
1551.00,0.1666
1550.00,0.1693
1549.00,0.1720
1548.00,0.1741
1547.00,0.1758
1546.00,0.1774
1545.00,0.1792
1544.00,0.1809
1543.00,0.1823
1542.00,0.1838
1541.00,0.1858
1540.00,0.1886
1539.00,0.1910
1538.00,0.1923
1537.00,0.1927
1536.00,0.1929
1535.00,0.1934
1534.00,0.1946
1533.00,0.1962
1532.00,0.1972
1531.00,0.1976
1530.00,0.1977
1529.00,0.1978
1528.00,0.1980
1527.00,0.1981
1526.00,0.1983
1525.00,0.1981
1524.00,0.1976
1523.00,0.1971
1522.00,0.1969
1521.00,0.1969
1520.00,0.1967
1519.00,0.1961
1518.00,0.1955
1517.00,0.1949
1516.00,0.1939
1515.00,0.1923
1514.00,0.1901
1513.00,0.1871
1512.00,0.1837
1511.00,0.1800
1510.00,0.1761
1509.00,0.1721
1508.00,0.1676
1507.00,0.1627
1506.00,0.1582
1505.00,0.1541
1504.00,0.1505
1503.00,0.1471
1502.00,0.1436
1501.00,0.1401
1500.00,0.1367
1499.00,0.1334
1498.00,0.1300
1497.00,0.1265
1496.00,0.1231
1495.00,0.1199
1494.00,0.1169
1493.00,0.1140
1492.00,0.1110
1491.00,0.1081
1490.00,0.1051
1489.00,0.1023
1488.00,0.1000
1487.00,0.0980
1486.00,0.0961
1485.00,0.0944
1484.00,0.0928
1483.00,0.0915
1482.00,0.0904
1481.00,0.0894
1480.00,0.0888
1479.00,0.0883
1478.00,0.0880
1477.00,0.0880
1476.00,0.0882
1475.00,0.0886
1474.00,0.0892
1473.00,0.0905
1472.00,0.0921
1471.00,0.0935
1470.00,0.0943
1469.00,0.0947
1468.00,0.0950
1467.00,0.0952
1466.00,0.0953
1465.00,0.0955
1464.00,0.0958
1463.00,0.0960
1462.00,0.0961
1461.00,0.0962
1460.00,0.0964
1459.00,0.0969
1458.00,0.0979
1457.00,0.0995
1456.00,0.1010
1455.00,0.1018
1454.00,0.1021
1453.00,0.1022
1452.00,0.1023
1451.00,0.1023
1450.00,0.1022
1449.00,0.1020
1448.00,0.1019
1447.00,0.1017
1446.00,0.1014
1445.00,0.1010
1444.00,0.1006
1443.00,0.1002
1442.00,0.0998
1441.00,0.0993
1440.00,0.0986
1439.00,0.0979
1438.00,0.0971
1437.00,0.0961
1436.00,0.0951
1435.00,0.0940
1434.00,0.0927
1433.00,0.0915
1432.00,0.0904
1431.00,0.0894
1430.00,0.0886
1429.00,0.0880
1428.00,0.0876
1427.00,0.0874
1426.00,0.0873
1425.00,0.0874
1424.00,0.0878
1423.00,0.0883
1422.00,0.0888
1421.00,0.0893
1420.00,0.0901
1419.00,0.0914
1418.00,0.0927
1417.00,0.0938
1416.00,0.0949
1415.00,0.0960
1414.00,0.0972
1413.00,0.0983
1412.00,0.0994
1411.00,0.1006
1410.00,0.1017
1409.00,0.1027
1408.00,0.1037
1407.00,0.1047
1406.00,0.1056
1405.00,0.1067
1404.00,0.1077
1403.00,0.1086
1402.00,0.1092
1401.00,0.1097
1400.00,0.1103
1399.00,0.1109
1398.00,0.1114
1397.00,0.1118
1396.00,0.1121
1395.00,0.1126
1394.00,0.1130
1393.00,0.1133
1392.00,0.1134
1391.00,0.1133
1390.00,0.1132
1389.00,0.1129
1388.00,0.1126
1387.00,0.1121
1386.00,0.1113
1385.00,0.1104
1384.00,0.1093
1383.00,0.1080
1382.00,0.1067
1381.00,0.1054
1380.00,0.1042
1379.00,0.1029
1378.00,0.1016
1377.00,0.1004
1376.00,0.0993
1375.00,0.0983
1374.00,0.0975
1373.00,0.0968
1372.00,0.0962
1371.00,0.0956
1370.00,0.0950
1369.00,0.0942
1368.00,0.0933
1367.00,0.0923
1366.00,0.0910
1365.00,0.0897
1364.00,0.0884
1363.00,0.0873
1362.00,0.0863
1361.00,0.0856
1360.00,0.0852
1359.00,0.0848
1358.00,0.0846
1357.00,0.0846
1356.00,0.0846
1355.00,0.0848
1354.00,0.0851
1353.00,0.0854
1352.00,0.0857
1351.00,0.0859
1350.00,0.0860
1349.00,0.0861
1348.00,0.0861
1347.00,0.0861
1346.00,0.0859
1345.00,0.0857
1344.00,0.0853
1343.00,0.0849
1342.00,0.0844
1341.00,0.0839
1340.00,0.0834
1339.00,0.0829
1338.00,0.0825
1337.00,0.0822
1336.00,0.0819
1335.00,0.0816
1334.00,0.0813
1333.00,0.0810
1332.00,0.0807
1331.00,0.0806
1330.00,0.0804
1329.00,0.0804
1328.00,0.0803
1327.00,0.0804
1326.00,0.0804
1325.00,0.0805
1324.00,0.0807
1323.00,0.0808
1322.00,0.0809
1321.00,0.0811
1320.00,0.0812
1319.00,0.0814
1318.00,0.0815
1317.00,0.0816
1316.00,0.0817
1315.00,0.0818
1314.00,0.0818
1313.00,0.0818
1312.00,0.0818
1311.00,0.0817
1310.00,0.0816
1309.00,0.0815
1308.00,0.0813
1307.00,0.0812
1306.00,0.0811
1305.00,0.0809
1304.00,0.0808
1303.00,0.0808
1302.00,0.0807
1301.00,0.0807
1300.00,0.0807
1299.00,0.0807
1298.00,0.0808
1297.00,0.0808
1296.00,0.0809
1295.00,0.0811
1294.00,0.0813
1293.00,0.0815
1292.00,0.0817
1291.00,0.0819
1290.00,0.0820
1289.00,0.0821
1288.00,0.0822
1287.00,0.0823
1286.00,0.0824
1285.00,0.0825
1284.00,0.0825
1283.00,0.0825
1282.00,0.0825
1281.00,0.0825
1280.00,0.0825
1279.00,0.0825
1278.00,0.0824
1277.00,0.0822
1276.00,0.0821
1275.00,0.0819
1274.00,0.0818
1273.00,0.0817
1272.00,0.0817
1271.00,0.0817
1270.00,0.0818
1269.00,0.0820
1268.00,0.0823
1267.00,0.0827
1266.00,0.0831
1265.00,0.0836
1264.00,0.0842
1263.00,0.0849
1262.00,0.0856
1261.00,0.0863
1260.00,0.0870
1259.00,0.0878
1258.00,0.0886
1257.00,0.0894
1256.00,0.0902
1255.00,0.0910
1254.00,0.0918
1253.00,0.0926
1252.00,0.0934
1251.00,0.0941
1250.00,0.0948
1249.00,0.0956
1248.00,0.0963
1247.00,0.0970
1246.00,0.0976
1245.00,0.0982
1244.00,0.0988
1243.00,0.0993
1242.00,0.0997
1241.00,0.1002
1240.00,0.1005
1239.00,0.1009
1238.00,0.1011
1237.00,0.1013
1236.00,0.1015
1235.00,0.1016
1234.00,0.1015
1233.00,0.1014
1232.00,0.1013
1231.00,0.1010
1230.00,0.1006
1229.00,0.1002
1228.00,0.0997
1227.00,0.0992
1226.00,0.0985
1225.00,0.0979
1224.00,0.0971
1223.00,0.0964
1222.00,0.0955
1221.00,0.0946
1220.00,0.0936
1219.00,0.0926
1218.00,0.0915
1217.00,0.0904
1216.00,0.0891
1215.00,0.0879
1214.00,0.0866
1213.00,0.0853
1212.00,0.0839
1211.00,0.0827
1210.00,0.0814
1209.00,0.0802
1208.00,0.0790
1207.00,0.0779
1206.00,0.0769
1205.00,0.0759
1204.00,0.0749
1203.00,0.0740
1202.00,0.0731
1201.00,0.0722
1200.00,0.0715
1199.00,0.0708
1198.00,0.0702
1197.00,0.0696
1196.00,0.0690
1195.00,0.0685
1194.00,0.0681
1193.00,0.0676
1192.00,0.0672
1191.00,0.0668
1190.00,0.0665
1189.00,0.0661
1188.00,0.0658
1187.00,0.0656
1186.00,0.0653
1185.00,0.0651
1184.00,0.0649
1183.00,0.0648
1182.00,0.0648
1181.00,0.0649
1180.00,0.0651
1179.00,0.0654
1178.00,0.0658
1177.00,0.0663
1176.00,0.0669
1175.00,0.0676
1174.00,0.0683
1173.00,0.0690
1172.00,0.0696
1171.00,0.0701
1170.00,0.0704
1169.00,0.0707
1168.00,0.0710
1167.00,0.0712
1166.00,0.0715
1165.00,0.0719
1164.00,0.0723
1163.00,0.0728
1162.00,0.0732
1161.00,0.0737
1160.00,0.0741
1159.00,0.0745
1158.00,0.0749
1157.00,0.0752
1156.00,0.0754
1155.00,0.0755
1154.00,0.0756
1153.00,0.0756
1152.00,0.0755
1151.00,0.0753
1150.00,0.0750
1149.00,0.0747
1148.00,0.0743
1147.00,0.0739
1146.00,0.0735
1145.00,0.0733
1144.00,0.0731
1143.00,0.0729
1142.00,0.0728
1141.00,0.0728
1140.00,0.0729
1139.00,0.0731
1138.00,0.0733
1137.00,0.0737
1136.00,0.0741
1135.00,0.0746
1134.00,0.0752
1133.00,0.0759
1132.00,0.0766
1131.00,0.0773
1130.00,0.0781
1129.00,0.0788
1128.00,0.0796
1127.00,0.0804
1126.00,0.0811
1125.00,0.0818
1124.00,0.0825
1123.00,0.0831
1122.00,0.0837
1121.00,0.0843
1120.00,0.0848
1119.00,0.0853
1118.00,0.0858
1117.00,0.0863
1116.00,0.0868
1115.00,0.0873
1114.00,0.0878
1113.00,0.0883
1112.00,0.0887
1111.00,0.0890
1110.00,0.0894
1109.00,0.0897
1108.00,0.0901
1107.00,0.0905
1106.00,0.0909
1105.00,0.0913
1104.00,0.0916
1103.00,0.0920
1102.00,0.0923
1101.00,0.0926
1100.00,0.0929
1099.00,0.0933
1098.00,0.0937
1097.00,0.0942
1096.00,0.0949
1095.00,0.0956
1094.00,0.0965
1093.00,0.0974
1092.00,0.0984
1091.00,0.0995
1090.00,0.1007
1089.00,0.1019
1088.00,0.1031
1087.00,0.1044
1086.00,0.1057
1085.00,0.1070
1084.00,0.1082
1083.00,0.1094
1082.00,0.1105
1081.00,0.1115
1080.00,0.1124
1079.00,0.1131
1078.00,0.1136
1077.00,0.1141
1076.00,0.1144
1075.00,0.1147
1074.00,0.1148
1073.00,0.1149
1072.00,0.1150
1071.00,0.1150
1070.00,0.1151
1069.00,0.1151
1068.00,0.1153
1067.00,0.1156
1066.00,0.1158
1065.00,0.1161
1064.00,0.1163
1063.00,0.1166
1062.00,0.1167
1061.00,0.1168
1060.00,0.1168
1059.00,0.1168
1058.00,0.1168
1057.00,0.1167
1056.00,0.1165
1055.00,0.1163
1054.00,0.1160
1053.00,0.1156
1052.00,0.1152
1051.00,0.1148
1050.00,0.1143
1049.00,0.1137
1048.00,0.1132
1047.00,0.1127
1046.00,0.1121
1045.00,0.1115
1044.00,0.1109
1043.00,0.1103
1042.00,0.1095
1041.00,0.1088
1040.00,0.1080
1039.00,0.1071
1038.00,0.1063
1037.00,0.1056
1036.00,0.1049
1035.00,0.1044
1034.00,0.1039
1033.00,0.1035
1032.00,0.1032
1031.00,0.1029
1030.00,0.1025
1029.00,0.1019
1028.00,0.1013
1027.00,0.1006
1026.00,0.0999
1025.00,0.0990
1024.00,0.0981
1023.00,0.0971
1022.00,0.0960
1021.00,0.0948
1020.00,0.0935
1019.00,0.0923
1018.00,0.0910
1017.00,0.0897
1016.00,0.0884
1015.00,0.0872
1014.00,0.0859
1013.00,0.0847
1012.00,0.0835
1011.00,0.0823
1010.00,0.0811
1009.00,0.0799
1008.00,0.0787
1007.00,0.0776
1006.00,0.0765
1005.00,0.0756
1004.00,0.0747
1003.00,0.0739
1002.00,0.0730
1001.00,0.0721
1000.00,0.0712
999.00,0.0703
998.00,0.0695
997.00,0.0687
996.00,0.0679
995.00,0.0671
994.00,0.0663
993.00,0.0656
992.00,0.0650
991.00,0.0644
990.00,0.0640
989.00,0.0636
988.00,0.0633
987.00,0.0631
986.00,0.0631
985.00,0.0633
984.00,0.0636
983.00,0.0640
982.00,0.0645
981.00,0.0651
980.00,0.0657
979.00,0.0663
978.00,0.0669
977.00,0.0676
976.00,0.0681
975.00,0.0685
974.00,0.0688
973.00,0.0689
972.00,0.0689
971.00,0.0688
970.00,0.0687
969.00,0.0684
968.00,0.0680
967.00,0.0675
966.00,0.0670
965.00,0.0665
964.00,0.0660
963.00,0.0654
962.00,0.0649
961.00,0.0644
960.00,0.0639
959.00,0.0635
958.00,0.0630
957.00,0.0626
956.00,0.0621
955.00,0.0618
954.00,0.0615
953.00,0.0612
952.00,0.0610
951.00,0.0608
950.00,0.0606
949.00,0.0604
948.00,0.0603
947.00,0.0603
946.00,0.0603
945.00,0.0602
944.00,0.0602
943.00,0.0602
942.00,0.0602
941.00,0.0603
940.00,0.0603
939.00,0.0603
938.00,0.0604
937.00,0.0604
936.00,0.0604
935.00,0.0603
934.00,0.0602
933.00,0.0601
932.00,0.0600
931.00,0.0598
930.00,0.0596
929.00,0.0593
928.00,0.0590
927.00,0.0586
926.00,0.0583
925.00,0.0580
924.00,0.0577
923.00,0.0573
922.00,0.0570
921.00,0.0566
920.00,0.0562
919.00,0.0559
918.00,0.0556
917.00,0.0554
916.00,0.0551
915.00,0.0548
914.00,0.0546
913.00,0.0543
912.00,0.0541
911.00,0.0540
910.00,0.0539
909.00,0.0538
908.00,0.0538
907.00,0.0539
906.00,0.0540
905.00,0.0541
904.00,0.0542
903.00,0.0543
902.00,0.0544
901.00,0.0545
900.00,0.0547
899.00,0.0548
898.00,0.0550
897.00,0.0551
896.00,0.0552
895.00,0.0553
894.00,0.0554
893.00,0.0554
892.00,0.0555
891.00,0.0556
890.00,0.0556
889.00,0.0557
888.00,0.0558
887.00,0.0559
886.00,0.0559
885.00,0.0560
884.00,0.0560
883.00,0.0561
882.00,0.0562
881.00,0.0562
880.00,0.0562
879.00,0.0562
878.00,0.0561
877.00,0.0561
876.00,0.0560
875.00,0.0559
874.00,0.0559
873.00,0.0558
872.00,0.0558
871.00,0.0557
870.00,0.0557
869.00,0.0557
868.00,0.0558
867.00,0.0559
866.00,0.0561
865.00,0.0562
864.00,0.0565
863.00,0.0568
862.00,0.0571
861.00,0.0575
860.00,0.0578
859.00,0.0582
858.00,0.0586
857.00,0.0591
856.00,0.0596
855.00,0.0601
854.00,0.0607
853.00,0.0612
852.00,0.0616
851.00,0.0620
850.00,0.0623
849.00,0.0625
848.00,0.0626
847.00,0.0627
846.00,0.0628
845.00,0.0630
844.00,0.0633
843.00,0.0636
842.00,0.0641
841.00,0.0645
840.00,0.0651
839.00,0.0656
838.00,0.0662
837.00,0.0668
836.00,0.0675
835.00,0.0681
834.00,0.0687
833.00,0.0694
832.00,0.0700
831.00,0.0705
830.00,0.0710
829.00,0.0714
828.00,0.0718
827.00,0.0721
826.00,0.0723
825.00,0.0724
824.00,0.0725
823.00,0.0725
822.00,0.0726
821.00,0.0726
820.00,0.0728
819.00,0.0730
818.00,0.0733
817.00,0.0737
816.00,0.0740
815.00,0.0744
814.00,0.0748
813.00,0.0751
812.00,0.0755
811.00,0.0759
810.00,0.0763
809.00,0.0767
808.00,0.0771
807.00,0.0775
806.00,0.0780
805.00,0.0785
804.00,0.0791
803.00,0.0798
802.00,0.0805
801.00,0.0812
800.00,0.0818
799.00,0.0822
798.00,0.0826
797.00,0.0830
796.00,0.0835
795.00,0.0840
794.00,0.0847
793.00,0.0855
792.00,0.0863
791.00,0.0871
790.00,0.0880
789.00,0.0890
788.00,0.0900
787.00,0.0911
786.00,0.0922
785.00,0.0931
784.00,0.0939
783.00,0.0946
782.00,0.0952
781.00,0.0955
780.00,0.0959
779.00,0.0962
778.00,0.0966
777.00,0.0969
776.00,0.0972
775.00,0.0974
774.00,0.0976
773.00,0.0978
772.00,0.0981
771.00,0.0984
770.00,0.0988
769.00,0.0992
768.00,0.0995
767.00,0.0999
766.00,0.1002
765.00,0.1005
764.00,0.1008
763.00,0.1011
762.00,0.1014
761.00,0.1016
760.00,0.1019
759.00,0.1022
758.00,0.1026
757.00,0.1029
756.00,0.1033
755.00,0.1037
754.00,0.1042
753.00,0.1046
752.00,0.1052
751.00,0.1058
750.00,0.1065
749.00,0.1071
748.00,0.1077
747.00,0.1083
746.00,0.1088
745.00,0.1093
744.00,0.1098
743.00,0.1103
742.00,0.1107
741.00,0.1111
740.00,0.1116
739.00,0.1120
738.00,0.1124
737.00,0.1129
736.00,0.1134
735.00,0.1141
734.00,0.1148
733.00,0.1155
732.00,0.1164
731.00,0.1173
730.00,0.1184
729.00,0.1195
728.00,0.1208
727.00,0.1222
726.00,0.1236
725.00,0.1251
724.00,0.1266
723.00,0.1281
722.00,0.1295
721.00,0.1308
720.00,0.1322
719.00,0.1335
718.00,0.1348
717.00,0.1359
716.00,0.1370
715.00,0.1381
714.00,0.1391
713.00,0.1402
712.00,0.1413
711.00,0.1423
710.00,0.1433
709.00,0.1444
708.00,0.1456
707.00,0.1469
706.00,0.1482
705.00,0.1495
704.00,0.1509
703.00,0.1522
702.00,0.1534
701.00,0.1545
700.00,0.1555
699.00,0.1562
698.00,0.1567
697.00,0.1569
696.00,0.1569
695.00,0.1568
694.00,0.1565
693.00,0.1563
692.00,0.1562
691.00,0.1561
690.00,0.1561
689.00,0.1562
688.00,0.1564
687.00,0.1566
686.00,0.1569
685.00,0.1572
684.00,0.1575
683.00,0.1577
682.00,0.1579
681.00,0.1580
680.00,0.1583
679.00,0.1585
678.00,0.1587
677.00,0.1588
676.00,0.1591
675.00,0.1593
674.00,0.1596
673.00,0.1600
672.00,0.1602
671.00,0.1604
670.00,0.1605
669.00,0.1609
668.00,0.1617
667.00,0.1625
666.00,0.1629
665.00,0.1631
664.00,0.1634
663.00,0.1638
662.00,0.1641
661.00,0.1644
660.00,0.1648
659.00,0.1652
658.00,0.1655
657.00,0.1657
656.00,0.1660
655.00,0.1664
654.00,0.1668
653.00,0.1672
652.00,0.1676
651.00,0.1680
650.00,0.1683
649.00,0.1687
648.00,0.1692
647.00,0.1696
646.00,0.1701
645.00,0.1705
644.00,0.1711
643.00,0.1716
642.00,0.1720
641.00,0.1724
640.00,0.1728
639.00,0.1731
638.00,0.1732
637.00,0.1734
636.00,0.1738
635.00,0.1742
634.00,0.1746
633.00,0.1749
632.00,0.1752
631.00,0.1755
630.00,0.1757
629.00,0.1760
628.00,0.1765
627.00,0.1771
626.00,0.1777
625.00,0.1784
624.00,0.1790
623.00,0.1795
622.00,0.1799
621.00,0.1802
620.00,0.1806
619.00,0.1809
618.00,0.1811
617.00,0.1812
616.00,0.1814
615.00,0.1816
614.00,0.1816
613.00,0.1816
612.00,0.1816
611.00,0.1817
610.00,0.1817
609.00,0.1818
608.00,0.1819
607.00,0.1820
606.00,0.1821
605.00,0.1821
604.00,0.1822
603.00,0.1822
602.00,0.1821
601.00,0.1820
600.00,0.1821
599.00,0.1823
598.00,0.1825
597.00,0.1827
596.00,0.1828
595.00,0.1829
594.00,0.1829
593.00,0.1830
592.00,0.1833
591.00,0.1836
590.00,0.1838
589.00,0.1839
588.00,0.1840
587.00,0.1842
586.00,0.1845
585.00,0.1850
584.00,0.1856
583.00,0.1862
582.00,0.1866
581.00,0.1869
580.00,0.1873
579.00,0.1877
578.00,0.1880
577.00,0.1883
576.00,0.1888
575.00,0.1893
574.00,0.1897
573.00,0.1900
572.00,0.1903
571.00,0.1905
570.00,0.1907
569.00,0.1910
568.00,0.1914
567.00,0.1919
566.00,0.1922
565.00,0.1926
564.00,0.1929
563.00,0.1932
562.00,0.1934
561.00,0.1937
560.00,0.1941
559.00,0.1946
558.00,0.1950
557.00,0.1955
556.00,0.1961
555.00,0.1965
554.00,0.1968
553.00,0.1970
552.00,0.1973
551.00,0.1977
550.00,0.1982
549.00,0.1987
548.00,0.1993
547.00,0.1998
546.00,0.2000
545.00,0.2003
544.00,0.2007
543.00,0.2012
542.00,0.2017
541.00,0.2021
540.00,0.2026
539.00,0.2031
538.00,0.2035
537.00,0.2040
536.00,0.2044
535.00,0.2046
534.00,0.2047
533.00,0.2048
532.00,0.2052
531.00,0.2058
530.00,0.2062
529.00,0.2066
528.00,0.2068
527.00,0.2068
526.00,0.2066
525.00,0.2065
524.00,0.2066
523.00,0.2066
522.00,0.2063
521.00,0.2061
520.00,0.2061
519.00,0.2062
518.00,0.2061
517.00,0.2059
516.00,0.2059
515.00,0.2057
514.00,0.2053
513.00,0.2049
512.00,0.2048
511.00,0.2047
510.00,0.2045
509.00,0.2042
508.00,0.2039
507.00,0.2038
506.00,0.2037
505.00,0.2039
504.00,0.2041
503.00,0.2042
502.00,0.2042
501.00,0.2041
500.00,0.2042
499.00,0.2043
498.00,0.2041
497.00,0.2040
496.00,0.2040
495.00,0.2040
494.00,0.2039
493.00,0.2036
492.00,0.2035
491.00,0.2032
490.00,0.2028
489.00,0.2025
488.00,0.2022
487.00,0.2019
486.00,0.2014
485.00,0.2010
484.00,0.2011
483.00,0.2012
482.00,0.2013
481.00,0.2014
480.00,0.2017
479.00,0.2020
478.00,0.2020
477.00,0.2019
476.00,0.2017
475.00,0.2014
474.00,0.2010
473.00,0.2008
472.00,0.2010
471.00,0.2013
470.00,0.2015
469.00,0.2016
468.00,0.2018
467.00,0.2019
466.00,0.2017
465.00,0.2015
464.00,0.2015
463.00,0.2015
462.00,0.2012
461.00,0.2010
460.00,0.2009
459.00,0.2008
458.00,0.2003
457.00,0.2000
456.00,0.2003
455.00,0.2005
454.00,0.2000
453.00,0.1992
452.00,0.1985
451.00,0.1979
450.00,0.1972
449.00,0.1965
448.00,0.1962
447.00,0.1959
446.00,0.1956
445.00,0.1951
444.00,0.1948
443.00,0.1945
442.00,0.1941
441.00,0.1938
440.00,0.1934
439.00,0.1929
438.00,0.1920
437.00,0.1915
436.00,0.1915
435.00,0.1916
434.00,0.1915
433.00,0.1914
432.00,0.1915
431.00,0.1915
430.00,0.1913
429.00,0.1911
428.00,0.1911
427.00,0.1911
426.00,0.1908
425.00,0.1907
424.00,0.1911
423.00,0.1916
422.00,0.1916
421.00,0.1913
420.00,0.1915
419.00,0.1921
418.00,0.1926
417.00,0.1931
416.00,0.1936
415.00,0.1935
414.00,0.1924
413.00,0.1911
412.00,0.1905
411.00,0.1905
410.00,0.1907
409.00,0.1906
408.00,0.1903
407.00,0.1893
406.00,0.1878
405.00,0.1867
404.00,0.1862
403.00,0.1853
402.00,0.1833
401.00,0.1812
400.00,0.1802
