Created as New Dataset,Sample 558 By YargerLab Date Thursday, June 05 2025
cm-1,A
4000.00,0.0010
3999.00,0.0010
3998.00,0.0010
3997.00,0.0010
3996.00,0.0010
3995.00,0.0010
3994.00,0.0010
3993.00,0.0010
3992.00,0.0010
3991.00,0.0009
3990.00,0.0009
3989.00,0.0009
3988.00,0.0009
3987.00,0.0009
3986.00,0.0009
3985.00,0.0009
3984.00,0.0009
3983.00,0.0009
3982.00,0.0009
3981.00,0.0009
3980.00,0.0009
3979.00,0.0009
3978.00,0.0009
3977.00,0.0010
3976.00,0.0010
3975.00,0.0010
3974.00,0.0010
3973.00,0.0009
3972.00,0.0009
3971.00,0.0009
3970.00,0.0009
3969.00,0.0009
3968.00,0.0009
3967.00,0.0010
3966.00,0.0010
3965.00,0.0010
3964.00,0.0009
3963.00,0.0009
3962.00,0.0009
3961.00,0.0009
3960.00,0.0009
3959.00,0.0009
3958.00,0.0009
3957.00,0.0009
3956.00,0.0009
3955.00,0.0009
3954.00,0.0009
3953.00,0.0009
3952.00,0.0009
3951.00,0.0009
3950.00,0.0009
3949.00,0.0009
3948.00,0.0009
3947.00,0.0009
3946.00,0.0009
3945.00,0.0009
3944.00,0.0009
3943.00,0.0009
3942.00,0.0009
3941.00,0.0009
3940.00,0.0009
3939.00,0.0009
3938.00,0.0009
3937.00,0.0009
3936.00,0.0009
3935.00,0.0009
3934.00,0.0009
3933.00,0.0009
3932.00,0.0009
3931.00,0.0009
3930.00,0.0009
3929.00,0.0009
3928.00,0.0009
3927.00,0.0008
3926.00,0.0008
3925.00,0.0008
3924.00,0.0008
3923.00,0.0008
3922.00,0.0009
3921.00,0.0009
3920.00,0.0009
3919.00,0.0009
3918.00,0.0009
3917.00,0.0009
3916.00,0.0009
3915.00,0.0009
3914.00,0.0009
3913.00,0.0009
3912.00,0.0009
3911.00,0.0009
3910.00,0.0009
3909.00,0.0009
3908.00,0.0009
3907.00,0.0009
3906.00,0.0009
3905.00,0.0009
3904.00,0.0010
3903.00,0.0010
3902.00,0.0010
3901.00,0.0009
3900.00,0.0009
3899.00,0.0009
3898.00,0.0009
3897.00,0.0009
3896.00,0.0009
3895.00,0.0009
3894.00,0.0009
3893.00,0.0009
3892.00,0.0009
3891.00,0.0009
3890.00,0.0009
3889.00,0.0009
3888.00,0.0009
3887.00,0.0008
3886.00,0.0008
3885.00,0.0008
3884.00,0.0008
3883.00,0.0008
3882.00,0.0008
3881.00,0.0008
3880.00,0.0008
3879.00,0.0008
3878.00,0.0009
3877.00,0.0009
3876.00,0.0008
3875.00,0.0008
3874.00,0.0008
3873.00,0.0008
3872.00,0.0008
3871.00,0.0008
3870.00,0.0008
3869.00,0.0008
3868.00,0.0009
3867.00,0.0009
3866.00,0.0009
3865.00,0.0008
3864.00,0.0008
3863.00,0.0008
3862.00,0.0008
3861.00,0.0008
3860.00,0.0008
3859.00,0.0008
3858.00,0.0008
3857.00,0.0009
3856.00,0.0010
3855.00,0.0011
3854.00,0.0011
3853.00,0.0010
3852.00,0.0010
3851.00,0.0009
3850.00,0.0008
3849.00,0.0007
3848.00,0.0007
3847.00,0.0007
3846.00,0.0007
3845.00,0.0007
3844.00,0.0008
3843.00,0.0008
3842.00,0.0008
3841.00,0.0009
3840.00,0.0009
3839.00,0.0009
3838.00,0.0008
3837.00,0.0008
3836.00,0.0009
3835.00,0.0009
3834.00,0.0009
3833.00,0.0008
3832.00,0.0008
3831.00,0.0008
3830.00,0.0008
3829.00,0.0008
3828.00,0.0007
3827.00,0.0007
3826.00,0.0007
3825.00,0.0008
3824.00,0.0008
3823.00,0.0008
3822.00,0.0008
3821.00,0.0008
3820.00,0.0008
3819.00,0.0008
3818.00,0.0008
3817.00,0.0008
3816.00,0.0008
3815.00,0.0008
3814.00,0.0008
3813.00,0.0008
3812.00,0.0008
3811.00,0.0008
3810.00,0.0008
3809.00,0.0009
3808.00,0.0009
3807.00,0.0009
3806.00,0.0009
3805.00,0.0009
3804.00,0.0009
3803.00,0.0008
3802.00,0.0008
3801.00,0.0008
3800.00,0.0008
3799.00,0.0008
3798.00,0.0008
3797.00,0.0007
3796.00,0.0007
3795.00,0.0007
3794.00,0.0008
3793.00,0.0008
3792.00,0.0008
3791.00,0.0008
3790.00,0.0008
3789.00,0.0008
3788.00,0.0008
3787.00,0.0008
3786.00,0.0008
3785.00,0.0008
3784.00,0.0008
3783.00,0.0008
3782.00,0.0008
3781.00,0.0008
3780.00,0.0008
3779.00,0.0008
3778.00,0.0008
3777.00,0.0008
3776.00,0.0008
3775.00,0.0009
3774.00,0.0009
3773.00,0.0009
3772.00,0.0009
3771.00,0.0009
3770.00,0.0009
3769.00,0.0009
3768.00,0.0009
3767.00,0.0009
3766.00,0.0009
3765.00,0.0009
3764.00,0.0009
3763.00,0.0009
3762.00,0.0008
3761.00,0.0008
3760.00,0.0008
3759.00,0.0008
3758.00,0.0008
3757.00,0.0009
3756.00,0.0009
3755.00,0.0009
3754.00,0.0009
3753.00,0.0009
3752.00,0.0009
3751.00,0.0009
3750.00,0.0010
3749.00,0.0010
3748.00,0.0010
3747.00,0.0011
3746.00,0.0011
3745.00,0.0010
3744.00,0.0010
3743.00,0.0010
3742.00,0.0010
3741.00,0.0009
3740.00,0.0008
3739.00,0.0008
3738.00,0.0008
3737.00,0.0008
3736.00,0.0008
3735.00,0.0008
3734.00,0.0009
3733.00,0.0009
3732.00,0.0009
3731.00,0.0009
3730.00,0.0009
3729.00,0.0009
3728.00,0.0009
3727.00,0.0009
3726.00,0.0009
3725.00,0.0009
3724.00,0.0009
3723.00,0.0009
3722.00,0.0009
3721.00,0.0009
3720.00,0.0009
3719.00,0.0009
3718.00,0.0009
3717.00,0.0010
3716.00,0.0010
3715.00,0.0010
3714.00,0.0011
3713.00,0.0011
3712.00,0.0010
3711.00,0.0010
3710.00,0.0010
3709.00,0.0011
3708.00,0.0011
3707.00,0.0011
3706.00,0.0011
3705.00,0.0011
3704.00,0.0011
3703.00,0.0011
3702.00,0.0011
3701.00,0.0011
3700.00,0.0011
3699.00,0.0011
3698.00,0.0012
3697.00,0.0012
3696.00,0.0012
3695.00,0.0012
3694.00,0.0013
3693.00,0.0013
3692.00,0.0014
3691.00,0.0014
3690.00,0.0014
3689.00,0.0014
3688.00,0.0014
3687.00,0.0014
3686.00,0.0015
3685.00,0.0015
3684.00,0.0015
3683.00,0.0016
3682.00,0.0016
3681.00,0.0017
3680.00,0.0018
3679.00,0.0019
3678.00,0.0020
3677.00,0.0020
3676.00,0.0020
3675.00,0.0020
3674.00,0.0021
3673.00,0.0022
3672.00,0.0022
3671.00,0.0023
3670.00,0.0023
3669.00,0.0024
3668.00,0.0025
3667.00,0.0026
3666.00,0.0026
3665.00,0.0027
3664.00,0.0027
3663.00,0.0028
3662.00,0.0029
3661.00,0.0030
3660.00,0.0031
3659.00,0.0032
3658.00,0.0033
3657.00,0.0034
3656.00,0.0034
3655.00,0.0035
3654.00,0.0036
3653.00,0.0037
3652.00,0.0038
3651.00,0.0039
3650.00,0.0040
3649.00,0.0041
3648.00,0.0042
3647.00,0.0042
3646.00,0.0043
3645.00,0.0044
3644.00,0.0045
3643.00,0.0046
3642.00,0.0047
3641.00,0.0048
3640.00,0.0049
3639.00,0.0050
3638.00,0.0051
3637.00,0.0052
3636.00,0.0053
3635.00,0.0055
3634.00,0.0056
3633.00,0.0057
3632.00,0.0059
3631.00,0.0060
3630.00,0.0061
3629.00,0.0062
3628.00,0.0063
3627.00,0.0065
3626.00,0.0066
3625.00,0.0066
3624.00,0.0067
3623.00,0.0068
3622.00,0.0069
3621.00,0.0070
3620.00,0.0071
3619.00,0.0072
3618.00,0.0074
3617.00,0.0075
3616.00,0.0077
3615.00,0.0078
3614.00,0.0080
3613.00,0.0081
3612.00,0.0083
3611.00,0.0085
3610.00,0.0086
3609.00,0.0087
3608.00,0.0088
3607.00,0.0089
3606.00,0.0090
3605.00,0.0092
3604.00,0.0093
3603.00,0.0094
3602.00,0.0095
3601.00,0.0097
3600.00,0.0098
3599.00,0.0100
3598.00,0.0101
3597.00,0.0102
3596.00,0.0103
3595.00,0.0104
3594.00,0.0105
3593.00,0.0107
3592.00,0.0109
3591.00,0.0112
3590.00,0.0113
3589.00,0.0115
3588.00,0.0116
3587.00,0.0117
3586.00,0.0118
3585.00,0.0120
3584.00,0.0121
3583.00,0.0123
3582.00,0.0124
3581.00,0.0126
3580.00,0.0127
3579.00,0.0129
3578.00,0.0130
3577.00,0.0131
3576.00,0.0132
3575.00,0.0134
3574.00,0.0135
3573.00,0.0137
3572.00,0.0139
3571.00,0.0141
3570.00,0.0143
3569.00,0.0145
3568.00,0.0145
3567.00,0.0146
3566.00,0.0147
3565.00,0.0148
3564.00,0.0150
3563.00,0.0152
3562.00,0.0154
3561.00,0.0155
3560.00,0.0157
3559.00,0.0159
3558.00,0.0160
3557.00,0.0162
3556.00,0.0164
3555.00,0.0166
3554.00,0.0167
3553.00,0.0169
3552.00,0.0170
3551.00,0.0172
3550.00,0.0174
3549.00,0.0176
3548.00,0.0177
3547.00,0.0179
3546.00,0.0180
3545.00,0.0181
3544.00,0.0182
3543.00,0.0184
3542.00,0.0185
3541.00,0.0187
3540.00,0.0188
3539.00,0.0190
3538.00,0.0192
3537.00,0.0193
3536.00,0.0194
3535.00,0.0196
3534.00,0.0198
3533.00,0.0199
3532.00,0.0201
3531.00,0.0203
3530.00,0.0204
3529.00,0.0205
3528.00,0.0206
3527.00,0.0207
3526.00,0.0209
3525.00,0.0210
3524.00,0.0212
3523.00,0.0213
3522.00,0.0214
3521.00,0.0216
3520.00,0.0218
3519.00,0.0219
3518.00,0.0220
3517.00,0.0222
3516.00,0.0223
3515.00,0.0225
3514.00,0.0226
3513.00,0.0228
3512.00,0.0229
3511.00,0.0231
3510.00,0.0232
3509.00,0.0234
3508.00,0.0235
3507.00,0.0237
3506.00,0.0239
3505.00,0.0240
3504.00,0.0241
3503.00,0.0243
3502.00,0.0244
3501.00,0.0245
3500.00,0.0247
3499.00,0.0248
3498.00,0.0249
3497.00,0.0251
3496.00,0.0252
3495.00,0.0254
3494.00,0.0255
3493.00,0.0257
3492.00,0.0259
3491.00,0.0260
3490.00,0.0262
3489.00,0.0263
3488.00,0.0265
3487.00,0.0266
3486.00,0.0268
3485.00,0.0269
3484.00,0.0271
3483.00,0.0272
3482.00,0.0273
3481.00,0.0275
3480.00,0.0277
3479.00,0.0278
3478.00,0.0280
3477.00,0.0281
3476.00,0.0283
3475.00,0.0284
3474.00,0.0286
3473.00,0.0287
3472.00,0.0289
3471.00,0.0290
3470.00,0.0292
3469.00,0.0294
3468.00,0.0296
3467.00,0.0297
3466.00,0.0299
3465.00,0.0300
3464.00,0.0302
3463.00,0.0303
3462.00,0.0305
3461.00,0.0306
3460.00,0.0308
3459.00,0.0309
3458.00,0.0310
3457.00,0.0312
3456.00,0.0313
3455.00,0.0314
3454.00,0.0316
3453.00,0.0317
3452.00,0.0319
3451.00,0.0321
3450.00,0.0323
3449.00,0.0324
3448.00,0.0325
3447.00,0.0326
3446.00,0.0328
3445.00,0.0329
3444.00,0.0331
3443.00,0.0332
3442.00,0.0334
3441.00,0.0335
3440.00,0.0337
3439.00,0.0339
3438.00,0.0341
3437.00,0.0342
3436.00,0.0344
3435.00,0.0345
3434.00,0.0346
3433.00,0.0348
3432.00,0.0349
3431.00,0.0351
3430.00,0.0353
3429.00,0.0354
3428.00,0.0356
3427.00,0.0357
3426.00,0.0359
3425.00,0.0360
3424.00,0.0362
3423.00,0.0364
3422.00,0.0365
3421.00,0.0366
3420.00,0.0367
3419.00,0.0369
3418.00,0.0370
3417.00,0.0372
3416.00,0.0374
3415.00,0.0376
3414.00,0.0378
3413.00,0.0380
3412.00,0.0381
3411.00,0.0383
3410.00,0.0384
3409.00,0.0386
3408.00,0.0387
3407.00,0.0388
3406.00,0.0390
3405.00,0.0391
3404.00,0.0393
3403.00,0.0394
3402.00,0.0396
3401.00,0.0398
3400.00,0.0399
3399.00,0.0401
3398.00,0.0403
3397.00,0.0404
3396.00,0.0406
3395.00,0.0407
3394.00,0.0409
3393.00,0.0410
3392.00,0.0412
3391.00,0.0413
3390.00,0.0415
3389.00,0.0417
3388.00,0.0419
3387.00,0.0420
3386.00,0.0422
3385.00,0.0424
3384.00,0.0425
3383.00,0.0427
3382.00,0.0429
3381.00,0.0431
3380.00,0.0433
3379.00,0.0434
3378.00,0.0436
3377.00,0.0438
3376.00,0.0441
3375.00,0.0443
3374.00,0.0445
3373.00,0.0446
3372.00,0.0448
3371.00,0.0450
3370.00,0.0452
3369.00,0.0454
3368.00,0.0457
3367.00,0.0459
3366.00,0.0462
3365.00,0.0464
3364.00,0.0467
3363.00,0.0469
3362.00,0.0471
3361.00,0.0473
3360.00,0.0475
3359.00,0.0478
3358.00,0.0480
3357.00,0.0483
3356.00,0.0486
3355.00,0.0488
3354.00,0.0491
3353.00,0.0493
3352.00,0.0495
3351.00,0.0497
3350.00,0.0500
3349.00,0.0503
3348.00,0.0506
3347.00,0.0509
3346.00,0.0511
3345.00,0.0514
3344.00,0.0516
3343.00,0.0519
3342.00,0.0522
3341.00,0.0525
3340.00,0.0528
3339.00,0.0531
3338.00,0.0535
3337.00,0.0538
3336.00,0.0541
3335.00,0.0544
3334.00,0.0548
3333.00,0.0551
3332.00,0.0555
3331.00,0.0559
3330.00,0.0562
3329.00,0.0566
3328.00,0.0569
3327.00,0.0573
3326.00,0.0577
3325.00,0.0581
3324.00,0.0585
3323.00,0.0590
3322.00,0.0594
3321.00,0.0599
3320.00,0.0603
3319.00,0.0607
3318.00,0.0612
3317.00,0.0616
3316.00,0.0621
3315.00,0.0626
3314.00,0.0630
3313.00,0.0635
3312.00,0.0639
3311.00,0.0644
3310.00,0.0648
3309.00,0.0653
3308.00,0.0657
3307.00,0.0662
3306.00,0.0667
3305.00,0.0673
3304.00,0.0679
3303.00,0.0686
3302.00,0.0692
3301.00,0.0698
3300.00,0.0703
3299.00,0.0708
3298.00,0.0713
3297.00,0.0718
3296.00,0.0723
3295.00,0.0728
3294.00,0.0734
3293.00,0.0739
3292.00,0.0745
3291.00,0.0751
3290.00,0.0756
3289.00,0.0761
3288.00,0.0766
3287.00,0.0771
3286.00,0.0776
3285.00,0.0780
3284.00,0.0785
3283.00,0.0788
3282.00,0.0792
3281.00,0.0795
3280.00,0.0799
3279.00,0.0802
3278.00,0.0805
3277.00,0.0807
3276.00,0.0808
3275.00,0.0809
3274.00,0.0810
3273.00,0.0810
3272.00,0.0809
3271.00,0.0809
3270.00,0.0809
3269.00,0.0808
3268.00,0.0807
3267.00,0.0805
3266.00,0.0803
3265.00,0.0800
3264.00,0.0797
3263.00,0.0793
3262.00,0.0789
3261.00,0.0785
3260.00,0.0781
3259.00,0.0776
3258.00,0.0771
3257.00,0.0766
3256.00,0.0761
3255.00,0.0756
3254.00,0.0751
3253.00,0.0746
3252.00,0.0741
3251.00,0.0735
3250.00,0.0730
3249.00,0.0724
3248.00,0.0719
3247.00,0.0714
3246.00,0.0709
3245.00,0.0704
3244.00,0.0699
3243.00,0.0695
3242.00,0.0690
3241.00,0.0685
3240.00,0.0681
3239.00,0.0676
3238.00,0.0672
3237.00,0.0666
3236.00,0.0661
3235.00,0.0656
3234.00,0.0651
3233.00,0.0648
3232.00,0.0645
3231.00,0.0642
3230.00,0.0639
3229.00,0.0636
3228.00,0.0632
3227.00,0.0628
3226.00,0.0625
3225.00,0.0622
3224.00,0.0618
3223.00,0.0615
3222.00,0.0612
3221.00,0.0609
3220.00,0.0605
3219.00,0.0602
3218.00,0.0599
3217.00,0.0596
3216.00,0.0593
3215.00,0.0591
3214.00,0.0588
3213.00,0.0585
3212.00,0.0582
3211.00,0.0579
3210.00,0.0577
3209.00,0.0574
3208.00,0.0571
3207.00,0.0569
3206.00,0.0566
3205.00,0.0564
3204.00,0.0561
3203.00,0.0559
3202.00,0.0556
3201.00,0.0553
3200.00,0.0551
3199.00,0.0548
3198.00,0.0546
3197.00,0.0544
3196.00,0.0541
3195.00,0.0539
3194.00,0.0536
3193.00,0.0533
3192.00,0.0531
3191.00,0.0528
3190.00,0.0526
3189.00,0.0523
3188.00,0.0521
3187.00,0.0519
3186.00,0.0516
3185.00,0.0513
3184.00,0.0511
3183.00,0.0508
3182.00,0.0506
3181.00,0.0503
3180.00,0.0501
3179.00,0.0499
3178.00,0.0497
3177.00,0.0495
3176.00,0.0492
3175.00,0.0490
3174.00,0.0488
3173.00,0.0485
3172.00,0.0483
3171.00,0.0481
3170.00,0.0479
3169.00,0.0476
3168.00,0.0474
3167.00,0.0472
3166.00,0.0470
3165.00,0.0468
3164.00,0.0466
3163.00,0.0463
3162.00,0.0461
3161.00,0.0459
3160.00,0.0457
3159.00,0.0455
3158.00,0.0453
3157.00,0.0451
3156.00,0.0448
3155.00,0.0446
3154.00,0.0443
3153.00,0.0441
3152.00,0.0439
3151.00,0.0438
3150.00,0.0437
3149.00,0.0436
3148.00,0.0434
3147.00,0.0433
3146.00,0.0432
3145.00,0.0430
3144.00,0.0428
3143.00,0.0427
3142.00,0.0425
3141.00,0.0423
3140.00,0.0421
3139.00,0.0420
3138.00,0.0418
3137.00,0.0418
3136.00,0.0417
3135.00,0.0416
3134.00,0.0415
3133.00,0.0414
3132.00,0.0412
3131.00,0.0411
3130.00,0.0410
3129.00,0.0409
3128.00,0.0408
3127.00,0.0408
3126.00,0.0407
3125.00,0.0406
3124.00,0.0405
3123.00,0.0404
3122.00,0.0402
3121.00,0.0401
3120.00,0.0400
3119.00,0.0399
3118.00,0.0399
3117.00,0.0399
3116.00,0.0399
3115.00,0.0399
3114.00,0.0400
3113.00,0.0401
3112.00,0.0401
3111.00,0.0401
3110.00,0.0401
3109.00,0.0401
3108.00,0.0401
3107.00,0.0402
3106.00,0.0403
3105.00,0.0404
3104.00,0.0404
3103.00,0.0405
3102.00,0.0405
3101.00,0.0405
3100.00,0.0405
3099.00,0.0406
3098.00,0.0407
3097.00,0.0407
3096.00,0.0408
3095.00,0.0408
3094.00,0.0408
3093.00,0.0408
3092.00,0.0409
3091.00,0.0409
3090.00,0.0409
3089.00,0.0410
3088.00,0.0410
3087.00,0.0411
3086.00,0.0410
3085.00,0.0410
3084.00,0.0410
3083.00,0.0410
3082.00,0.0410
3081.00,0.0409
3080.00,0.0409
3079.00,0.0409
3078.00,0.0409
3077.00,0.0410
3076.00,0.0410
3075.00,0.0410
3074.00,0.0410
3073.00,0.0410
3072.00,0.0409
3071.00,0.0408
3070.00,0.0406
3069.00,0.0405
3068.00,0.0403
3067.00,0.0402
3066.00,0.0401
3065.00,0.0401
3064.00,0.0400
3063.00,0.0399
3062.00,0.0398
3061.00,0.0396
3060.00,0.0395
3059.00,0.0393
3058.00,0.0390
3057.00,0.0388
3056.00,0.0385
3055.00,0.0383
3054.00,0.0381
3053.00,0.0378
3052.00,0.0376
3051.00,0.0374
3050.00,0.0372
3049.00,0.0370
3048.00,0.0368
3047.00,0.0365
3046.00,0.0363
3045.00,0.0360
3044.00,0.0358
3043.00,0.0356
3042.00,0.0354
3041.00,0.0353
3040.00,0.0352
3039.00,0.0351
3038.00,0.0349
3037.00,0.0347
3036.00,0.0345
3035.00,0.0343
3034.00,0.0341
3033.00,0.0339
3032.00,0.0338
3031.00,0.0337
3030.00,0.0336
3029.00,0.0335
3028.00,0.0333
3027.00,0.0331
3026.00,0.0329
3025.00,0.0327
3024.00,0.0325
3023.00,0.0323
3022.00,0.0321
3021.00,0.0319
3020.00,0.0317
3019.00,0.0315
3018.00,0.0313
3017.00,0.0311
3016.00,0.0309
3015.00,0.0307
3014.00,0.0306
3013.00,0.0305
3012.00,0.0304
3011.00,0.0303
3010.00,0.0303
3009.00,0.0303
3008.00,0.0302
3007.00,0.0302
3006.00,0.0301
3005.00,0.0301
3004.00,0.0300
3003.00,0.0300
3002.00,0.0300
3001.00,0.0300
3000.00,0.0300
2999.00,0.0300
2998.00,0.0300
2997.00,0.0301
2996.00,0.0301
2995.00,0.0302
2994.00,0.0304
2993.00,0.0306
2992.00,0.0308
2991.00,0.0310
2990.00,0.0313
2989.00,0.0316
2988.00,0.0319
2987.00,0.0322
2986.00,0.0325
2985.00,0.0328
2984.00,0.0331
2983.00,0.0335
2982.00,0.0338
2981.00,0.0342
2980.00,0.0347
2979.00,0.0352
2978.00,0.0357
2977.00,0.0362
2976.00,0.0368
2975.00,0.0373
2974.00,0.0378
2973.00,0.0383
2972.00,0.0388
2971.00,0.0393
2970.00,0.0398
2969.00,0.0403
2968.00,0.0408
2967.00,0.0412
2966.00,0.0416
2965.00,0.0419
2964.00,0.0422
2963.00,0.0424
2962.00,0.0425
2961.00,0.0426
2960.00,0.0426
2959.00,0.0425
2958.00,0.0424
2957.00,0.0422
2956.00,0.0419
2955.00,0.0416
2954.00,0.0412
2953.00,0.0408
2952.00,0.0405
2951.00,0.0402
2950.00,0.0399
2949.00,0.0397
2948.00,0.0396
2947.00,0.0396
2946.00,0.0396
2945.00,0.0397
2944.00,0.0400
2943.00,0.0402
2942.00,0.0405
2941.00,0.0409
2940.00,0.0413
2939.00,0.0417
2938.00,0.0421
2937.00,0.0425
2936.00,0.0428
2935.00,0.0432
2934.00,0.0435
2933.00,0.0437
2932.00,0.0439
2931.00,0.0441
2930.00,0.0442
2929.00,0.0443
2928.00,0.0444
2927.00,0.0444
2926.00,0.0445
2925.00,0.0444
2924.00,0.0443
2923.00,0.0442
2922.00,0.0440
2921.00,0.0437
2920.00,0.0434
2919.00,0.0430
2918.00,0.0425
2917.00,0.0419
2916.00,0.0413
2915.00,0.0407
2914.00,0.0400
2913.00,0.0394
2912.00,0.0387
2911.00,0.0381
2910.00,0.0375
2909.00,0.0370
2908.00,0.0365
2907.00,0.0360
2906.00,0.0356
2905.00,0.0352
2904.00,0.0349
2903.00,0.0345
2902.00,0.0343
2901.00,0.0340
2900.00,0.0337
2899.00,0.0335
2898.00,0.0332
2897.00,0.0330
2896.00,0.0327
2895.00,0.0325
2894.00,0.0323
2893.00,0.0322
2892.00,0.0320
2891.00,0.0319
2890.00,0.0318
2889.00,0.0317
2888.00,0.0316
2887.00,0.0316
2886.00,0.0316
2885.00,0.0316
2884.00,0.0317
2883.00,0.0319
2882.00,0.0320
2881.00,0.0322
2880.00,0.0324
2879.00,0.0326
2878.00,0.0328
2877.00,0.0329
2876.00,0.0330
2875.00,0.0331
2874.00,0.0330
2873.00,0.0330
2872.00,0.0328
2871.00,0.0326
2870.00,0.0323
2869.00,0.0320
2868.00,0.0316
2867.00,0.0313
2866.00,0.0310
2865.00,0.0307
2864.00,0.0304
2863.00,0.0302
2862.00,0.0300
2861.00,0.0299
2860.00,0.0298
2859.00,0.0298
2858.00,0.0298
2857.00,0.0298
2856.00,0.0298
2855.00,0.0299
2854.00,0.0298
2853.00,0.0298
2852.00,0.0296
2851.00,0.0293
2850.00,0.0289
2849.00,0.0284
2848.00,0.0278
2847.00,0.0272
2846.00,0.0266
2845.00,0.0260
2844.00,0.0255
2843.00,0.0250
2842.00,0.0246
2841.00,0.0243
2840.00,0.0239
2839.00,0.0237
2838.00,0.0235
2837.00,0.0233
2836.00,0.0231
2835.00,0.0229
2834.00,0.0228
2833.00,0.0227
2832.00,0.0225
2831.00,0.0224
2830.00,0.0223
2829.00,0.0223
2828.00,0.0222
2827.00,0.0221
2826.00,0.0220
2825.00,0.0219
2824.00,0.0218
2823.00,0.0217
2822.00,0.0217
2821.00,0.0216
2820.00,0.0216
2819.00,0.0215
2818.00,0.0214
2817.00,0.0214
2816.00,0.0213
2815.00,0.0213
2814.00,0.0212
2813.00,0.0211
2812.00,0.0211
2811.00,0.0210
2810.00,0.0209
2809.00,0.0208
2808.00,0.0208
2807.00,0.0207
2806.00,0.0207
2805.00,0.0206
2804.00,0.0205
2803.00,0.0205
2802.00,0.0204
2801.00,0.0203
2800.00,0.0202
2799.00,0.0202
2798.00,0.0201
2797.00,0.0200
2796.00,0.0200
2795.00,0.0199
2794.00,0.0198
2793.00,0.0198
2792.00,0.0197
2791.00,0.0196
2790.00,0.0196
2789.00,0.0195
2788.00,0.0194
2787.00,0.0194
2786.00,0.0193
2785.00,0.0192
2784.00,0.0192
2783.00,0.0191
2782.00,0.0190
2781.00,0.0189
2780.00,0.0188
2779.00,0.0187
2778.00,0.0186
2777.00,0.0185
2776.00,0.0184
2775.00,0.0183
2774.00,0.0183
2773.00,0.0182
2772.00,0.0181
2771.00,0.0181
2770.00,0.0180
2769.00,0.0179
2768.00,0.0178
2767.00,0.0177
2766.00,0.0176
2765.00,0.0175
2764.00,0.0174
2763.00,0.0174
2762.00,0.0173
2761.00,0.0172
2760.00,0.0171
2759.00,0.0170
2758.00,0.0170
2757.00,0.0169
2756.00,0.0168
2755.00,0.0167
2754.00,0.0167
2753.00,0.0166
2752.00,0.0165
2751.00,0.0165
2750.00,0.0164
2749.00,0.0163
2748.00,0.0162
2747.00,0.0162
2746.00,0.0161
2745.00,0.0161
2744.00,0.0160
2743.00,0.0160
2742.00,0.0159
2741.00,0.0159
2740.00,0.0158
2739.00,0.0157
2738.00,0.0157
2737.00,0.0156
2736.00,0.0155
2735.00,0.0155
2734.00,0.0155
2733.00,0.0154
2732.00,0.0154
2731.00,0.0153
2730.00,0.0152
2729.00,0.0151
2728.00,0.0150
2727.00,0.0150
2726.00,0.0149
2725.00,0.0149
2724.00,0.0148
2723.00,0.0148
2722.00,0.0147
2721.00,0.0147
2720.00,0.0146
2719.00,0.0145
2718.00,0.0145
2717.00,0.0144
2716.00,0.0144
2715.00,0.0143
2714.00,0.0142
2713.00,0.0142
2712.00,0.0141
2711.00,0.0141
2710.00,0.0140
2709.00,0.0140
2708.00,0.0139
2707.00,0.0139
2706.00,0.0139
2705.00,0.0138
2704.00,0.0138
2703.00,0.0138
2702.00,0.0137
2701.00,0.0137
2700.00,0.0136
2699.00,0.0136
2698.00,0.0135
2697.00,0.0135
2696.00,0.0135
2695.00,0.0134
2694.00,0.0134
2693.00,0.0134
2692.00,0.0134
2691.00,0.0133
2690.00,0.0133
2689.00,0.0132
2688.00,0.0132
2687.00,0.0131
2686.00,0.0131
2685.00,0.0131
2684.00,0.0130
2683.00,0.0130
2682.00,0.0129
2681.00,0.0129
2680.00,0.0129
2679.00,0.0128
2678.00,0.0128
2677.00,0.0127
2676.00,0.0127
2675.00,0.0127
2674.00,0.0126
2673.00,0.0126
2672.00,0.0125
2671.00,0.0125
2670.00,0.0124
2669.00,0.0124
2668.00,0.0124
2667.00,0.0124
2666.00,0.0124
2665.00,0.0124
2664.00,0.0124
2663.00,0.0124
2662.00,0.0124
2661.00,0.0123
2660.00,0.0123
2659.00,0.0123
2658.00,0.0123
2657.00,0.0123
2656.00,0.0123
2655.00,0.0122
2654.00,0.0122
2653.00,0.0122
2652.00,0.0122
2651.00,0.0121
2650.00,0.0121
2649.00,0.0120
2648.00,0.0120
2647.00,0.0120
2646.00,0.0119
2645.00,0.0119
2644.00,0.0119
2643.00,0.0118
2642.00,0.0118
2641.00,0.0117
2640.00,0.0117
2639.00,0.0116
2638.00,0.0116
2637.00,0.0115
2636.00,0.0115
2635.00,0.0115
2634.00,0.0114
2633.00,0.0114
2632.00,0.0114
2631.00,0.0113
2630.00,0.0113
2629.00,0.0112
2628.00,0.0112
2627.00,0.0112
2626.00,0.0112
2625.00,0.0111
2624.00,0.0111
2623.00,0.0110
2622.00,0.0110
2621.00,0.0109
2620.00,0.0109
2619.00,0.0109
2618.00,0.0108
2617.00,0.0108
2616.00,0.0108
2615.00,0.0107
2614.00,0.0107
2613.00,0.0106
2612.00,0.0106
2611.00,0.0106
2610.00,0.0106
2609.00,0.0105
2608.00,0.0105
2607.00,0.0104
2606.00,0.0104
2605.00,0.0103
2604.00,0.0103
2603.00,0.0103
2602.00,0.0102
2601.00,0.0102
2600.00,0.0101
2599.00,0.0101
2598.00,0.0100
2597.00,0.0100
2596.00,0.0100
2595.00,0.0099
2594.00,0.0099
2593.00,0.0098
2592.00,0.0098
2591.00,0.0098
2590.00,0.0097
2589.00,0.0097
2588.00,0.0097
2587.00,0.0096
2586.00,0.0096
2585.00,0.0095
2584.00,0.0095
2583.00,0.0095
2582.00,0.0095
2581.00,0.0094
2580.00,0.0094
2579.00,0.0093
2578.00,0.0093
2577.00,0.0093
2576.00,0.0092
2575.00,0.0092
2574.00,0.0092
2573.00,0.0091
2572.00,0.0091
2571.00,0.0090
2570.00,0.0090
2569.00,0.0090
2568.00,0.0090
2567.00,0.0090
2566.00,0.0089
2565.00,0.0089
2564.00,0.0089
2563.00,0.0088
2562.00,0.0088
2561.00,0.0088
2560.00,0.0087
2559.00,0.0087
2558.00,0.0087
2557.00,0.0087
2556.00,0.0087
2555.00,0.0087
2554.00,0.0086
2553.00,0.0086
2552.00,0.0085
2551.00,0.0085
2550.00,0.0084
2549.00,0.0084
2548.00,0.0084
2547.00,0.0084
2546.00,0.0084
2545.00,0.0083
2544.00,0.0083
2543.00,0.0083
2542.00,0.0082
2541.00,0.0082
2540.00,0.0082
2539.00,0.0081
2538.00,0.0081
2537.00,0.0081
2536.00,0.0081
2535.00,0.0081
2534.00,0.0080
2533.00,0.0080
2532.00,0.0080
2531.00,0.0080
2530.00,0.0080
2529.00,0.0079
2528.00,0.0079
2527.00,0.0078
2526.00,0.0078
2525.00,0.0078
2524.00,0.0078
2523.00,0.0078
2522.00,0.0078
2521.00,0.0078
2520.00,0.0077
2519.00,0.0077
2518.00,0.0077
2517.00,0.0077
2516.00,0.0077
2515.00,0.0076
2514.00,0.0076
2513.00,0.0076
2512.00,0.0076
2511.00,0.0075
2510.00,0.0075
2509.00,0.0075
2508.00,0.0075
2507.00,0.0075
2506.00,0.0075
2505.00,0.0074
2504.00,0.0074
2503.00,0.0074
2502.00,0.0074
2501.00,0.0074
2500.00,0.0073
2499.00,0.0073
2498.00,0.0072
2497.00,0.0072
2496.00,0.0072
2495.00,0.0072
2494.00,0.0072
2493.00,0.0072
2492.00,0.0071
2491.00,0.0071
2490.00,0.0071
2489.00,0.0070
2488.00,0.0070
2487.00,0.0070
2486.00,0.0070
2485.00,0.0070
2484.00,0.0070
2483.00,0.0069
2482.00,0.0069
2481.00,0.0068
2480.00,0.0068
2479.00,0.0068
2478.00,0.0068
2477.00,0.0067
2476.00,0.0067
2475.00,0.0067
2474.00,0.0067
2473.00,0.0067
2472.00,0.0067
2471.00,0.0066
2470.00,0.0066
2469.00,0.0066
2468.00,0.0066
2467.00,0.0066
2466.00,0.0066
2465.00,0.0066
2464.00,0.0065
2463.00,0.0065
2462.00,0.0064
2461.00,0.0064
2460.00,0.0064
2459.00,0.0065
2458.00,0.0065
2457.00,0.0065
2456.00,0.0065
2455.00,0.0064
2454.00,0.0064
2453.00,0.0064
2452.00,0.0063
2451.00,0.0063
2450.00,0.0063
2449.00,0.0063
2448.00,0.0063
2447.00,0.0062
2446.00,0.0061
2445.00,0.0061
2444.00,0.0060
2443.00,0.0060
2442.00,0.0060
2441.00,0.0059
2440.00,0.0059
2439.00,0.0059
2438.00,0.0059
2437.00,0.0058
2436.00,0.0058
2435.00,0.0057
2434.00,0.0057
2433.00,0.0057
2432.00,0.0057
2431.00,0.0057
2430.00,0.0057
2429.00,0.0057
2428.00,0.0057
2427.00,0.0056
2426.00,0.0055
2425.00,0.0055
2424.00,0.0055
2423.00,0.0054
2422.00,0.0054
2421.00,0.0054
2420.00,0.0054
2419.00,0.0054
2418.00,0.0053
2417.00,0.0053
2416.00,0.0053
2415.00,0.0053
2414.00,0.0053
2413.00,0.0053
2412.00,0.0053
2411.00,0.0053
2410.00,0.0053
2409.00,0.0052
2408.00,0.0051
2407.00,0.0051
2406.00,0.0050
2405.00,0.0050
2404.00,0.0050
2403.00,0.0050
2402.00,0.0050
2401.00,0.0049
2400.00,0.0049
2399.00,0.0049
2398.00,0.0049
2397.00,0.0049
2396.00,0.0049
2395.00,0.0048
2394.00,0.0048
2393.00,0.0048
2392.00,0.0048
2391.00,0.0048
2390.00,0.0048
2389.00,0.0047
2388.00,0.0047
2387.00,0.0047
2386.00,0.0046
2385.00,0.0046
2384.00,0.0045
2383.00,0.0045
2382.00,0.0044
2381.00,0.0044
2380.00,0.0044
2379.00,0.0044
2378.00,0.0044
2377.00,0.0044
2376.00,0.0044
2375.00,0.0044
2374.00,0.0044
2373.00,0.0043
2372.00,0.0043
2371.00,0.0042
2370.00,0.0042
2369.00,0.0042
2368.00,0.0042
2367.00,0.0043
2366.00,0.0043
2365.00,0.0043
2364.00,0.0043
2363.00,0.0043
2362.00,0.0044
2361.00,0.0044
2360.00,0.0044
2359.00,0.0043
2358.00,0.0042
2357.00,0.0041
2356.00,0.0041
2355.00,0.0041
2354.00,0.0041
2353.00,0.0040
2352.00,0.0039
2351.00,0.0039
2350.00,0.0040
2349.00,0.0042
2348.00,0.0044
2347.00,0.0046
2346.00,0.0047
2345.00,0.0046
2344.00,0.0045
2343.00,0.0045
2342.00,0.0045
2341.00,0.0045
2340.00,0.0045
2339.00,0.0045
2338.00,0.0045
2337.00,0.0045
2336.00,0.0045
2335.00,0.0046
2334.00,0.0045
2333.00,0.0045
2332.00,0.0045
2331.00,0.0044
2330.00,0.0044
2329.00,0.0045
2328.00,0.0048
2327.00,0.0053
2326.00,0.0056
2325.00,0.0057
2324.00,0.0057
2323.00,0.0054
2322.00,0.0052
2321.00,0.0049
2320.00,0.0048
2319.00,0.0047
2318.00,0.0046
2317.00,0.0046
2316.00,0.0047
2315.00,0.0047
2314.00,0.0047
2313.00,0.0046
2312.00,0.0045
2311.00,0.0044
2310.00,0.0044
2309.00,0.0044
2308.00,0.0044
2307.00,0.0044
2306.00,0.0044
2305.00,0.0045
2304.00,0.0045
2303.00,0.0045
2302.00,0.0046
2301.00,0.0046
2300.00,0.0047
2299.00,0.0047
2298.00,0.0048
2297.00,0.0048
2296.00,0.0049
2295.00,0.0049
2294.00,0.0050
2293.00,0.0051
2292.00,0.0052
2291.00,0.0053
2290.00,0.0053
2289.00,0.0053
2288.00,0.0054
2287.00,0.0054
2286.00,0.0053
2285.00,0.0053
2284.00,0.0052
2283.00,0.0052
2282.00,0.0051
2281.00,0.0051
2280.00,0.0050
2279.00,0.0050
2278.00,0.0049
2277.00,0.0049
2276.00,0.0049
2275.00,0.0049
2274.00,0.0048
2273.00,0.0048
2272.00,0.0047
2271.00,0.0046
2270.00,0.0045
2269.00,0.0045
2268.00,0.0044
2267.00,0.0044
2266.00,0.0043
2265.00,0.0043
2264.00,0.0044
2263.00,0.0044
2262.00,0.0044
2261.00,0.0044
2260.00,0.0044
2259.00,0.0044
2258.00,0.0044
2257.00,0.0043
2256.00,0.0042
2255.00,0.0041
2254.00,0.0040
2253.00,0.0040
2252.00,0.0040
2251.00,0.0041
2250.00,0.0040
2249.00,0.0041
2248.00,0.0041
2247.00,0.0042
2246.00,0.0042
2245.00,0.0042
2244.00,0.0042
2243.00,0.0042
2242.00,0.0042
2241.00,0.0042
2240.00,0.0041
2239.00,0.0041
2238.00,0.0040
2237.00,0.0040
2236.00,0.0041
2235.00,0.0042
2234.00,0.0042
2233.00,0.0043
2232.00,0.0043
2231.00,0.0043
2230.00,0.0043
2229.00,0.0043
2228.00,0.0043
2227.00,0.0042
2226.00,0.0041
2225.00,0.0041
2224.00,0.0041
2223.00,0.0042
2222.00,0.0041
2221.00,0.0040
2220.00,0.0039
2219.00,0.0038
2218.00,0.0038
2217.00,0.0039
2216.00,0.0040
2215.00,0.0042
2214.00,0.0042
2213.00,0.0042
2212.00,0.0042
2211.00,0.0041
2210.00,0.0040
2209.00,0.0039
2208.00,0.0039
2207.00,0.0040
2206.00,0.0040
2205.00,0.0040
2204.00,0.0040
2203.00,0.0040
2202.00,0.0040
2201.00,0.0041
2200.00,0.0043
2199.00,0.0043
2198.00,0.0043
2197.00,0.0043
2196.00,0.0043
2195.00,0.0043
2194.00,0.0043
2193.00,0.0043
2192.00,0.0044
2191.00,0.0046
2190.00,0.0046
2189.00,0.0046
2188.00,0.0046
2187.00,0.0044
2186.00,0.0043
2185.00,0.0041
2184.00,0.0039
2183.00,0.0036
2182.00,0.0034
2181.00,0.0035
2180.00,0.0037
2179.00,0.0038
2178.00,0.0037
2177.00,0.0036
2176.00,0.0034
2175.00,0.0033
2174.00,0.0032
2173.00,0.0034
2172.00,0.0038
2171.00,0.0042
2170.00,0.0045
2169.00,0.0047
2168.00,0.0049
2167.00,0.0048
2166.00,0.0047
2165.00,0.0047
2164.00,0.0049
2163.00,0.0050
2162.00,0.0045
2161.00,0.0033
2160.00,0.0017
2159.00,0.0003
2158.00,-0.0004
2157.00,-0.0003
2156.00,0.0003
2155.00,0.0008
2154.00,0.0012
2153.00,0.0016
2152.00,0.0018
2151.00,0.0019
2150.00,0.0019
2149.00,0.0019
2148.00,0.0019
2147.00,0.0020
2146.00,0.0020
2145.00,0.0021
2144.00,0.0022
2143.00,0.0022
2142.00,0.0022
2141.00,0.0023
2140.00,0.0023
2139.00,0.0023
2138.00,0.0022
2137.00,0.0020
2136.00,0.0018
2135.00,0.0016
2134.00,0.0015
2133.00,0.0016
2132.00,0.0018
2131.00,0.0021
2130.00,0.0023
2129.00,0.0025
2128.00,0.0028
2127.00,0.0029
2126.00,0.0030
2125.00,0.0032
2124.00,0.0033
2123.00,0.0034
2122.00,0.0034
2121.00,0.0034
2120.00,0.0035
2119.00,0.0036
2118.00,0.0036
2117.00,0.0037
2116.00,0.0038
2115.00,0.0039
2114.00,0.0040
2113.00,0.0041
2112.00,0.0041
2111.00,0.0040
2110.00,0.0038
2109.00,0.0037
2108.00,0.0037
2107.00,0.0037
2106.00,0.0037
2105.00,0.0038
2104.00,0.0038
2103.00,0.0038
2102.00,0.0038
2101.00,0.0038
2100.00,0.0037
2099.00,0.0037
2098.00,0.0035
2097.00,0.0034
2096.00,0.0034
2095.00,0.0033
2094.00,0.0033
2093.00,0.0034
2092.00,0.0036
2091.00,0.0037
2090.00,0.0037
2089.00,0.0038
2088.00,0.0038
2087.00,0.0038
2086.00,0.0038
2085.00,0.0038
2084.00,0.0039
2083.00,0.0040
2082.00,0.0040
2081.00,0.0040
2080.00,0.0040
2079.00,0.0040
2078.00,0.0039
2077.00,0.0038
2076.00,0.0037
2075.00,0.0037
2074.00,0.0036
2073.00,0.0036
2072.00,0.0036
2071.00,0.0035
2070.00,0.0035
2069.00,0.0035
2068.00,0.0035
2067.00,0.0035
2066.00,0.0035
2065.00,0.0035
2064.00,0.0036
2063.00,0.0036
2062.00,0.0036
2061.00,0.0036
2060.00,0.0036
2059.00,0.0036
2058.00,0.0036
2057.00,0.0036
2056.00,0.0036
2055.00,0.0036
2054.00,0.0037
2053.00,0.0041
2052.00,0.0044
2051.00,0.0045
2050.00,0.0042
2049.00,0.0039
2048.00,0.0037
2047.00,0.0034
2046.00,0.0032
2045.00,0.0032
2044.00,0.0032
2043.00,0.0033
2042.00,0.0033
2041.00,0.0034
2040.00,0.0035
2039.00,0.0035
2038.00,0.0034
2037.00,0.0034
2036.00,0.0033
2035.00,0.0032
2034.00,0.0029
2033.00,0.0028
2032.00,0.0027
2031.00,0.0026
2030.00,0.0025
2029.00,0.0025
2028.00,0.0027
2027.00,0.0027
2026.00,0.0025
2025.00,0.0023
2024.00,0.0023
2023.00,0.0022
2022.00,0.0021
2021.00,0.0022
2020.00,0.0023
2019.00,0.0024
2018.00,0.0023
2017.00,0.0021
2016.00,0.0021
2015.00,0.0021
2014.00,0.0021
2013.00,0.0023
2012.00,0.0025
2011.00,0.0026
2010.00,0.0024
2009.00,0.0021
2008.00,0.0018
2007.00,0.0015
2006.00,0.0013
2005.00,0.0013
2004.00,0.0015
2003.00,0.0017
2002.00,0.0019
2001.00,0.0022
2000.00,0.0024
1999.00,0.0024
1998.00,0.0024
1997.00,0.0025
1996.00,0.0027
1995.00,0.0028
1994.00,0.0027
1993.00,0.0027
1992.00,0.0027
1991.00,0.0028
1990.00,0.0027
1989.00,0.0028
1988.00,0.0029
1987.00,0.0030
1986.00,0.0031
1985.00,0.0032
1984.00,0.0035
1983.00,0.0038
1982.00,0.0041
1981.00,0.0041
1980.00,0.0038
1979.00,0.0032
1978.00,0.0024
1977.00,0.0020
1976.00,0.0019
1975.00,0.0017
1974.00,0.0015
1973.00,0.0014
1972.00,0.0015
1971.00,0.0015
1970.00,0.0015
1969.00,0.0015
1968.00,0.0015
1967.00,0.0015
1966.00,0.0015
1965.00,0.0015
1964.00,0.0017
1963.00,0.0017
1962.00,0.0016
1961.00,0.0015
1960.00,0.0014
1959.00,0.0013
1958.00,0.0012
1957.00,0.0013
1956.00,0.0015
1955.00,0.0017
1954.00,0.0018
1953.00,0.0018
1952.00,0.0018
1951.00,0.0018
1950.00,0.0018
1949.00,0.0019
1948.00,0.0020
1947.00,0.0021
1946.00,0.0021
1945.00,0.0021
1944.00,0.0021
1943.00,0.0020
1942.00,0.0020
1941.00,0.0020
1940.00,0.0021
1939.00,0.0021
1938.00,0.0021
1937.00,0.0021
1936.00,0.0022
1935.00,0.0022
1934.00,0.0022
1933.00,0.0022
1932.00,0.0023
1931.00,0.0023
1930.00,0.0022
1929.00,0.0022
1928.00,0.0022
1927.00,0.0022
1926.00,0.0022
1925.00,0.0022
1924.00,0.0022
1923.00,0.0023
1922.00,0.0024
1921.00,0.0025
1920.00,0.0024
1919.00,0.0024
1918.00,0.0023
1917.00,0.0024
1916.00,0.0025
1915.00,0.0025
1914.00,0.0025
1913.00,0.0025
1912.00,0.0026
1911.00,0.0026
1910.00,0.0026
1909.00,0.0026
1908.00,0.0028
1907.00,0.0028
1906.00,0.0028
1905.00,0.0028
1904.00,0.0028
1903.00,0.0028
1902.00,0.0028
1901.00,0.0028
1900.00,0.0028
1899.00,0.0029
1898.00,0.0029
1897.00,0.0028
1896.00,0.0028
1895.00,0.0029
1894.00,0.0029
1893.00,0.0029
1892.00,0.0029
1891.00,0.0028
1890.00,0.0027
1889.00,0.0028
1888.00,0.0029
1887.00,0.0029
1886.00,0.0029
1885.00,0.0030
1884.00,0.0031
1883.00,0.0032
1882.00,0.0031
1881.00,0.0031
1880.00,0.0030
1879.00,0.0030
1878.00,0.0030
1877.00,0.0030
1876.00,0.0031
1875.00,0.0031
1874.00,0.0031
1873.00,0.0031
1872.00,0.0031
1871.00,0.0029
1870.00,0.0027
1869.00,0.0026
1868.00,0.0028
1867.00,0.0029
1866.00,0.0029
1865.00,0.0029
1864.00,0.0030
1863.00,0.0031
1862.00,0.0031
1861.00,0.0031
1860.00,0.0032
1859.00,0.0033
1858.00,0.0033
1857.00,0.0033
1856.00,0.0034
1855.00,0.0034
1854.00,0.0033
1853.00,0.0033
1852.00,0.0033
1851.00,0.0033
1850.00,0.0032
1849.00,0.0033
1848.00,0.0033
1847.00,0.0032
1846.00,0.0030
1845.00,0.0029
1844.00,0.0031
1843.00,0.0033
1842.00,0.0033
1841.00,0.0032
1840.00,0.0032
1839.00,0.0033
1838.00,0.0034
1837.00,0.0035
1836.00,0.0036
1835.00,0.0037
1834.00,0.0036
1833.00,0.0035
1832.00,0.0034
1831.00,0.0033
1830.00,0.0033
1829.00,0.0035
1828.00,0.0036
1827.00,0.0034
1826.00,0.0033
1825.00,0.0033
1824.00,0.0034
1823.00,0.0036
1822.00,0.0036
1821.00,0.0037
1820.00,0.0038
1819.00,0.0038
1818.00,0.0037
1817.00,0.0037
1816.00,0.0037
1815.00,0.0038
1814.00,0.0039
1813.00,0.0039
1812.00,0.0040
1811.00,0.0041
1810.00,0.0041
1809.00,0.0042
1808.00,0.0042
1807.00,0.0043
1806.00,0.0043
1805.00,0.0044
1804.00,0.0044
1803.00,0.0043
1802.00,0.0042
1801.00,0.0042
1800.00,0.0043
1799.00,0.0044
1798.00,0.0044
1797.00,0.0045
1796.00,0.0046
1795.00,0.0046
1794.00,0.0045
1793.00,0.0046
1792.00,0.0048
1791.00,0.0049
1790.00,0.0048
1789.00,0.0047
1788.00,0.0048
1787.00,0.0049
1786.00,0.0050
1785.00,0.0050
1784.00,0.0051
1783.00,0.0051
1782.00,0.0051
1781.00,0.0054
1780.00,0.0055
1779.00,0.0055
1778.00,0.0056
1777.00,0.0056
1776.00,0.0057
1775.00,0.0058
1774.00,0.0058
1773.00,0.0057
1772.00,0.0057
1771.00,0.0058
1770.00,0.0059
1769.00,0.0060
1768.00,0.0062
1767.00,0.0063
1766.00,0.0064
1765.00,0.0066
1764.00,0.0067
1763.00,0.0065
1762.00,0.0067
1761.00,0.0069
1760.00,0.0070
1759.00,0.0070
1758.00,0.0071
1757.00,0.0072
1756.00,0.0076
1755.00,0.0079
1754.00,0.0080
1753.00,0.0082
1752.00,0.0086
1751.00,0.0090
1750.00,0.0093
1749.00,0.0095
1748.00,0.0097
1747.00,0.0100
1746.00,0.0103
1745.00,0.0106
1744.00,0.0110
1743.00,0.0114
1742.00,0.0117
1741.00,0.0120
1740.00,0.0127
1739.00,0.0131
1738.00,0.0134
1737.00,0.0138
1736.00,0.0142
1735.00,0.0145
1734.00,0.0146
1733.00,0.0149
1732.00,0.0153
1731.00,0.0157
1730.00,0.0161
1729.00,0.0164
1728.00,0.0166
1727.00,0.0171
1726.00,0.0174
1725.00,0.0177
1724.00,0.0182
1723.00,0.0186
1722.00,0.0189
1721.00,0.0191
1720.00,0.0193
1719.00,0.0197
1718.00,0.0205
1717.00,0.0216
1716.00,0.0226
1715.00,0.0231
1714.00,0.0231
1713.00,0.0234
1712.00,0.0242
1711.00,0.0251
1710.00,0.0262
1709.00,0.0273
1708.00,0.0285
1707.00,0.0298
1706.00,0.0314
1705.00,0.0334
1704.00,0.0355
1703.00,0.0374
1702.00,0.0395
1701.00,0.0432
1700.00,0.0484
1699.00,0.0530
1698.00,0.0562
1697.00,0.0590
1696.00,0.0625
1695.00,0.0657
1694.00,0.0676
1693.00,0.0682
1692.00,0.0686
1691.00,0.0696
1690.00,0.0710
1689.00,0.0726
1688.00,0.0742
1687.00,0.0759
1686.00,0.0778
1685.00,0.0795
1684.00,0.0817
1683.00,0.0839
1682.00,0.0860
1681.00,0.0882
1680.00,0.0905
1679.00,0.0928
1678.00,0.0949
1677.00,0.0971
1676.00,0.0993
1675.00,0.1016
1674.00,0.1038
1673.00,0.1057
1672.00,0.1078
1671.00,0.1101
1670.00,0.1126
1669.00,0.1154
1668.00,0.1181
1667.00,0.1207
1666.00,0.1231
1665.00,0.1256
1664.00,0.1284
1663.00,0.1314
1662.00,0.1344
1661.00,0.1373
1660.00,0.1401
1659.00,0.1430
1658.00,0.1459
1657.00,0.1487
1656.00,0.1514
1655.00,0.1540
1654.00,0.1565
1653.00,0.1588
1652.00,0.1612
1651.00,0.1627
1650.00,0.1631
1649.00,0.1631
1648.00,0.1633
1647.00,0.1635
1646.00,0.1636
1645.00,0.1638
1644.00,0.1642
1643.00,0.1647
1642.00,0.1651
1641.00,0.1657
1640.00,0.1665
1639.00,0.1675
1638.00,0.1685
1637.00,0.1695
1636.00,0.1706
1635.00,0.1720
1634.00,0.1736
1633.00,0.1754
1632.00,0.1777
1631.00,0.1806
1630.00,0.1836
1629.00,0.1869
1628.00,0.1904
1627.00,0.1941
1626.00,0.1977
1625.00,0.2012
1624.00,0.2048
1623.00,0.2081
1622.00,0.2109
1621.00,0.2132
1620.00,0.2151
1619.00,0.2165
1618.00,0.2166
1617.00,0.2148
1616.00,0.2115
1615.00,0.2077
1614.00,0.2034
1613.00,0.1988
1612.00,0.1937
1611.00,0.1882
1610.00,0.1820
1609.00,0.1756
1608.00,0.1691
1607.00,0.1630
1606.00,0.1573
1605.00,0.1520
1604.00,0.1470
1603.00,0.1423
1602.00,0.1380
1601.00,0.1341
1600.00,0.1306
1599.00,0.1275
1598.00,0.1248
1597.00,0.1223
1596.00,0.1199
1595.00,0.1178
1594.00,0.1159
1593.00,0.1142
1592.00,0.1125
1591.00,0.1111
1590.00,0.1098
1589.00,0.1087
1588.00,0.1077
1587.00,0.1068
1586.00,0.1062
1585.00,0.1057
1584.00,0.1053
1583.00,0.1050
1582.00,0.1050
1581.00,0.1051
1580.00,0.1053
1579.00,0.1056
1578.00,0.1063
1577.00,0.1074
1576.00,0.1088
1575.00,0.1100
1574.00,0.1106
1573.00,0.1108
1572.00,0.1112
1571.00,0.1121
1570.00,0.1135
1569.00,0.1152
1568.00,0.1167
1567.00,0.1181
1566.00,0.1197
1565.00,0.1216
1564.00,0.1236
1563.00,0.1255
1562.00,0.1274
1561.00,0.1296
1560.00,0.1318
1559.00,0.1342
1558.00,0.1370
1557.00,0.1390
1556.00,0.1405
1555.00,0.1427
1554.00,0.1454
1553.00,0.1482
1552.00,0.1506
1551.00,0.1527
1550.00,0.1549
1549.00,0.1573
1548.00,0.1595
1547.00,0.1616
1546.00,0.1636
1545.00,0.1654
1544.00,0.1672
1543.00,0.1689
1542.00,0.1706
1541.00,0.1724
1540.00,0.1741
1539.00,0.1758
1538.00,0.1772
1537.00,0.1781
1536.00,0.1787
1535.00,0.1793
1534.00,0.1799
1533.00,0.1805
1532.00,0.1811
1531.00,0.1818
1530.00,0.1826
1529.00,0.1833
1528.00,0.1836
1527.00,0.1835
1526.00,0.1834
1525.00,0.1832
1524.00,0.1832
1523.00,0.1830
1522.00,0.1826
1521.00,0.1819
1520.00,0.1812
1519.00,0.1805
1518.00,0.1798
1517.00,0.1787
1516.00,0.1774
1515.00,0.1759
1514.00,0.1741
1513.00,0.1718
1512.00,0.1688
1511.00,0.1657
1510.00,0.1626
1509.00,0.1592
1508.00,0.1550
1507.00,0.1495
1506.00,0.1442
1505.00,0.1401
1504.00,0.1369
1503.00,0.1342
1502.00,0.1312
1501.00,0.1281
1500.00,0.1250
1499.00,0.1218
1498.00,0.1185
1497.00,0.1152
1496.00,0.1119
1495.00,0.1090
1494.00,0.1063
1493.00,0.1035
1492.00,0.1007
1491.00,0.0976
1490.00,0.0945
1489.00,0.0915
1488.00,0.0892
1487.00,0.0873
1486.00,0.0857
1485.00,0.0843
1484.00,0.0832
1483.00,0.0821
1482.00,0.0812
1481.00,0.0803
1480.00,0.0797
1479.00,0.0794
1478.00,0.0791
1477.00,0.0789
1476.00,0.0791
1475.00,0.0795
1474.00,0.0803
1473.00,0.0816
1472.00,0.0831
1471.00,0.0845
1470.00,0.0856
1469.00,0.0864
1468.00,0.0871
1467.00,0.0876
1466.00,0.0878
1465.00,0.0879
1464.00,0.0880
1463.00,0.0884
1462.00,0.0888
1461.00,0.0892
1460.00,0.0897
1459.00,0.0904
1458.00,0.0914
1457.00,0.0926
1456.00,0.0938
1455.00,0.0945
1454.00,0.0948
1453.00,0.0949
1452.00,0.0950
1451.00,0.0952
1450.00,0.0951
1449.00,0.0949
1448.00,0.0945
1447.00,0.0942
1446.00,0.0939
1445.00,0.0937
1444.00,0.0934
1443.00,0.0931
1442.00,0.0927
1441.00,0.0923
1440.00,0.0918
1439.00,0.0911
1438.00,0.0902
1437.00,0.0888
1436.00,0.0873
1435.00,0.0861
1434.00,0.0852
1433.00,0.0844
1432.00,0.0835
1431.00,0.0826
1430.00,0.0817
1429.00,0.0810
1428.00,0.0805
1427.00,0.0803
1426.00,0.0803
1425.00,0.0804
1424.00,0.0806
1423.00,0.0811
1422.00,0.0816
1421.00,0.0822
1420.00,0.0829
1419.00,0.0838
1418.00,0.0847
1417.00,0.0856
1416.00,0.0866
1415.00,0.0878
1414.00,0.0892
1413.00,0.0904
1412.00,0.0915
1411.00,0.0925
1410.00,0.0935
1409.00,0.0944
1408.00,0.0952
1407.00,0.0960
1406.00,0.0967
1405.00,0.0974
1404.00,0.0981
1403.00,0.0988
1402.00,0.0994
1401.00,0.0999
1400.00,0.1003
1399.00,0.1006
1398.00,0.1009
1397.00,0.1011
1396.00,0.1013
1395.00,0.1016
1394.00,0.1019
1393.00,0.1021
1392.00,0.1024
1391.00,0.1026
1390.00,0.1027
1389.00,0.1026
1388.00,0.1022
1387.00,0.1016
1386.00,0.1008
1385.00,0.0999
1384.00,0.0990
1383.00,0.0980
1382.00,0.0969
1381.00,0.0957
1380.00,0.0945
1379.00,0.0934
1378.00,0.0923
1377.00,0.0912
1376.00,0.0902
1375.00,0.0892
1374.00,0.0883
1373.00,0.0875
1372.00,0.0870
1371.00,0.0867
1370.00,0.0863
1369.00,0.0857
1368.00,0.0849
1367.00,0.0840
1366.00,0.0829
1365.00,0.0818
1364.00,0.0805
1363.00,0.0792
1362.00,0.0781
1361.00,0.0774
1360.00,0.0769
1359.00,0.0767
1358.00,0.0767
1357.00,0.0767
1356.00,0.0767
1355.00,0.0768
1354.00,0.0770
1353.00,0.0772
1352.00,0.0775
1351.00,0.0777
1350.00,0.0778
1349.00,0.0779
1348.00,0.0779
1347.00,0.0779
1346.00,0.0778
1345.00,0.0776
1344.00,0.0774
1343.00,0.0772
1342.00,0.0768
1341.00,0.0764
1340.00,0.0759
1339.00,0.0755
1338.00,0.0751
1337.00,0.0748
1336.00,0.0746
1335.00,0.0745
1334.00,0.0743
1333.00,0.0741
1332.00,0.0739
1331.00,0.0737
1330.00,0.0736
1329.00,0.0735
1328.00,0.0735
1327.00,0.0735
1326.00,0.0736
1325.00,0.0736
1324.00,0.0737
1323.00,0.0739
1322.00,0.0740
1321.00,0.0741
1320.00,0.0742
1319.00,0.0743
1318.00,0.0745
1317.00,0.0745
1316.00,0.0746
1315.00,0.0747
1314.00,0.0747
1313.00,0.0748
1312.00,0.0747
1311.00,0.0747
1310.00,0.0747
1309.00,0.0747
1308.00,0.0747
1307.00,0.0746
1306.00,0.0746
1305.00,0.0746
1304.00,0.0745
1303.00,0.0745
1302.00,0.0745
1301.00,0.0745
1300.00,0.0745
1299.00,0.0745
1298.00,0.0746
1297.00,0.0747
1296.00,0.0748
1295.00,0.0750
1294.00,0.0753
1293.00,0.0755
1292.00,0.0757
1291.00,0.0759
1290.00,0.0760
1289.00,0.0762
1288.00,0.0764
1287.00,0.0765
1286.00,0.0767
1285.00,0.0769
1284.00,0.0770
1283.00,0.0771
1282.00,0.0772
1281.00,0.0772
1280.00,0.0772
1279.00,0.0772
1278.00,0.0772
1277.00,0.0771
1276.00,0.0770
1275.00,0.0770
1274.00,0.0769
1273.00,0.0769
1272.00,0.0769
1271.00,0.0770
1270.00,0.0772
1269.00,0.0774
1268.00,0.0777
1267.00,0.0781
1266.00,0.0785
1265.00,0.0790
1264.00,0.0796
1263.00,0.0802
1262.00,0.0809
1261.00,0.0816
1260.00,0.0823
1259.00,0.0830
1258.00,0.0838
1257.00,0.0846
1256.00,0.0854
1255.00,0.0862
1254.00,0.0869
1253.00,0.0877
1252.00,0.0885
1251.00,0.0892
1250.00,0.0899
1249.00,0.0906
1248.00,0.0913
1247.00,0.0919
1246.00,0.0925
1245.00,0.0931
1244.00,0.0936
1243.00,0.0941
1242.00,0.0946
1241.00,0.0950
1240.00,0.0953
1239.00,0.0956
1238.00,0.0959
1237.00,0.0961
1236.00,0.0962
1235.00,0.0963
1234.00,0.0962
1233.00,0.0961
1232.00,0.0960
1231.00,0.0957
1230.00,0.0954
1229.00,0.0951
1228.00,0.0946
1227.00,0.0941
1226.00,0.0936
1225.00,0.0929
1224.00,0.0922
1223.00,0.0915
1222.00,0.0907
1221.00,0.0898
1220.00,0.0889
1219.00,0.0879
1218.00,0.0869
1217.00,0.0858
1216.00,0.0846
1215.00,0.0834
1214.00,0.0822
1213.00,0.0810
1212.00,0.0797
1211.00,0.0785
1210.00,0.0773
1209.00,0.0762
1208.00,0.0751
1207.00,0.0741
1206.00,0.0731
1205.00,0.0722
1204.00,0.0714
1203.00,0.0706
1202.00,0.0698
1201.00,0.0691
1200.00,0.0683
1199.00,0.0677
1198.00,0.0671
1197.00,0.0667
1196.00,0.0662
1195.00,0.0658
1194.00,0.0655
1193.00,0.0652
1192.00,0.0649
1191.00,0.0646
1190.00,0.0643
1189.00,0.0641
1188.00,0.0639
1187.00,0.0637
1186.00,0.0635
1185.00,0.0634
1184.00,0.0632
1183.00,0.0632
1182.00,0.0632
1181.00,0.0633
1180.00,0.0634
1179.00,0.0638
1178.00,0.0642
1177.00,0.0648
1176.00,0.0655
1175.00,0.0662
1174.00,0.0670
1173.00,0.0677
1172.00,0.0683
1171.00,0.0688
1170.00,0.0692
1169.00,0.0696
1168.00,0.0700
1167.00,0.0703
1166.00,0.0707
1165.00,0.0712
1164.00,0.0716
1163.00,0.0721
1162.00,0.0727
1161.00,0.0732
1160.00,0.0736
1159.00,0.0741
1158.00,0.0745
1157.00,0.0748
1156.00,0.0751
1155.00,0.0752
1154.00,0.0753
1153.00,0.0752
1152.00,0.0750
1151.00,0.0747
1150.00,0.0744
1149.00,0.0740
1148.00,0.0736
1147.00,0.0732
1146.00,0.0728
1145.00,0.0725
1144.00,0.0721
1143.00,0.0718
1142.00,0.0716
1141.00,0.0715
1140.00,0.0714
1139.00,0.0715
1138.00,0.0716
1137.00,0.0718
1136.00,0.0720
1135.00,0.0723
1134.00,0.0728
1133.00,0.0733
1132.00,0.0739
1131.00,0.0745
1130.00,0.0752
1129.00,0.0759
1128.00,0.0765
1127.00,0.0772
1126.00,0.0778
1125.00,0.0784
1124.00,0.0790
1123.00,0.0795
1122.00,0.0800
1121.00,0.0805
1120.00,0.0809
1119.00,0.0813
1118.00,0.0818
1117.00,0.0822
1116.00,0.0826
1115.00,0.0830
1114.00,0.0834
1113.00,0.0838
1112.00,0.0841
1111.00,0.0845
1110.00,0.0848
1109.00,0.0851
1108.00,0.0854
1107.00,0.0858
1106.00,0.0861
1105.00,0.0865
1104.00,0.0868
1103.00,0.0871
1102.00,0.0874
1101.00,0.0877
1100.00,0.0880
1099.00,0.0883
1098.00,0.0887
1097.00,0.0892
1096.00,0.0897
1095.00,0.0904
1094.00,0.0911
1093.00,0.0920
1092.00,0.0929
1091.00,0.0938
1090.00,0.0949
1089.00,0.0960
1088.00,0.0971
1087.00,0.0983
1086.00,0.0995
1085.00,0.1006
1084.00,0.1018
1083.00,0.1029
1082.00,0.1039
1081.00,0.1049
1080.00,0.1056
1079.00,0.1062
1078.00,0.1067
1077.00,0.1070
1076.00,0.1071
1075.00,0.1071
1074.00,0.1071
1073.00,0.1069
1072.00,0.1068
1071.00,0.1066
1070.00,0.1066
1069.00,0.1066
1068.00,0.1067
1067.00,0.1067
1066.00,0.1068
1065.00,0.1069
1064.00,0.1070
1063.00,0.1071
1062.00,0.1072
1061.00,0.1073
1060.00,0.1073
1059.00,0.1073
1058.00,0.1073
1057.00,0.1073
1056.00,0.1071
1055.00,0.1069
1054.00,0.1066
1053.00,0.1063
1052.00,0.1060
1051.00,0.1057
1050.00,0.1054
1049.00,0.1050
1048.00,0.1046
1047.00,0.1042
1046.00,0.1038
1045.00,0.1034
1044.00,0.1029
1043.00,0.1024
1042.00,0.1019
1041.00,0.1014
1040.00,0.1007
1039.00,0.1001
1038.00,0.0995
1037.00,0.0990
1036.00,0.0984
1035.00,0.0980
1034.00,0.0977
1033.00,0.0974
1032.00,0.0971
1031.00,0.0969
1030.00,0.0966
1029.00,0.0962
1028.00,0.0957
1027.00,0.0951
1026.00,0.0944
1025.00,0.0937
1024.00,0.0927
1023.00,0.0918
1022.00,0.0907
1021.00,0.0896
1020.00,0.0884
1019.00,0.0872
1018.00,0.0861
1017.00,0.0849
1016.00,0.0836
1015.00,0.0824
1014.00,0.0813
1013.00,0.0801
1012.00,0.0790
1011.00,0.0779
1010.00,0.0768
1009.00,0.0758
1008.00,0.0746
1007.00,0.0736
1006.00,0.0726
1005.00,0.0717
1004.00,0.0707
1003.00,0.0699
1002.00,0.0691
1001.00,0.0682
1000.00,0.0674
999.00,0.0666
998.00,0.0658
997.00,0.0650
996.00,0.0642
995.00,0.0634
994.00,0.0627
993.00,0.0620
992.00,0.0613
991.00,0.0607
990.00,0.0602
989.00,0.0598
988.00,0.0594
987.00,0.0591
986.00,0.0590
985.00,0.0590
984.00,0.0590
983.00,0.0591
982.00,0.0594
981.00,0.0598
980.00,0.0601
979.00,0.0605
978.00,0.0610
977.00,0.0615
976.00,0.0619
975.00,0.0622
974.00,0.0625
973.00,0.0626
972.00,0.0626
971.00,0.0625
970.00,0.0623
969.00,0.0620
968.00,0.0616
967.00,0.0612
966.00,0.0608
965.00,0.0604
964.00,0.0600
963.00,0.0596
962.00,0.0592
961.00,0.0589
960.00,0.0585
959.00,0.0582
958.00,0.0579
957.00,0.0576
956.00,0.0573
955.00,0.0571
954.00,0.0569
953.00,0.0567
952.00,0.0565
951.00,0.0564
950.00,0.0563
949.00,0.0562
948.00,0.0562
947.00,0.0561
946.00,0.0562
945.00,0.0563
944.00,0.0563
943.00,0.0564
942.00,0.0565
941.00,0.0566
940.00,0.0567
939.00,0.0567
938.00,0.0568
937.00,0.0569
936.00,0.0569
935.00,0.0569
934.00,0.0569
933.00,0.0569
932.00,0.0568
931.00,0.0566
930.00,0.0564
929.00,0.0562
928.00,0.0559
927.00,0.0555
926.00,0.0552
925.00,0.0549
924.00,0.0545
923.00,0.0541
922.00,0.0537
921.00,0.0533
920.00,0.0529
919.00,0.0525
918.00,0.0522
917.00,0.0519
916.00,0.0516
915.00,0.0513
914.00,0.0510
913.00,0.0508
912.00,0.0506
911.00,0.0504
910.00,0.0503
909.00,0.0503
908.00,0.0503
907.00,0.0503
906.00,0.0504
905.00,0.0504
904.00,0.0504
903.00,0.0504
902.00,0.0505
901.00,0.0505
900.00,0.0506
899.00,0.0506
898.00,0.0507
897.00,0.0509
896.00,0.0509
895.00,0.0510
894.00,0.0510
893.00,0.0510
892.00,0.0510
891.00,0.0510
890.00,0.0511
889.00,0.0512
888.00,0.0512
887.00,0.0512
886.00,0.0514
885.00,0.0515
884.00,0.0515
883.00,0.0516
882.00,0.0517
881.00,0.0518
880.00,0.0518
879.00,0.0518
878.00,0.0518
877.00,0.0518
876.00,0.0518
875.00,0.0518
874.00,0.0518
873.00,0.0518
872.00,0.0517
871.00,0.0516
870.00,0.0517
869.00,0.0517
868.00,0.0518
867.00,0.0519
866.00,0.0522
865.00,0.0524
864.00,0.0526
863.00,0.0529
862.00,0.0532
861.00,0.0535
860.00,0.0538
859.00,0.0542
858.00,0.0547
857.00,0.0551
856.00,0.0556
855.00,0.0561
854.00,0.0565
853.00,0.0570
852.00,0.0573
851.00,0.0577
850.00,0.0580
849.00,0.0582
848.00,0.0583
847.00,0.0584
846.00,0.0586
845.00,0.0588
844.00,0.0590
843.00,0.0593
842.00,0.0598
841.00,0.0603
840.00,0.0607
839.00,0.0612
838.00,0.0618
837.00,0.0624
836.00,0.0630
835.00,0.0636
834.00,0.0642
833.00,0.0649
832.00,0.0654
831.00,0.0659
830.00,0.0664
829.00,0.0667
828.00,0.0669
827.00,0.0671
826.00,0.0673
825.00,0.0674
824.00,0.0674
823.00,0.0673
822.00,0.0673
821.00,0.0674
820.00,0.0674
819.00,0.0676
818.00,0.0679
817.00,0.0681
816.00,0.0684
815.00,0.0687
814.00,0.0690
813.00,0.0694
812.00,0.0697
811.00,0.0701
810.00,0.0705
809.00,0.0709
808.00,0.0712
807.00,0.0716
806.00,0.0720
805.00,0.0724
804.00,0.0729
803.00,0.0735
802.00,0.0742
801.00,0.0748
800.00,0.0752
799.00,0.0756
798.00,0.0760
797.00,0.0765
796.00,0.0770
795.00,0.0775
794.00,0.0781
793.00,0.0788
792.00,0.0795
791.00,0.0804
790.00,0.0814
789.00,0.0824
788.00,0.0834
787.00,0.0844
786.00,0.0853
785.00,0.0861
784.00,0.0868
783.00,0.0874
782.00,0.0879
781.00,0.0883
780.00,0.0886
779.00,0.0889
778.00,0.0892
777.00,0.0896
776.00,0.0898
775.00,0.0900
774.00,0.0904
773.00,0.0907
772.00,0.0911
771.00,0.0915
770.00,0.0919
769.00,0.0923
768.00,0.0926
767.00,0.0929
766.00,0.0932
765.00,0.0935
764.00,0.0937
763.00,0.0939
762.00,0.0942
761.00,0.0946
760.00,0.0949
759.00,0.0952
758.00,0.0956
757.00,0.0960
756.00,0.0964
755.00,0.0969
754.00,0.0974
753.00,0.0980
752.00,0.0985
751.00,0.0991
750.00,0.0998
749.00,0.1005
748.00,0.1011
747.00,0.1016
746.00,0.1022
745.00,0.1026
744.00,0.1030
743.00,0.1034
742.00,0.1037
741.00,0.1041
740.00,0.1043
739.00,0.1046
738.00,0.1051
737.00,0.1055
736.00,0.1060
735.00,0.1065
734.00,0.1073
733.00,0.1080
732.00,0.1088
731.00,0.1097
730.00,0.1108
729.00,0.1119
728.00,0.1131
727.00,0.1144
726.00,0.1158
725.00,0.1174
724.00,0.1188
723.00,0.1203
722.00,0.1218
721.00,0.1231
720.00,0.1243
719.00,0.1254
718.00,0.1266
717.00,0.1277
716.00,0.1287
715.00,0.1297
714.00,0.1308
713.00,0.1318
712.00,0.1328
711.00,0.1337
710.00,0.1348
709.00,0.1359
708.00,0.1370
707.00,0.1382
706.00,0.1395
705.00,0.1408
704.00,0.1420
703.00,0.1431
702.00,0.1443
701.00,0.1453
700.00,0.1460
699.00,0.1466
698.00,0.1471
697.00,0.1473
696.00,0.1472
695.00,0.1470
694.00,0.1468
693.00,0.1465
692.00,0.1463
691.00,0.1461
690.00,0.1461
689.00,0.1462
688.00,0.1462
687.00,0.1464
686.00,0.1467
685.00,0.1469
684.00,0.1471
683.00,0.1472
682.00,0.1475
681.00,0.1477
680.00,0.1478
679.00,0.1479
678.00,0.1482
677.00,0.1484
676.00,0.1486
675.00,0.1487
674.00,0.1490
673.00,0.1493
672.00,0.1495
671.00,0.1497
670.00,0.1500
669.00,0.1502
668.00,0.1504
667.00,0.1508
666.00,0.1513
665.00,0.1518
664.00,0.1521
663.00,0.1525
662.00,0.1529
661.00,0.1532
660.00,0.1534
659.00,0.1536
658.00,0.1539
657.00,0.1542
656.00,0.1544
655.00,0.1546
654.00,0.1549
653.00,0.1552
652.00,0.1553
651.00,0.1555
650.00,0.1559
649.00,0.1563
648.00,0.1566
647.00,0.1569
646.00,0.1573
645.00,0.1577
644.00,0.1580
643.00,0.1583
642.00,0.1588
641.00,0.1592
640.00,0.1595
639.00,0.1596
638.00,0.1599
637.00,0.1601
636.00,0.1604
635.00,0.1607
634.00,0.1611
633.00,0.1615
632.00,0.1617
631.00,0.1619
630.00,0.1623
629.00,0.1628
628.00,0.1633
627.00,0.1638
626.00,0.1644
625.00,0.1649
624.00,0.1653
623.00,0.1657
622.00,0.1661
621.00,0.1665
620.00,0.1667
619.00,0.1669
618.00,0.1672
617.00,0.1674
616.00,0.1675
615.00,0.1676
614.00,0.1678
613.00,0.1679
612.00,0.1679
611.00,0.1678
610.00,0.1679
609.00,0.1680
608.00,0.1680
607.00,0.1680
606.00,0.1682
605.00,0.1682
604.00,0.1682
603.00,0.1681
602.00,0.1683
601.00,0.1684
600.00,0.1685
599.00,0.1686
598.00,0.1689
597.00,0.1691
596.00,0.1692
595.00,0.1694
594.00,0.1696
593.00,0.1699
592.00,0.1700
591.00,0.1701
590.00,0.1704
589.00,0.1707
588.00,0.1708
587.00,0.1710
586.00,0.1713
585.00,0.1718
584.00,0.1722
583.00,0.1727
582.00,0.1732
581.00,0.1736
580.00,0.1739
579.00,0.1743
578.00,0.1748
577.00,0.1752
576.00,0.1755
575.00,0.1759
574.00,0.1764
573.00,0.1767
572.00,0.1768
571.00,0.1769
570.00,0.1771
569.00,0.1774
568.00,0.1777
567.00,0.1781
566.00,0.1786
565.00,0.1791
564.00,0.1794
563.00,0.1798
562.00,0.1804
561.00,0.1810
560.00,0.1813
559.00,0.1817
558.00,0.1822
557.00,0.1827
556.00,0.1829
555.00,0.1832
554.00,0.1836
553.00,0.1841
552.00,0.1843
551.00,0.1846
550.00,0.1851
549.00,0.1856
548.00,0.1860
547.00,0.1865
546.00,0.1870
545.00,0.1874
544.00,0.1876
543.00,0.1880
542.00,0.1886
541.00,0.1892
540.00,0.1895
539.00,0.1898
538.00,0.1902
537.00,0.1905
536.00,0.1905
535.00,0.1907
534.00,0.1910
533.00,0.1914
532.00,0.1916
531.00,0.1918
530.00,0.1923
529.00,0.1927
528.00,0.1927
527.00,0.1926
526.00,0.1927
525.00,0.1928
524.00,0.1928
523.00,0.1929
522.00,0.1931
521.00,0.1933
520.00,0.1931
519.00,0.1930
518.00,0.1930
517.00,0.1931
516.00,0.1931
515.00,0.1931
514.00,0.1933
513.00,0.1933
512.00,0.1930
511.00,0.1926
510.00,0.1925
509.00,0.1924
508.00,0.1921
507.00,0.1920
506.00,0.1922
505.00,0.1923
504.00,0.1920
503.00,0.1917
502.00,0.1917
501.00,0.1919
500.00,0.1919
499.00,0.1919
498.00,0.1921
497.00,0.1923
496.00,0.1923
495.00,0.1924
494.00,0.1928
493.00,0.1929
492.00,0.1925
491.00,0.1922
490.00,0.1924
489.00,0.1926
488.00,0.1925
487.00,0.1923
486.00,0.1924
485.00,0.1923
484.00,0.1919
483.00,0.1916
482.00,0.1919
481.00,0.1923
480.00,0.1923
479.00,0.1923
478.00,0.1924
477.00,0.1924
476.00,0.1919
475.00,0.1916
474.00,0.1919
473.00,0.1921
472.00,0.1919
471.00,0.1916
470.00,0.1917
469.00,0.1919
468.00,0.1917
467.00,0.1914
466.00,0.1916
465.00,0.1918
464.00,0.1917
463.00,0.1917
462.00,0.1920
461.00,0.1920
460.00,0.1913
459.00,0.1904
458.00,0.1902
457.00,0.1904
456.00,0.1905
455.00,0.1905
454.00,0.1906
453.00,0.1901
452.00,0.1889
451.00,0.1879
450.00,0.1876
449.00,0.1873
448.00,0.1868
447.00,0.1865
446.00,0.1865
445.00,0.1860
444.00,0.1848
443.00,0.1838
442.00,0.1839
441.00,0.1842
440.00,0.1838
439.00,0.1830
438.00,0.1823
437.00,0.1814
436.00,0.1802
435.00,0.1797
434.00,0.1803
433.00,0.1808
432.00,0.1805
431.00,0.1802
430.00,0.1805
429.00,0.1805
428.00,0.1799
427.00,0.1792
426.00,0.1791
425.00,0.1789
424.00,0.1783
423.00,0.1782
422.00,0.1791
421.00,0.1797
420.00,0.1785
419.00,0.1768
418.00,0.1766
417.00,0.1772
416.00,0.1773
415.00,0.1776
414.00,0.1783
413.00,0.1783
412.00,0.1772
411.00,0.1763
410.00,0.1767
409.00,0.1773
408.00,0.1768
407.00,0.1763
406.00,0.1766
405.00,0.1763
404.00,0.1743
403.00,0.1723
402.00,0.1719
401.00,0.1720
400.00,0.1709
