Created as New Dataset,Sample 040 By YargerLab Date Tuesday, August 12 2025
cm-1,A
4000.00,0.0003
3999.00,0.0003
3998.00,0.0004
3997.00,0.0004
3996.00,0.0004
3995.00,0.0003
3994.00,0.0003
3993.00,0.0003
3992.00,0.0003
3991.00,0.0003
3990.00,0.0003
3989.00,0.0003
3988.00,0.0003
3987.00,0.0003
3986.00,0.0003
3985.00,0.0003
3984.00,0.0003
3983.00,0.0003
3982.00,0.0003
3981.00,0.0003
3980.00,0.0003
3979.00,0.0003
3978.00,0.0003
3977.00,0.0003
3976.00,0.0003
3975.00,0.0003
3974.00,0.0003
3973.00,0.0003
3972.00,0.0003
3971.00,0.0003
3970.00,0.0003
3969.00,0.0003
3968.00,0.0003
3967.00,0.0003
3966.00,0.0003
3965.00,0.0003
3964.00,0.0003
3963.00,0.0003
3962.00,0.0003
3961.00,0.0003
3960.00,0.0003
3959.00,0.0003
3958.00,0.0003
3957.00,0.0003
3956.00,0.0004
3955.00,0.0004
3954.00,0.0003
3953.00,0.0003
3952.00,0.0003
3951.00,0.0003
3950.00,0.0003
3949.00,0.0003
3948.00,0.0003
3947.00,0.0003
3946.00,0.0003
3945.00,0.0003
3944.00,0.0003
3943.00,0.0003
3942.00,0.0003
3941.00,0.0003
3940.00,0.0003
3939.00,0.0003
3938.00,0.0003
3937.00,0.0003
3936.00,0.0003
3935.00,0.0003
3934.00,0.0003
3933.00,0.0003
3932.00,0.0003
3931.00,0.0002
3930.00,0.0002
3929.00,0.0002
3928.00,0.0002
3927.00,0.0002
3926.00,0.0003
3925.00,0.0003
3924.00,0.0003
3923.00,0.0003
3922.00,0.0003
3921.00,0.0002
3920.00,0.0002
3919.00,0.0002
3918.00,0.0002
3917.00,0.0002
3916.00,0.0002
3915.00,0.0002
3914.00,0.0003
3913.00,0.0003
3912.00,0.0003
3911.00,0.0003
3910.00,0.0003
3909.00,0.0003
3908.00,0.0003
3907.00,0.0003
3906.00,0.0003
3905.00,0.0002
3904.00,0.0002
3903.00,0.0002
3902.00,0.0001
3901.00,0.0001
3900.00,0.0001
3899.00,0.0001
3898.00,0.0001
3897.00,0.0001
3896.00,0.0002
3895.00,0.0002
3894.00,0.0002
3893.00,0.0002
3892.00,0.0002
3891.00,0.0003
3890.00,0.0002
3889.00,0.0002
3888.00,0.0002
3887.00,0.0002
3886.00,0.0002
3885.00,0.0002
3884.00,0.0002
3883.00,0.0001
3882.00,0.0001
3881.00,0.0001
3880.00,0.0001
3879.00,0.0002
3878.00,0.0002
3877.00,0.0002
3876.00,0.0002
3875.00,0.0002
3874.00,0.0002
3873.00,0.0002
3872.00,0.0001
3871.00,0.0001
3870.00,0.0001
3869.00,0.0001
3868.00,0.0001
3867.00,0.0001
3866.00,0.0001
3865.00,0.0001
3864.00,0.0001
3863.00,0.0002
3862.00,0.0002
3861.00,0.0002
3860.00,0.0002
3859.00,0.0002
3858.00,0.0002
3857.00,0.0001
3856.00,0.0001
3855.00,0.0000
3854.00,0.0000
3853.00,-0.0000
3852.00,-0.0000
3851.00,-0.0001
3850.00,-0.0000
3849.00,0.0001
3848.00,0.0001
3847.00,0.0002
3846.00,0.0002
3845.00,0.0002
3844.00,0.0003
3843.00,0.0003
3842.00,0.0002
3841.00,0.0002
3840.00,0.0002
3839.00,0.0002
3838.00,0.0001
3837.00,0.0001
3836.00,0.0001
3835.00,0.0001
3834.00,0.0001
3833.00,0.0001
3832.00,0.0001
3831.00,0.0002
3830.00,0.0002
3829.00,0.0002
3828.00,0.0002
3827.00,0.0003
3826.00,0.0003
3825.00,0.0003
3824.00,0.0002
3823.00,0.0002
3822.00,0.0002
3821.00,0.0002
3820.00,0.0002
3819.00,0.0001
3818.00,0.0000
3817.00,0.0001
3816.00,0.0001
3815.00,0.0002
3814.00,0.0002
3813.00,0.0002
3812.00,0.0002
3811.00,0.0003
3810.00,0.0003
3809.00,0.0003
3808.00,0.0003
3807.00,0.0003
3806.00,0.0003
3805.00,0.0002
3804.00,0.0001
3803.00,0.0001
3802.00,0.0001
3801.00,0.0001
3800.00,0.0001
3799.00,0.0001
3798.00,0.0001
3797.00,0.0001
3796.00,0.0002
3795.00,0.0002
3794.00,0.0002
3793.00,0.0002
3792.00,0.0003
3791.00,0.0003
3790.00,0.0003
3789.00,0.0004
3788.00,0.0003
3787.00,0.0003
3786.00,0.0003
3785.00,0.0003
3784.00,0.0002
3783.00,0.0002
3782.00,0.0002
3781.00,0.0002
3780.00,0.0002
3779.00,0.0003
3778.00,0.0003
3777.00,0.0003
3776.00,0.0003
3775.00,0.0003
3774.00,0.0003
3773.00,0.0003
3772.00,0.0003
3771.00,0.0003
3770.00,0.0003
3769.00,0.0002
3768.00,0.0002
3767.00,0.0002
3766.00,0.0003
3765.00,0.0003
3764.00,0.0003
3763.00,0.0003
3762.00,0.0003
3761.00,0.0002
3760.00,0.0002
3759.00,0.0002
3758.00,0.0003
3757.00,0.0003
3756.00,0.0003
3755.00,0.0003
3754.00,0.0003
3753.00,0.0002
3752.00,0.0001
3751.00,0.0001
3750.00,-0.0000
3749.00,-0.0001
3748.00,-0.0001
3747.00,-0.0002
3746.00,-0.0002
3745.00,-0.0001
3744.00,-0.0000
3743.00,0.0000
3742.00,0.0000
3741.00,0.0000
3740.00,0.0000
3739.00,0.0001
3738.00,0.0001
3737.00,0.0001
3736.00,0.0001
3735.00,0.0000
3734.00,-0.0000
3733.00,-0.0001
3732.00,-0.0000
3731.00,0.0000
3730.00,0.0000
3729.00,0.0000
3728.00,0.0001
3727.00,0.0001
3726.00,0.0001
3725.00,0.0002
3724.00,0.0002
3723.00,0.0002
3722.00,0.0002
3721.00,0.0002
3720.00,0.0002
3719.00,0.0002
3718.00,0.0002
3717.00,0.0002
3716.00,0.0002
3715.00,0.0002
3714.00,0.0002
3713.00,0.0002
3712.00,0.0001
3711.00,0.0001
3710.00,0.0000
3709.00,0.0000
3708.00,0.0001
3707.00,0.0001
3706.00,0.0001
3705.00,0.0001
3704.00,0.0001
3703.00,0.0001
3702.00,0.0001
3701.00,0.0001
3700.00,0.0001
3699.00,0.0001
3698.00,0.0001
3697.00,0.0001
3696.00,0.0002
3695.00,0.0002
3694.00,0.0001
3693.00,0.0001
3692.00,0.0001
3691.00,0.0000
3690.00,0.0000
3689.00,-0.0000
3688.00,0.0000
3687.00,0.0000
3686.00,0.0001
3685.00,0.0001
3684.00,0.0002
3683.00,0.0002
3682.00,0.0002
3681.00,0.0002
3680.00,0.0002
3679.00,0.0001
3678.00,0.0000
3677.00,-0.0001
3676.00,-0.0001
3675.00,-0.0001
3674.00,-0.0001
3673.00,-0.0002
3672.00,-0.0002
3671.00,-0.0001
3670.00,-0.0001
3669.00,-0.0000
3668.00,0.0000
3667.00,0.0001
3666.00,0.0001
3665.00,0.0001
3664.00,0.0002
3663.00,0.0002
3662.00,0.0002
3661.00,0.0002
3660.00,0.0002
3659.00,0.0002
3658.00,0.0002
3657.00,0.0002
3656.00,0.0002
3655.00,0.0001
3654.00,0.0001
3653.00,0.0000
3652.00,0.0000
3651.00,0.0000
3650.00,0.0000
3649.00,-0.0000
3648.00,-0.0001
3647.00,-0.0001
3646.00,-0.0001
3645.00,-0.0000
3644.00,0.0000
3643.00,0.0001
3642.00,0.0001
3641.00,0.0001
3640.00,0.0001
3639.00,0.0002
3638.00,0.0002
3637.00,0.0002
3636.00,0.0002
3635.00,0.0001
3634.00,0.0001
3633.00,0.0001
3632.00,0.0001
3631.00,0.0000
3630.00,-0.0000
3629.00,-0.0000
3628.00,-0.0000
3627.00,-0.0001
3626.00,-0.0001
3625.00,-0.0001
3624.00,-0.0000
3623.00,0.0000
3622.00,0.0000
3621.00,-0.0000
3620.00,-0.0000
3619.00,-0.0000
3618.00,-0.0000
3617.00,-0.0000
3616.00,0.0000
3615.00,0.0000
3614.00,0.0000
3613.00,0.0000
3612.00,0.0000
3611.00,-0.0000
3610.00,-0.0000
3609.00,0.0000
3608.00,0.0000
3607.00,0.0000
3606.00,0.0000
3605.00,0.0000
3604.00,0.0000
3603.00,0.0000
3602.00,0.0001
3601.00,0.0001
3600.00,0.0001
3599.00,0.0001
3598.00,0.0001
3597.00,0.0000
3596.00,0.0000
3595.00,0.0001
3594.00,0.0001
3593.00,0.0001
3592.00,0.0001
3591.00,0.0001
3590.00,0.0000
3589.00,0.0000
3588.00,-0.0000
3587.00,-0.0000
3586.00,-0.0000
3585.00,-0.0000
3584.00,-0.0000
3583.00,0.0000
3582.00,0.0001
3581.00,0.0001
3580.00,0.0001
3579.00,0.0001
3578.00,0.0001
3577.00,0.0001
3576.00,0.0001
3575.00,0.0001
3574.00,0.0002
3573.00,0.0002
3572.00,0.0002
3571.00,0.0002
3570.00,0.0002
3569.00,0.0001
3568.00,0.0001
3567.00,0.0000
3566.00,0.0000
3565.00,0.0000
3564.00,0.0001
3563.00,0.0001
3562.00,0.0002
3561.00,0.0002
3560.00,0.0002
3559.00,0.0002
3558.00,0.0002
3557.00,0.0002
3556.00,0.0002
3555.00,0.0002
3554.00,0.0002
3553.00,0.0002
3552.00,0.0002
3551.00,0.0002
3550.00,0.0002
3549.00,0.0002
3548.00,0.0002
3547.00,0.0002
3546.00,0.0001
3545.00,0.0001
3544.00,0.0001
3543.00,0.0001
3542.00,0.0002
3541.00,0.0002
3540.00,0.0002
3539.00,0.0002
3538.00,0.0002
3537.00,0.0002
3536.00,0.0002
3535.00,0.0002
3534.00,0.0002
3533.00,0.0002
3532.00,0.0002
3531.00,0.0002
3530.00,0.0002
3529.00,0.0002
3528.00,0.0002
3527.00,0.0002
3526.00,0.0002
3525.00,0.0003
3524.00,0.0003
3523.00,0.0003
3522.00,0.0002
3521.00,0.0002
3520.00,0.0002
3519.00,0.0002
3518.00,0.0002
3517.00,0.0002
3516.00,0.0002
3515.00,0.0003
3514.00,0.0003
3513.00,0.0003
3512.00,0.0003
3511.00,0.0003
3510.00,0.0003
3509.00,0.0003
3508.00,0.0003
3507.00,0.0003
3506.00,0.0002
3505.00,0.0002
3504.00,0.0002
3503.00,0.0002
3502.00,0.0002
3501.00,0.0002
3500.00,0.0002
3499.00,0.0002
3498.00,0.0002
3497.00,0.0003
3496.00,0.0003
3495.00,0.0003
3494.00,0.0003
3493.00,0.0002
3492.00,0.0002
3491.00,0.0002
3490.00,0.0002
3489.00,0.0002
3488.00,0.0002
3487.00,0.0003
3486.00,0.0003
3485.00,0.0003
3484.00,0.0003
3483.00,0.0003
3482.00,0.0003
3481.00,0.0003
3480.00,0.0003
3479.00,0.0003
3478.00,0.0003
3477.00,0.0003
3476.00,0.0003
3475.00,0.0003
3474.00,0.0003
3473.00,0.0003
3472.00,0.0003
3471.00,0.0003
3470.00,0.0003
3469.00,0.0003
3468.00,0.0003
3467.00,0.0004
3466.00,0.0003
3465.00,0.0003
3464.00,0.0003
3463.00,0.0003
3462.00,0.0002
3461.00,0.0002
3460.00,0.0003
3459.00,0.0003
3458.00,0.0003
3457.00,0.0003
3456.00,0.0003
3455.00,0.0002
3454.00,0.0002
3453.00,0.0003
3452.00,0.0003
3451.00,0.0003
3450.00,0.0003
3449.00,0.0003
3448.00,0.0003
3447.00,0.0003
3446.00,0.0003
3445.00,0.0003
3444.00,0.0003
3443.00,0.0003
3442.00,0.0003
3441.00,0.0003
3440.00,0.0003
3439.00,0.0003
3438.00,0.0003
3437.00,0.0004
3436.00,0.0004
3435.00,0.0004
3434.00,0.0003
3433.00,0.0003
3432.00,0.0003
3431.00,0.0003
3430.00,0.0003
3429.00,0.0003
3428.00,0.0003
3427.00,0.0003
3426.00,0.0003
3425.00,0.0003
3424.00,0.0003
3423.00,0.0003
3422.00,0.0003
3421.00,0.0003
3420.00,0.0003
3419.00,0.0003
3418.00,0.0003
3417.00,0.0003
3416.00,0.0003
3415.00,0.0003
3414.00,0.0003
3413.00,0.0003
3412.00,0.0003
3411.00,0.0003
3410.00,0.0003
3409.00,0.0003
3408.00,0.0003
3407.00,0.0003
3406.00,0.0003
3405.00,0.0003
3404.00,0.0003
3403.00,0.0003
3402.00,0.0003
3401.00,0.0003
3400.00,0.0003
3399.00,0.0003
3398.00,0.0003
3397.00,0.0003
3396.00,0.0003
3395.00,0.0003
3394.00,0.0003
3393.00,0.0003
3392.00,0.0003
3391.00,0.0003
3390.00,0.0003
3389.00,0.0003
3388.00,0.0003
3387.00,0.0003
3386.00,0.0003
3385.00,0.0003
3384.00,0.0003
3383.00,0.0003
3382.00,0.0003
3381.00,0.0003
3380.00,0.0003
3379.00,0.0003
3378.00,0.0003
3377.00,0.0003
3376.00,0.0003
3375.00,0.0003
3374.00,0.0003
3373.00,0.0003
3372.00,0.0003
3371.00,0.0003
3370.00,0.0004
3369.00,0.0004
3368.00,0.0004
3367.00,0.0004
3366.00,0.0004
3365.00,0.0004
3364.00,0.0003
3363.00,0.0003
3362.00,0.0003
3361.00,0.0003
3360.00,0.0003
3359.00,0.0003
3358.00,0.0003
3357.00,0.0003
3356.00,0.0003
3355.00,0.0003
3354.00,0.0003
3353.00,0.0003
3352.00,0.0003
3351.00,0.0004
3350.00,0.0003
3349.00,0.0003
3348.00,0.0003
3347.00,0.0003
3346.00,0.0003
3345.00,0.0003
3344.00,0.0003
3343.00,0.0003
3342.00,0.0004
3341.00,0.0004
3340.00,0.0004
3339.00,0.0004
3338.00,0.0004
3337.00,0.0004
3336.00,0.0004
3335.00,0.0004
3334.00,0.0004
3333.00,0.0004
3332.00,0.0004
3331.00,0.0004
3330.00,0.0004
3329.00,0.0004
3328.00,0.0004
3327.00,0.0004
3326.00,0.0004
3325.00,0.0003
3324.00,0.0003
3323.00,0.0003
3322.00,0.0003
3321.00,0.0003
3320.00,0.0003
3319.00,0.0003
3318.00,0.0003
3317.00,0.0003
3316.00,0.0003
3315.00,0.0003
3314.00,0.0003
3313.00,0.0003
3312.00,0.0003
3311.00,0.0004
3310.00,0.0004
3309.00,0.0004
3308.00,0.0004
3307.00,0.0004
3306.00,0.0004
3305.00,0.0004
3304.00,0.0004
3303.00,0.0004
3302.00,0.0003
3301.00,0.0003
3300.00,0.0003
3299.00,0.0004
3298.00,0.0004
3297.00,0.0004
3296.00,0.0004
3295.00,0.0004
3294.00,0.0004
3293.00,0.0003
3292.00,0.0003
3291.00,0.0003
3290.00,0.0003
3289.00,0.0003
3288.00,0.0003
3287.00,0.0003
3286.00,0.0003
3285.00,0.0004
3284.00,0.0004
3283.00,0.0004
3282.00,0.0004
3281.00,0.0003
3280.00,0.0003
3279.00,0.0003
3278.00,0.0004
3277.00,0.0004
3276.00,0.0004
3275.00,0.0004
3274.00,0.0003
3273.00,0.0003
3272.00,0.0003
3271.00,0.0003
3270.00,0.0003
3269.00,0.0003
3268.00,0.0003
3267.00,0.0003
3266.00,0.0003
3265.00,0.0003
3264.00,0.0003
3263.00,0.0004
3262.00,0.0003
3261.00,0.0003
3260.00,0.0003
3259.00,0.0003
3258.00,0.0003
3257.00,0.0003
3256.00,0.0004
3255.00,0.0004
3254.00,0.0003
3253.00,0.0003
3252.00,0.0003
3251.00,0.0003
3250.00,0.0003
3249.00,0.0003
3248.00,0.0003
3247.00,0.0003
3246.00,0.0003
3245.00,0.0003
3244.00,0.0003
3243.00,0.0003
3242.00,0.0003
3241.00,0.0003
3240.00,0.0003
3239.00,0.0003
3238.00,0.0003
3237.00,0.0003
3236.00,0.0003
3235.00,0.0003
3234.00,0.0003
3233.00,0.0003
3232.00,0.0003
3231.00,0.0003
3230.00,0.0003
3229.00,0.0003
3228.00,0.0003
3227.00,0.0003
3226.00,0.0003
3225.00,0.0003
3224.00,0.0003
3223.00,0.0003
3222.00,0.0003
3221.00,0.0003
3220.00,0.0003
3219.00,0.0003
3218.00,0.0003
3217.00,0.0003
3216.00,0.0003
3215.00,0.0003
3214.00,0.0003
3213.00,0.0003
3212.00,0.0003
3211.00,0.0003
3210.00,0.0003
3209.00,0.0003
3208.00,0.0003
3207.00,0.0003
3206.00,0.0003
3205.00,0.0003
3204.00,0.0003
3203.00,0.0003
3202.00,0.0003
3201.00,0.0003
3200.00,0.0003
3199.00,0.0003
3198.00,0.0003
3197.00,0.0003
3196.00,0.0003
3195.00,0.0003
3194.00,0.0003
3193.00,0.0003
3192.00,0.0003
3191.00,0.0003
3190.00,0.0003
3189.00,0.0003
3188.00,0.0003
3187.00,0.0003
3186.00,0.0003
3185.00,0.0003
3184.00,0.0003
3183.00,0.0003
3182.00,0.0003
3181.00,0.0003
3180.00,0.0003
3179.00,0.0003
3178.00,0.0003
3177.00,0.0003
3176.00,0.0003
3175.00,0.0003
3174.00,0.0003
3173.00,0.0003
3172.00,0.0003
3171.00,0.0003
3170.00,0.0003
3169.00,0.0003
3168.00,0.0003
3167.00,0.0003
3166.00,0.0003
3165.00,0.0003
3164.00,0.0003
3163.00,0.0003
3162.00,0.0003
3161.00,0.0003
3160.00,0.0003
3159.00,0.0003
3158.00,0.0003
3157.00,0.0003
3156.00,0.0003
3155.00,0.0003
3154.00,0.0003
3153.00,0.0003
3152.00,0.0003
3151.00,0.0003
3150.00,0.0003
3149.00,0.0003
3148.00,0.0003
3147.00,0.0003
3146.00,0.0003
3145.00,0.0003
3144.00,0.0003
3143.00,0.0003
3142.00,0.0003
3141.00,0.0003
3140.00,0.0003
3139.00,0.0003
3138.00,0.0003
3137.00,0.0003
3136.00,0.0003
3135.00,0.0003
3134.00,0.0003
3133.00,0.0003
3132.00,0.0003
3131.00,0.0003
3130.00,0.0003
3129.00,0.0003
3128.00,0.0003
3127.00,0.0003
3126.00,0.0003
3125.00,0.0003
3124.00,0.0003
3123.00,0.0003
3122.00,0.0003
3121.00,0.0003
3120.00,0.0003
3119.00,0.0003
3118.00,0.0004
3117.00,0.0004
3116.00,0.0004
3115.00,0.0004
3114.00,0.0005
3113.00,0.0005
3112.00,0.0006
3111.00,0.0007
3110.00,0.0007
3109.00,0.0008
3108.00,0.0008
3107.00,0.0009
3106.00,0.0009
3105.00,0.0010
3104.00,0.0010
3103.00,0.0010
3102.00,0.0010
3101.00,0.0010
3100.00,0.0011
3099.00,0.0011
3098.00,0.0010
3097.00,0.0010
3096.00,0.0010
3095.00,0.0010
3094.00,0.0010
3093.00,0.0011
3092.00,0.0012
3091.00,0.0013
3090.00,0.0014
3089.00,0.0016
3088.00,0.0018
3087.00,0.0021
3086.00,0.0023
3085.00,0.0025
3084.00,0.0027
3083.00,0.0028
3082.00,0.0029
3081.00,0.0029
3080.00,0.0028
3079.00,0.0027
3078.00,0.0025
3077.00,0.0023
3076.00,0.0022
3075.00,0.0021
3074.00,0.0020
3073.00,0.0020
3072.00,0.0020
3071.00,0.0020
3070.00,0.0021
3069.00,0.0022
3068.00,0.0024
3067.00,0.0025
3066.00,0.0028
3065.00,0.0030
3064.00,0.0032
3063.00,0.0035
3062.00,0.0037
3061.00,0.0038
3060.00,0.0039
3059.00,0.0040
3058.00,0.0039
3057.00,0.0038
3056.00,0.0036
3055.00,0.0034
3054.00,0.0031
3053.00,0.0029
3052.00,0.0027
3051.00,0.0025
3050.00,0.0024
3049.00,0.0022
3048.00,0.0021
3047.00,0.0020
3046.00,0.0020
3045.00,0.0020
3044.00,0.0020
3043.00,0.0020
3042.00,0.0020
3041.00,0.0021
3040.00,0.0023
3039.00,0.0024
3038.00,0.0026
3037.00,0.0028
3036.00,0.0031
3035.00,0.0034
3034.00,0.0038
3033.00,0.0042
3032.00,0.0047
3031.00,0.0052
3030.00,0.0058
3029.00,0.0063
3028.00,0.0069
3027.00,0.0073
3026.00,0.0077
3025.00,0.0078
3024.00,0.0078
3023.00,0.0075
3022.00,0.0071
3021.00,0.0064
3020.00,0.0057
3019.00,0.0050
3018.00,0.0043
3017.00,0.0037
3016.00,0.0032
3015.00,0.0028
3014.00,0.0025
3013.00,0.0022
3012.00,0.0020
3011.00,0.0019
3010.00,0.0018
3009.00,0.0018
3008.00,0.0017
3007.00,0.0018
3006.00,0.0018
3005.00,0.0018
3004.00,0.0019
3003.00,0.0019
3002.00,0.0020
3001.00,0.0020
3000.00,0.0020
2999.00,0.0019
2998.00,0.0018
2997.00,0.0016
2996.00,0.0015
2995.00,0.0013
2994.00,0.0012
2993.00,0.0011
2992.00,0.0010
2991.00,0.0009
2990.00,0.0009
2989.00,0.0008
2988.00,0.0008
2987.00,0.0008
2986.00,0.0008
2985.00,0.0008
2984.00,0.0008
2983.00,0.0008
2982.00,0.0008
2981.00,0.0008
2980.00,0.0008
2979.00,0.0008
2978.00,0.0008
2977.00,0.0009
2976.00,0.0009
2975.00,0.0009
2974.00,0.0009
2973.00,0.0009
2972.00,0.0010
2971.00,0.0010
2970.00,0.0010
2969.00,0.0011
2968.00,0.0011
2967.00,0.0011
2966.00,0.0012
2965.00,0.0012
2964.00,0.0013
2963.00,0.0013
2962.00,0.0014
2961.00,0.0015
2960.00,0.0015
2959.00,0.0016
2958.00,0.0017
2957.00,0.0018
2956.00,0.0018
2955.00,0.0019
2954.00,0.0020
2953.00,0.0021
2952.00,0.0023
2951.00,0.0024
2950.00,0.0026
2949.00,0.0027
2948.00,0.0029
2947.00,0.0031
2946.00,0.0033
2945.00,0.0034
2944.00,0.0037
2943.00,0.0039
2942.00,0.0041
2941.00,0.0044
2940.00,0.0046
2939.00,0.0049
2938.00,0.0052
2937.00,0.0055
2936.00,0.0058
2935.00,0.0061
2934.00,0.0065
2933.00,0.0068
2932.00,0.0072
2931.00,0.0075
2930.00,0.0079
2929.00,0.0082
2928.00,0.0085
2927.00,0.0087
2926.00,0.0090
2925.00,0.0091
2924.00,0.0093
2923.00,0.0094
2922.00,0.0094
2921.00,0.0094
2920.00,0.0094
2919.00,0.0093
2918.00,0.0092
2917.00,0.0091
2916.00,0.0090
2915.00,0.0088
2914.00,0.0086
2913.00,0.0084
2912.00,0.0082
2911.00,0.0079
2910.00,0.0077
2909.00,0.0075
2908.00,0.0072
2907.00,0.0070
2906.00,0.0067
2905.00,0.0065
2904.00,0.0062
2903.00,0.0059
2902.00,0.0057
2901.00,0.0054
2900.00,0.0051
2899.00,0.0049
2898.00,0.0046
2897.00,0.0044
2896.00,0.0042
2895.00,0.0040
2894.00,0.0039
2893.00,0.0037
2892.00,0.0036
2891.00,0.0035
2890.00,0.0034
2889.00,0.0033
2888.00,0.0032
2887.00,0.0031
2886.00,0.0030
2885.00,0.0029
2884.00,0.0029
2883.00,0.0028
2882.00,0.0027
2881.00,0.0026
2880.00,0.0026
2879.00,0.0025
2878.00,0.0024
2877.00,0.0024
2876.00,0.0023
2875.00,0.0023
2874.00,0.0022
2873.00,0.0022
2872.00,0.0021
2871.00,0.0021
2870.00,0.0021
2869.00,0.0021
2868.00,0.0021
2867.00,0.0021
2866.00,0.0022
2865.00,0.0023
2864.00,0.0023
2863.00,0.0024
2862.00,0.0025
2861.00,0.0026
2860.00,0.0027
2859.00,0.0028
2858.00,0.0030
2857.00,0.0032
2856.00,0.0033
2855.00,0.0035
2854.00,0.0037
2853.00,0.0038
2852.00,0.0039
2851.00,0.0040
2850.00,0.0041
2849.00,0.0041
2848.00,0.0041
2847.00,0.0040
2846.00,0.0039
2845.00,0.0037
2844.00,0.0036
2843.00,0.0034
2842.00,0.0031
2841.00,0.0029
2840.00,0.0026
2839.00,0.0023
2838.00,0.0021
2837.00,0.0019
2836.00,0.0017
2835.00,0.0015
2834.00,0.0014
2833.00,0.0012
2832.00,0.0011
2831.00,0.0010
2830.00,0.0009
2829.00,0.0009
2828.00,0.0008
2827.00,0.0008
2826.00,0.0008
2825.00,0.0007
2824.00,0.0007
2823.00,0.0007
2822.00,0.0007
2821.00,0.0007
2820.00,0.0007
2819.00,0.0007
2818.00,0.0007
2817.00,0.0007
2816.00,0.0007
2815.00,0.0006
2814.00,0.0006
2813.00,0.0006
2812.00,0.0006
2811.00,0.0006
2810.00,0.0006
2809.00,0.0006
2808.00,0.0006
2807.00,0.0006
2806.00,0.0006
2805.00,0.0006
2804.00,0.0006
2803.00,0.0006
2802.00,0.0006
2801.00,0.0005
2800.00,0.0005
2799.00,0.0005
2798.00,0.0005
2797.00,0.0005
2796.00,0.0005
2795.00,0.0005
2794.00,0.0005
2793.00,0.0005
2792.00,0.0005
2791.00,0.0005
2790.00,0.0005
2789.00,0.0005
2788.00,0.0005
2787.00,0.0005
2786.00,0.0005
2785.00,0.0004
2784.00,0.0004
2783.00,0.0004
2782.00,0.0004
2781.00,0.0004
2780.00,0.0005
2779.00,0.0005
2778.00,0.0005
2777.00,0.0005
2776.00,0.0005
2775.00,0.0004
2774.00,0.0004
2773.00,0.0004
2772.00,0.0004
2771.00,0.0004
2770.00,0.0004
2769.00,0.0004
2768.00,0.0004
2767.00,0.0004
2766.00,0.0004
2765.00,0.0004
2764.00,0.0004
2763.00,0.0004
2762.00,0.0004
2761.00,0.0004
2760.00,0.0004
2759.00,0.0004
2758.00,0.0004
2757.00,0.0004
2756.00,0.0004
2755.00,0.0004
2754.00,0.0004
2753.00,0.0004
2752.00,0.0004
2751.00,0.0004
2750.00,0.0004
2749.00,0.0004
2748.00,0.0004
2747.00,0.0004
2746.00,0.0004
2745.00,0.0004
2744.00,0.0004
2743.00,0.0004
2742.00,0.0004
2741.00,0.0004
2740.00,0.0004
2739.00,0.0004
2738.00,0.0004
2737.00,0.0004
2736.00,0.0004
2735.00,0.0004
2734.00,0.0004
2733.00,0.0004
2732.00,0.0004
2731.00,0.0004
2730.00,0.0004
2729.00,0.0004
2728.00,0.0004
2727.00,0.0004
2726.00,0.0004
2725.00,0.0004
2724.00,0.0004
2723.00,0.0004
2722.00,0.0004
2721.00,0.0004
2720.00,0.0004
2719.00,0.0004
2718.00,0.0004
2717.00,0.0004
2716.00,0.0004
2715.00,0.0004
2714.00,0.0004
2713.00,0.0004
2712.00,0.0004
2711.00,0.0004
2710.00,0.0004
2709.00,0.0004
2708.00,0.0004
2707.00,0.0004
2706.00,0.0004
2705.00,0.0004
2704.00,0.0004
2703.00,0.0004
2702.00,0.0004
2701.00,0.0004
2700.00,0.0004
2699.00,0.0004
2698.00,0.0004
2697.00,0.0004
2696.00,0.0004
2695.00,0.0004
2694.00,0.0003
2693.00,0.0004
2692.00,0.0004
2691.00,0.0004
2690.00,0.0004
2689.00,0.0004
2688.00,0.0004
2687.00,0.0004
2686.00,0.0004
2685.00,0.0004
2684.00,0.0004
2683.00,0.0004
2682.00,0.0004
2681.00,0.0004
2680.00,0.0004
2679.00,0.0004
2678.00,0.0003
2677.00,0.0004
2676.00,0.0004
2675.00,0.0004
2674.00,0.0004
2673.00,0.0004
2672.00,0.0004
2671.00,0.0004
2670.00,0.0004
2669.00,0.0004
2668.00,0.0004
2667.00,0.0004
2666.00,0.0005
2665.00,0.0005
2664.00,0.0006
2663.00,0.0006
2662.00,0.0006
2661.00,0.0007
2660.00,0.0007
2659.00,0.0007
2658.00,0.0008
2657.00,0.0008
2656.00,0.0008
2655.00,0.0008
2654.00,0.0008
2653.00,0.0008
2652.00,0.0008
2651.00,0.0008
2650.00,0.0008
2649.00,0.0008
2648.00,0.0008
2647.00,0.0008
2646.00,0.0009
2645.00,0.0009
2644.00,0.0009
2643.00,0.0009
2642.00,0.0009
2641.00,0.0009
2640.00,0.0009
2639.00,0.0008
2638.00,0.0008
2637.00,0.0008
2636.00,0.0008
2635.00,0.0008
2634.00,0.0008
2633.00,0.0008
2632.00,0.0008
2631.00,0.0008
2630.00,0.0008
2629.00,0.0008
2628.00,0.0008
2627.00,0.0008
2626.00,0.0008
2625.00,0.0007
2624.00,0.0007
2623.00,0.0007
2622.00,0.0007
2621.00,0.0007
2620.00,0.0006
2619.00,0.0006
2618.00,0.0006
2617.00,0.0006
2616.00,0.0006
2615.00,0.0006
2614.00,0.0006
2613.00,0.0006
2612.00,0.0006
2611.00,0.0006
2610.00,0.0007
2609.00,0.0007
2608.00,0.0007
2607.00,0.0007
2606.00,0.0007
2605.00,0.0007
2604.00,0.0007
2603.00,0.0006
2602.00,0.0006
2601.00,0.0006
2600.00,0.0006
2599.00,0.0006
2598.00,0.0006
2597.00,0.0006
2596.00,0.0006
2595.00,0.0006
2594.00,0.0005
2593.00,0.0005
2592.00,0.0005
2591.00,0.0005
2590.00,0.0005
2589.00,0.0005
2588.00,0.0005
2587.00,0.0004
2586.00,0.0004
2585.00,0.0004
2584.00,0.0004
2583.00,0.0005
2582.00,0.0005
2581.00,0.0005
2580.00,0.0005
2579.00,0.0005
2578.00,0.0005
2577.00,0.0005
2576.00,0.0004
2575.00,0.0004
2574.00,0.0003
2573.00,0.0003
2572.00,0.0004
2571.00,0.0004
2570.00,0.0004
2569.00,0.0004
2568.00,0.0004
2567.00,0.0004
2566.00,0.0004
2565.00,0.0003
2564.00,0.0003
2563.00,0.0003
2562.00,0.0004
2561.00,0.0003
2560.00,0.0003
2559.00,0.0003
2558.00,0.0003
2557.00,0.0003
2556.00,0.0004
2555.00,0.0004
2554.00,0.0004
2553.00,0.0004
2552.00,0.0003
2551.00,0.0003
2550.00,0.0003
2549.00,0.0003
2548.00,0.0003
2547.00,0.0003
2546.00,0.0003
2545.00,0.0003
2544.00,0.0003
2543.00,0.0004
2542.00,0.0004
2541.00,0.0004
2540.00,0.0004
2539.00,0.0003
2538.00,0.0003
2537.00,0.0003
2536.00,0.0003
2535.00,0.0003
2534.00,0.0003
2533.00,0.0002
2532.00,0.0002
2531.00,0.0002
2530.00,0.0002
2529.00,0.0002
2528.00,0.0002
2527.00,0.0002
2526.00,0.0002
2525.00,0.0002
2524.00,0.0002
2523.00,0.0002
2522.00,0.0002
2521.00,0.0002
2520.00,0.0002
2519.00,0.0002
2518.00,0.0002
2517.00,0.0003
2516.00,0.0003
2515.00,0.0003
2514.00,0.0003
2513.00,0.0003
2512.00,0.0002
2511.00,0.0002
2510.00,0.0002
2509.00,0.0002
2508.00,0.0002
2507.00,0.0002
2506.00,0.0002
2505.00,0.0002
2504.00,0.0002
2503.00,0.0002
2502.00,0.0002
2501.00,0.0002
2500.00,0.0002
2499.00,0.0002
2498.00,0.0002
2497.00,0.0002
2496.00,0.0003
2495.00,0.0003
2494.00,0.0003
2493.00,0.0002
2492.00,0.0002
2491.00,0.0001
2490.00,0.0001
2489.00,0.0001
2488.00,0.0001
2487.00,0.0001
2486.00,0.0001
2485.00,0.0001
2484.00,0.0001
2483.00,0.0002
2482.00,0.0001
2481.00,0.0001
2480.00,0.0001
2479.00,0.0001
2478.00,0.0001
2477.00,0.0001
2476.00,0.0001
2475.00,0.0001
2474.00,0.0001
2473.00,0.0001
2472.00,0.0001
2471.00,0.0002
2470.00,0.0001
2469.00,0.0001
2468.00,0.0001
2467.00,0.0002
2466.00,0.0002
2465.00,0.0002
2464.00,0.0002
2463.00,0.0002
2462.00,0.0002
2461.00,0.0002
2460.00,0.0002
2459.00,0.0003
2458.00,0.0003
2457.00,0.0003
2456.00,0.0003
2455.00,0.0003
2454.00,0.0003
2453.00,0.0003
2452.00,0.0002
2451.00,0.0002
2450.00,0.0002
2449.00,0.0001
2448.00,0.0002
2447.00,0.0002
2446.00,0.0002
2445.00,0.0003
2444.00,0.0003
2443.00,0.0002
2442.00,0.0002
2441.00,0.0002
2440.00,0.0001
2439.00,0.0001
2438.00,0.0001
2437.00,0.0001
2436.00,0.0000
2435.00,0.0000
2434.00,0.0000
2433.00,-0.0000
2432.00,-0.0000
2431.00,-0.0000
2430.00,-0.0000
2429.00,-0.0000
2428.00,-0.0000
2427.00,-0.0000
2426.00,-0.0000
2425.00,-0.0000
2424.00,-0.0000
2423.00,-0.0001
2422.00,-0.0001
2421.00,-0.0001
2420.00,-0.0001
2419.00,-0.0001
2418.00,-0.0001
2417.00,-0.0000
2416.00,-0.0000
2415.00,-0.0000
2414.00,0.0000
2413.00,0.0000
2412.00,0.0001
2411.00,0.0001
2410.00,0.0000
2409.00,-0.0001
2408.00,-0.0001
2407.00,-0.0002
2406.00,-0.0002
2405.00,-0.0002
2404.00,-0.0002
2403.00,-0.0002
2402.00,-0.0002
2401.00,-0.0002
2400.00,-0.0002
2399.00,-0.0002
2398.00,-0.0002
2397.00,-0.0001
2396.00,-0.0001
2395.00,-0.0001
2394.00,-0.0001
2393.00,-0.0001
2392.00,-0.0002
2391.00,-0.0002
2390.00,-0.0002
2389.00,-0.0002
2388.00,-0.0002
2387.00,-0.0003
2386.00,-0.0003
2385.00,-0.0003
2384.00,-0.0004
2383.00,-0.0005
2382.00,-0.0005
2381.00,-0.0005
2380.00,-0.0005
2379.00,-0.0005
2378.00,-0.0005
2377.00,-0.0005
2376.00,-0.0005
2375.00,-0.0006
2374.00,-0.0006
2373.00,-0.0007
2372.00,-0.0007
2371.00,-0.0007
2370.00,-0.0007
2369.00,-0.0007
2368.00,-0.0007
2367.00,-0.0007
2366.00,-0.0007
2365.00,-0.0007
2364.00,-0.0006
2363.00,-0.0006
2362.00,-0.0006
2361.00,-0.0006
2360.00,-0.0006
2359.00,-0.0006
2358.00,-0.0006
2357.00,-0.0006
2356.00,-0.0006
2355.00,-0.0006
2354.00,-0.0007
2353.00,-0.0007
2352.00,-0.0006
2351.00,-0.0006
2350.00,-0.0005
2349.00,-0.0004
2348.00,-0.0004
2347.00,-0.0003
2346.00,-0.0003
2345.00,-0.0003
2344.00,-0.0003
2343.00,-0.0003
2342.00,-0.0003
2341.00,-0.0002
2340.00,-0.0002
2339.00,-0.0002
2338.00,-0.0002
2337.00,-0.0001
2336.00,-0.0001
2335.00,-0.0001
2334.00,-0.0001
2333.00,-0.0002
2332.00,-0.0002
2331.00,-0.0002
2330.00,-0.0002
2329.00,-0.0001
2328.00,0.0002
2327.00,0.0005
2326.00,0.0008
2325.00,0.0010
2324.00,0.0009
2323.00,0.0008
2322.00,0.0006
2321.00,0.0005
2320.00,0.0004
2319.00,0.0004
2318.00,0.0004
2317.00,0.0003
2316.00,0.0003
2315.00,0.0002
2314.00,0.0002
2313.00,0.0001
2312.00,0.0001
2311.00,0.0001
2310.00,0.0001
2309.00,0.0001
2308.00,0.0002
2307.00,0.0002
2306.00,0.0003
2305.00,0.0003
2304.00,0.0003
2303.00,0.0003
2302.00,0.0003
2301.00,0.0004
2300.00,0.0004
2299.00,0.0004
2298.00,0.0004
2297.00,0.0005
2296.00,0.0005
2295.00,0.0006
2294.00,0.0006
2293.00,0.0007
2292.00,0.0008
2291.00,0.0009
2290.00,0.0009
2289.00,0.0010
2288.00,0.0011
2287.00,0.0011
2286.00,0.0011
2285.00,0.0011
2284.00,0.0010
2283.00,0.0010
2282.00,0.0010
2281.00,0.0009
2280.00,0.0009
2279.00,0.0008
2278.00,0.0008
2277.00,0.0008
2276.00,0.0008
2275.00,0.0008
2274.00,0.0007
2273.00,0.0007
2272.00,0.0007
2271.00,0.0007
2270.00,0.0006
2269.00,0.0005
2268.00,0.0004
2267.00,0.0004
2266.00,0.0003
2265.00,0.0003
2264.00,0.0003
2263.00,0.0004
2262.00,0.0004
2261.00,0.0004
2260.00,0.0004
2259.00,0.0004
2258.00,0.0004
2257.00,0.0003
2256.00,0.0003
2255.00,0.0003
2254.00,0.0003
2253.00,0.0003
2252.00,0.0004
2251.00,0.0004
2250.00,0.0004
2249.00,0.0003
2248.00,0.0003
2247.00,0.0002
2246.00,0.0002
2245.00,0.0002
2244.00,0.0003
2243.00,0.0003
2242.00,0.0003
2241.00,0.0003
2240.00,0.0002
2239.00,0.0002
2238.00,0.0002
2237.00,0.0002
2236.00,0.0002
2235.00,0.0002
2234.00,0.0002
2233.00,0.0001
2232.00,0.0001
2231.00,0.0002
2230.00,0.0003
2229.00,0.0003
2228.00,0.0003
2227.00,0.0002
2226.00,0.0002
2225.00,0.0002
2224.00,0.0002
2223.00,0.0003
2222.00,0.0003
2221.00,0.0003
2220.00,0.0002
2219.00,0.0001
2218.00,0.0001
2217.00,0.0000
2216.00,0.0000
2215.00,0.0001
2214.00,0.0002
2213.00,0.0002
2212.00,0.0001
2211.00,0.0001
2210.00,0.0001
2209.00,0.0001
2208.00,0.0002
2207.00,0.0003
2206.00,0.0003
2205.00,0.0003
2204.00,0.0003
2203.00,0.0004
2202.00,0.0004
2201.00,0.0004
2200.00,0.0004
2199.00,0.0004
2198.00,0.0003
2197.00,0.0003
2196.00,0.0004
2195.00,0.0005
2194.00,0.0005
2193.00,0.0005
2192.00,0.0005
2191.00,0.0004
2190.00,0.0004
2189.00,0.0004
2188.00,0.0005
2187.00,0.0004
2186.00,0.0003
2185.00,0.0001
2184.00,-0.0002
2183.00,-0.0003
2182.00,-0.0004
2181.00,-0.0003
2180.00,-0.0002
2179.00,-0.0002
2178.00,-0.0002
2177.00,-0.0004
2176.00,-0.0005
2175.00,-0.0006
2174.00,-0.0006
2173.00,-0.0004
2172.00,-0.0001
2171.00,0.0002
2170.00,0.0005
2169.00,0.0007
2168.00,0.0009
2167.00,0.0011
2166.00,0.0012
2165.00,0.0012
2164.00,0.0012
2163.00,0.0010
2162.00,0.0006
2161.00,-0.0001
2160.00,-0.0010
2159.00,-0.0019
2158.00,-0.0025
2157.00,-0.0027
2156.00,-0.0024
2155.00,-0.0020
2154.00,-0.0017
2153.00,-0.0015
2152.00,-0.0014
2151.00,-0.0014
2150.00,-0.0015
2149.00,-0.0015
2148.00,-0.0015
2147.00,-0.0014
2146.00,-0.0014
2145.00,-0.0014
2144.00,-0.0015
2143.00,-0.0015
2142.00,-0.0015
2141.00,-0.0015
2140.00,-0.0015
2139.00,-0.0015
2138.00,-0.0015
2137.00,-0.0016
2136.00,-0.0017
2135.00,-0.0018
2134.00,-0.0018
2133.00,-0.0018
2132.00,-0.0017
2131.00,-0.0015
2130.00,-0.0014
2129.00,-0.0012
2128.00,-0.0011
2127.00,-0.0010
2126.00,-0.0009
2125.00,-0.0008
2124.00,-0.0007
2123.00,-0.0006
2122.00,-0.0006
2121.00,-0.0005
2120.00,-0.0005
2119.00,-0.0005
2118.00,-0.0004
2117.00,-0.0003
2116.00,-0.0002
2115.00,-0.0001
2114.00,-0.0001
2113.00,-0.0001
2112.00,-0.0000
2111.00,0.0000
2110.00,0.0001
2109.00,0.0001
2108.00,0.0001
2107.00,0.0000
2106.00,-0.0001
2105.00,-0.0002
2104.00,-0.0002
2103.00,-0.0002
2102.00,-0.0002
2101.00,-0.0002
2100.00,-0.0002
2099.00,-0.0002
2098.00,-0.0002
2097.00,-0.0003
2096.00,-0.0003
2095.00,-0.0004
2094.00,-0.0004
2093.00,-0.0003
2092.00,-0.0002
2091.00,-0.0001
2090.00,-0.0000
2089.00,0.0000
2088.00,0.0000
2087.00,0.0000
2086.00,0.0000
2085.00,-0.0000
2084.00,-0.0000
2083.00,-0.0000
2082.00,0.0000
2081.00,0.0000
2080.00,0.0001
2079.00,0.0001
2078.00,0.0002
2077.00,0.0002
2076.00,0.0002
2075.00,0.0002
2074.00,0.0001
2073.00,0.0001
2072.00,0.0001
2071.00,0.0000
2070.00,-0.0000
2069.00,-0.0001
2068.00,-0.0002
2067.00,-0.0003
2066.00,-0.0004
2065.00,-0.0003
2064.00,-0.0003
2063.00,-0.0002
2062.00,-0.0001
2061.00,-0.0001
2060.00,-0.0000
2059.00,0.0001
2058.00,0.0001
2057.00,0.0002
2056.00,0.0002
2055.00,0.0003
2054.00,0.0004
2053.00,0.0007
2052.00,0.0010
2051.00,0.0010
2050.00,0.0008
2049.00,0.0005
2048.00,0.0002
2047.00,0.0000
2046.00,0.0000
2045.00,0.0001
2044.00,0.0001
2043.00,0.0001
2042.00,0.0001
2041.00,0.0001
2040.00,0.0002
2039.00,0.0002
2038.00,0.0002
2037.00,0.0002
2036.00,0.0001
2035.00,0.0001
2034.00,0.0001
2033.00,-0.0000
2032.00,-0.0002
2031.00,-0.0003
2030.00,-0.0004
2029.00,-0.0004
2028.00,-0.0004
2027.00,-0.0004
2026.00,-0.0005
2025.00,-0.0005
2024.00,-0.0005
2023.00,-0.0004
2022.00,-0.0004
2021.00,-0.0004
2020.00,-0.0004
2019.00,-0.0004
2018.00,-0.0005
2017.00,-0.0006
2016.00,-0.0006
2015.00,-0.0006
2014.00,-0.0005
2013.00,-0.0005
2012.00,-0.0004
2011.00,-0.0004
2010.00,-0.0004
2009.00,-0.0006
2008.00,-0.0008
2007.00,-0.0010
2006.00,-0.0011
2005.00,-0.0011
2004.00,-0.0009
2003.00,-0.0007
2002.00,-0.0005
2001.00,-0.0004
2000.00,-0.0003
1999.00,-0.0002
1998.00,-0.0002
1997.00,-0.0002
1996.00,-0.0001
1995.00,-0.0001
1994.00,-0.0001
1993.00,-0.0001
1992.00,-0.0002
1991.00,-0.0001
1990.00,-0.0000
1989.00,0.0000
1988.00,0.0001
1987.00,0.0002
1986.00,0.0003
1985.00,0.0004
1984.00,0.0006
1983.00,0.0009
1982.00,0.0012
1981.00,0.0013
1980.00,0.0011
1979.00,0.0006
1978.00,-0.0001
1977.00,-0.0005
1976.00,-0.0007
1975.00,-0.0007
1974.00,-0.0006
1973.00,-0.0006
1972.00,-0.0007
1971.00,-0.0007
1970.00,-0.0007
1969.00,-0.0008
1968.00,-0.0008
1967.00,-0.0008
1966.00,-0.0008
1965.00,-0.0008
1964.00,-0.0007
1963.00,-0.0005
1962.00,-0.0005
1961.00,-0.0006
1960.00,-0.0007
1959.00,-0.0007
1958.00,-0.0006
1957.00,-0.0005
1956.00,-0.0004
1955.00,-0.0002
1954.00,-0.0001
1953.00,0.0001
1952.00,0.0002
1951.00,0.0003
1950.00,0.0003
1949.00,0.0002
1948.00,0.0002
1947.00,0.0003
1946.00,0.0003
1945.00,0.0004
1944.00,0.0004
1943.00,0.0004
1942.00,0.0004
1941.00,0.0004
1940.00,0.0004
1939.00,0.0004
1938.00,0.0004
1937.00,0.0003
1936.00,0.0002
1935.00,0.0001
1934.00,-0.0000
1933.00,-0.0001
1932.00,-0.0002
1931.00,-0.0002
1930.00,-0.0003
1929.00,-0.0003
1928.00,-0.0003
1927.00,-0.0003
1926.00,-0.0003
1925.00,-0.0004
1924.00,-0.0004
1923.00,-0.0003
1922.00,-0.0002
1921.00,-0.0002
1920.00,-0.0002
1919.00,-0.0002
1918.00,-0.0002
1917.00,-0.0003
1916.00,-0.0004
1915.00,-0.0004
1914.00,-0.0004
1913.00,-0.0004
1912.00,-0.0004
1911.00,-0.0003
1910.00,-0.0003
1909.00,-0.0003
1908.00,-0.0004
1907.00,-0.0004
1906.00,-0.0003
1905.00,-0.0003
1904.00,-0.0002
1903.00,-0.0002
1902.00,-0.0002
1901.00,-0.0002
1900.00,-0.0003
1899.00,-0.0003
1898.00,-0.0002
1897.00,-0.0002
1896.00,-0.0001
1895.00,-0.0001
1894.00,-0.0001
1893.00,-0.0001
1892.00,-0.0000
1891.00,0.0001
1890.00,0.0001
1889.00,0.0002
1888.00,0.0002
1887.00,0.0002
1886.00,0.0002
1885.00,0.0002
1884.00,0.0003
1883.00,0.0003
1882.00,0.0003
1881.00,0.0004
1880.00,0.0004
1879.00,0.0005
1878.00,0.0006
1877.00,0.0006
1876.00,0.0006
1875.00,0.0006
1874.00,0.0006
1873.00,0.0006
1872.00,0.0006
1871.00,0.0007
1870.00,0.0007
1869.00,0.0007
1868.00,0.0007
1867.00,0.0006
1866.00,0.0006
1865.00,0.0005
1864.00,0.0005
1863.00,0.0004
1862.00,0.0004
1861.00,0.0003
1860.00,0.0003
1859.00,0.0002
1858.00,0.0002
1857.00,0.0001
1856.00,0.0000
1855.00,0.0000
1854.00,-0.0000
1853.00,-0.0001
1852.00,-0.0001
1851.00,-0.0002
1850.00,-0.0002
1849.00,-0.0002
1848.00,-0.0002
1847.00,-0.0002
1846.00,-0.0003
1845.00,-0.0003
1844.00,-0.0002
1843.00,-0.0002
1842.00,-0.0002
1841.00,-0.0002
1840.00,-0.0002
1839.00,-0.0002
1838.00,-0.0002
1837.00,-0.0001
1836.00,-0.0001
1835.00,-0.0001
1834.00,-0.0001
1833.00,-0.0001
1832.00,-0.0001
1831.00,-0.0000
1830.00,-0.0000
1829.00,0.0000
1828.00,0.0000
1827.00,0.0001
1826.00,0.0001
1825.00,0.0002
1824.00,0.0002
1823.00,0.0002
1822.00,0.0003
1821.00,0.0003
1820.00,0.0003
1819.00,0.0002
1818.00,0.0002
1817.00,0.0002
1816.00,0.0003
1815.00,0.0004
1814.00,0.0004
1813.00,0.0005
1812.00,0.0006
1811.00,0.0006
1810.00,0.0007
1809.00,0.0007
1808.00,0.0008
1807.00,0.0008
1806.00,0.0009
1805.00,0.0009
1804.00,0.0010
1803.00,0.0010
1802.00,0.0010
1801.00,0.0010
1800.00,0.0010
1799.00,0.0010
1798.00,0.0009
1797.00,0.0009
1796.00,0.0008
1795.00,0.0007
1794.00,0.0007
1793.00,0.0006
1792.00,0.0006
1791.00,0.0005
1790.00,0.0004
1789.00,0.0004
1788.00,0.0003
1787.00,0.0003
1786.00,0.0003
1785.00,0.0003
1784.00,0.0003
1783.00,0.0003
1782.00,0.0003
1781.00,0.0003
1780.00,0.0003
1779.00,0.0003
1778.00,0.0003
1777.00,0.0003
1776.00,0.0003
1775.00,0.0003
1774.00,0.0003
1773.00,0.0003
1772.00,0.0003
1771.00,0.0003
1770.00,0.0003
1769.00,0.0003
1768.00,0.0003
1767.00,0.0004
1766.00,0.0004
1765.00,0.0004
1764.00,0.0004
1763.00,0.0005
1762.00,0.0006
1761.00,0.0006
1760.00,0.0006
1759.00,0.0006
1758.00,0.0007
1757.00,0.0007
1756.00,0.0008
1755.00,0.0008
1754.00,0.0009
1753.00,0.0009
1752.00,0.0010
1751.00,0.0011
1750.00,0.0011
1749.00,0.0011
1748.00,0.0011
1747.00,0.0011
1746.00,0.0012
1745.00,0.0013
1744.00,0.0013
1743.00,0.0013
1742.00,0.0013
1741.00,0.0013
1740.00,0.0013
1739.00,0.0013
1738.00,0.0013
1737.00,0.0013
1736.00,0.0012
1735.00,0.0012
1734.00,0.0012
1733.00,0.0011
1732.00,0.0010
1731.00,0.0009
1730.00,0.0009
1729.00,0.0009
1728.00,0.0009
1727.00,0.0009
1726.00,0.0009
1725.00,0.0009
1724.00,0.0008
1723.00,0.0008
1722.00,0.0008
1721.00,0.0008
1720.00,0.0008
1719.00,0.0008
1718.00,0.0008
1717.00,0.0008
1716.00,0.0007
1715.00,0.0007
1714.00,0.0007
1713.00,0.0007
1712.00,0.0007
1711.00,0.0007
1710.00,0.0007
1709.00,0.0007
1708.00,0.0007
1707.00,0.0007
1706.00,0.0007
1705.00,0.0007
1704.00,0.0007
1703.00,0.0007
1702.00,0.0007
1701.00,0.0008
1700.00,0.0007
1699.00,0.0007
1698.00,0.0006
1697.00,0.0006
1696.00,0.0006
1695.00,0.0006
1694.00,0.0006
1693.00,0.0006
1692.00,0.0006
1691.00,0.0006
1690.00,0.0007
1689.00,0.0007
1688.00,0.0007
1687.00,0.0007
1686.00,0.0007
1685.00,0.0007
1684.00,0.0008
1683.00,0.0008
1682.00,0.0008
1681.00,0.0008
1680.00,0.0008
1679.00,0.0009
1678.00,0.0009
1677.00,0.0009
1676.00,0.0009
1675.00,0.0010
1674.00,0.0010
1673.00,0.0010
1672.00,0.0010
1671.00,0.0010
1670.00,0.0010
1669.00,0.0010
1668.00,0.0010
1667.00,0.0010
1666.00,0.0010
1665.00,0.0010
1664.00,0.0011
1663.00,0.0011
1662.00,0.0010
1661.00,0.0010
1660.00,0.0010
1659.00,0.0009
1658.00,0.0010
1657.00,0.0010
1656.00,0.0009
1655.00,0.0009
1654.00,0.0009
1653.00,0.0009
1652.00,0.0008
1651.00,0.0008
1650.00,0.0007
1649.00,0.0007
1648.00,0.0007
1647.00,0.0006
1646.00,0.0006
1645.00,0.0006
1644.00,0.0006
1643.00,0.0005
1642.00,0.0005
1641.00,0.0005
1640.00,0.0006
1639.00,0.0006
1638.00,0.0006
1637.00,0.0005
1636.00,0.0005
1635.00,0.0005
1634.00,0.0005
1633.00,0.0005
1632.00,0.0005
1631.00,0.0006
1630.00,0.0006
1629.00,0.0007
1628.00,0.0007
1627.00,0.0007
1626.00,0.0007
1625.00,0.0008
1624.00,0.0008
1623.00,0.0009
1622.00,0.0009
1621.00,0.0009
1620.00,0.0010
1619.00,0.0010
1618.00,0.0010
1617.00,0.0011
1616.00,0.0011
1615.00,0.0012
1614.00,0.0013
1613.00,0.0014
1612.00,0.0016
1611.00,0.0019
1610.00,0.0022
1609.00,0.0026
1608.00,0.0032
1607.00,0.0040
1606.00,0.0049
1605.00,0.0059
1604.00,0.0070
1603.00,0.0080
1602.00,0.0087
1601.00,0.0090
1600.00,0.0089
1599.00,0.0083
1598.00,0.0074
1597.00,0.0064
1596.00,0.0054
1595.00,0.0046
1594.00,0.0039
1593.00,0.0034
1592.00,0.0031
1591.00,0.0028
1590.00,0.0026
1589.00,0.0025
1588.00,0.0025
1587.00,0.0027
1586.00,0.0030
1585.00,0.0033
1584.00,0.0036
1583.00,0.0037
1582.00,0.0036
1581.00,0.0033
1580.00,0.0028
1579.00,0.0024
1578.00,0.0020
1577.00,0.0017
1576.00,0.0014
1575.00,0.0012
1574.00,0.0011
1573.00,0.0010
1572.00,0.0009
1571.00,0.0009
1570.00,0.0008
1569.00,0.0008
1568.00,0.0008
1567.00,0.0007
1566.00,0.0007
1565.00,0.0007
1564.00,0.0007
1563.00,0.0007
1562.00,0.0007
1561.00,0.0007
1560.00,0.0007
1559.00,0.0007
1558.00,0.0007
1557.00,0.0007
1556.00,0.0007
1555.00,0.0007
1554.00,0.0008
1553.00,0.0008
1552.00,0.0009
1551.00,0.0009
1550.00,0.0010
1549.00,0.0011
1548.00,0.0011
1547.00,0.0012
1546.00,0.0013
1545.00,0.0013
1544.00,0.0013
1543.00,0.0013
1542.00,0.0013
1541.00,0.0012
1540.00,0.0011
1539.00,0.0011
1538.00,0.0011
1537.00,0.0011
1536.00,0.0011
1535.00,0.0011
1534.00,0.0011
1533.00,0.0010
1532.00,0.0010
1531.00,0.0009
1530.00,0.0009
1529.00,0.0009
1528.00,0.0008
1527.00,0.0008
1526.00,0.0008
1525.00,0.0008
1524.00,0.0008
1523.00,0.0008
1522.00,0.0008
1521.00,0.0008
1520.00,0.0008
1519.00,0.0008
1518.00,0.0008
1517.00,0.0009
1516.00,0.0009
1515.00,0.0009
1514.00,0.0010
1513.00,0.0010
1512.00,0.0011
1511.00,0.0012
1510.00,0.0012
1509.00,0.0013
1508.00,0.0013
1507.00,0.0013
1506.00,0.0014
1505.00,0.0016
1504.00,0.0018
1503.00,0.0021
1502.00,0.0025
1501.00,0.0030
1500.00,0.0038
1499.00,0.0049
1498.00,0.0067
1497.00,0.0095
1496.00,0.0133
1495.00,0.0174
1494.00,0.0210
1493.00,0.0235
1492.00,0.0243
1491.00,0.0228
1490.00,0.0191
1489.00,0.0148
1488.00,0.0113
1487.00,0.0089
1486.00,0.0073
1485.00,0.0060
1484.00,0.0051
1483.00,0.0044
1482.00,0.0038
1481.00,0.0033
1480.00,0.0030
1479.00,0.0028
1478.00,0.0026
1477.00,0.0025
1476.00,0.0024
1475.00,0.0023
1474.00,0.0022
1473.00,0.0021
1472.00,0.0021
1471.00,0.0021
1470.00,0.0021
1469.00,0.0022
1468.00,0.0023
1467.00,0.0024
1466.00,0.0026
1465.00,0.0027
1464.00,0.0028
1463.00,0.0030
1462.00,0.0033
1461.00,0.0037
1460.00,0.0042
1459.00,0.0050
1458.00,0.0065
1457.00,0.0091
1456.00,0.0127
1455.00,0.0164
1454.00,0.0197
1453.00,0.0224
1452.00,0.0240
1451.00,0.0242
1450.00,0.0231
1449.00,0.0213
1448.00,0.0192
1447.00,0.0172
1446.00,0.0157
1445.00,0.0145
1444.00,0.0134
1443.00,0.0123
1442.00,0.0112
1441.00,0.0103
1440.00,0.0096
1439.00,0.0089
1438.00,0.0083
1437.00,0.0074
1436.00,0.0063
1435.00,0.0055
1434.00,0.0049
1433.00,0.0045
1432.00,0.0041
1431.00,0.0037
1430.00,0.0033
1429.00,0.0030
1428.00,0.0028
1427.00,0.0026
1426.00,0.0025
1425.00,0.0024
1424.00,0.0022
1423.00,0.0021
1422.00,0.0021
1421.00,0.0021
1420.00,0.0021
1419.00,0.0020
1418.00,0.0018
1417.00,0.0017
1416.00,0.0017
1415.00,0.0016
1414.00,0.0017
1413.00,0.0017
1412.00,0.0017
1411.00,0.0017
1410.00,0.0016
1409.00,0.0016
1408.00,0.0016
1407.00,0.0017
1406.00,0.0017
1405.00,0.0017
1404.00,0.0017
1403.00,0.0017
1402.00,0.0017
1401.00,0.0017
1400.00,0.0017
1399.00,0.0018
1398.00,0.0018
1397.00,0.0018
1396.00,0.0019
1395.00,0.0019
1394.00,0.0020
1393.00,0.0021
1392.00,0.0022
1391.00,0.0023
1390.00,0.0025
1389.00,0.0027
1388.00,0.0028
1387.00,0.0030
1386.00,0.0032
1385.00,0.0034
1384.00,0.0035
1383.00,0.0037
1382.00,0.0039
1381.00,0.0041
1380.00,0.0042
1379.00,0.0044
1378.00,0.0045
1377.00,0.0047
1376.00,0.0048
1375.00,0.0049
1374.00,0.0050
1373.00,0.0050
1372.00,0.0050
1371.00,0.0051
1370.00,0.0051
1369.00,0.0050
1368.00,0.0050
1367.00,0.0050
1366.00,0.0050
1365.00,0.0050
1364.00,0.0050
1363.00,0.0049
1362.00,0.0048
1361.00,0.0047
1360.00,0.0046
1359.00,0.0046
1358.00,0.0045
1357.00,0.0044
1356.00,0.0043
1355.00,0.0043
1354.00,0.0043
1353.00,0.0042
1352.00,0.0042
1351.00,0.0042
1350.00,0.0042
1349.00,0.0042
1348.00,0.0041
1347.00,0.0041
1346.00,0.0040
1345.00,0.0040
1344.00,0.0039
1343.00,0.0039
1342.00,0.0038
1341.00,0.0038
1340.00,0.0037
1339.00,0.0036
1338.00,0.0036
1337.00,0.0036
1336.00,0.0036
1335.00,0.0037
1334.00,0.0038
1333.00,0.0039
1332.00,0.0041
1331.00,0.0042
1330.00,0.0043
1329.00,0.0043
1328.00,0.0043
1327.00,0.0043
1326.00,0.0043
1325.00,0.0042
1324.00,0.0041
1323.00,0.0041
1322.00,0.0040
1321.00,0.0040
1320.00,0.0040
1319.00,0.0040
1318.00,0.0040
1317.00,0.0041
1316.00,0.0041
1315.00,0.0042
1314.00,0.0043
1313.00,0.0043
1312.00,0.0043
1311.00,0.0042
1310.00,0.0042
1309.00,0.0042
1308.00,0.0041
1307.00,0.0041
1306.00,0.0040
1305.00,0.0039
1304.00,0.0038
1303.00,0.0037
1302.00,0.0037
1301.00,0.0036
1300.00,0.0035
1299.00,0.0034
1298.00,0.0034
1297.00,0.0034
1296.00,0.0034
1295.00,0.0034
1294.00,0.0034
1293.00,0.0034
1292.00,0.0034
1291.00,0.0033
1290.00,0.0033
1289.00,0.0032
1288.00,0.0032
1287.00,0.0032
1286.00,0.0031
1285.00,0.0031
1284.00,0.0031
1283.00,0.0031
1282.00,0.0031
1281.00,0.0031
1280.00,0.0030
1279.00,0.0030
1278.00,0.0029
1277.00,0.0028
1276.00,0.0027
1275.00,0.0026
1274.00,0.0026
1273.00,0.0025
1272.00,0.0024
1271.00,0.0023
1270.00,0.0023
1269.00,0.0022
1268.00,0.0022
1267.00,0.0021
1266.00,0.0021
1265.00,0.0021
1264.00,0.0021
1263.00,0.0020
1262.00,0.0020
1261.00,0.0020
1260.00,0.0020
1259.00,0.0020
1258.00,0.0020
1257.00,0.0020
1256.00,0.0020
1255.00,0.0020
1254.00,0.0020
1253.00,0.0021
1252.00,0.0021
1251.00,0.0021
1250.00,0.0021
1249.00,0.0021
1248.00,0.0021
1247.00,0.0021
1246.00,0.0022
1245.00,0.0022
1244.00,0.0022
1243.00,0.0022
1242.00,0.0022
1241.00,0.0022
1240.00,0.0022
1239.00,0.0022
1238.00,0.0022
1237.00,0.0022
1236.00,0.0021
1235.00,0.0021
1234.00,0.0022
1233.00,0.0022
1232.00,0.0022
1231.00,0.0022
1230.00,0.0022
1229.00,0.0022
1228.00,0.0022
1227.00,0.0022
1226.00,0.0022
1225.00,0.0022
1224.00,0.0022
1223.00,0.0023
1222.00,0.0023
1221.00,0.0023
1220.00,0.0023
1219.00,0.0023
1218.00,0.0023
1217.00,0.0023
1216.00,0.0023
1215.00,0.0023
1214.00,0.0023
1213.00,0.0023
1212.00,0.0024
1211.00,0.0025
1210.00,0.0026
1209.00,0.0027
1208.00,0.0027
1207.00,0.0028
1206.00,0.0029
1205.00,0.0030
1204.00,0.0031
1203.00,0.0033
1202.00,0.0034
1201.00,0.0036
1200.00,0.0037
1199.00,0.0037
1198.00,0.0038
1197.00,0.0039
1196.00,0.0039
1195.00,0.0039
1194.00,0.0040
1193.00,0.0040
1192.00,0.0040
1191.00,0.0040
1190.00,0.0040
1189.00,0.0041
1188.00,0.0041
1187.00,0.0043
1186.00,0.0045
1185.00,0.0048
1184.00,0.0050
1183.00,0.0053
1182.00,0.0054
1181.00,0.0055
1180.00,0.0053
1179.00,0.0051
1178.00,0.0047
1177.00,0.0043
1176.00,0.0039
1175.00,0.0036
1174.00,0.0034
1173.00,0.0032
1172.00,0.0031
1171.00,0.0030
1170.00,0.0030
1169.00,0.0029
1168.00,0.0029
1167.00,0.0029
1166.00,0.0029
1165.00,0.0030
1164.00,0.0030
1163.00,0.0031
1162.00,0.0033
1161.00,0.0035
1160.00,0.0038
1159.00,0.0041
1158.00,0.0046
1157.00,0.0051
1156.00,0.0054
1155.00,0.0056
1154.00,0.0057
1153.00,0.0054
1152.00,0.0050
1151.00,0.0045
1150.00,0.0040
1149.00,0.0036
1148.00,0.0032
1147.00,0.0029
1146.00,0.0027
1145.00,0.0026
1144.00,0.0024
1143.00,0.0022
1142.00,0.0022
1141.00,0.0021
1140.00,0.0020
1139.00,0.0020
1138.00,0.0020
1137.00,0.0020
1136.00,0.0019
1135.00,0.0019
1134.00,0.0019
1133.00,0.0019
1132.00,0.0019
1131.00,0.0019
1130.00,0.0020
1129.00,0.0020
1128.00,0.0019
1127.00,0.0019
1126.00,0.0019
1125.00,0.0020
1124.00,0.0020
1123.00,0.0020
1122.00,0.0020
1121.00,0.0021
1120.00,0.0022
1119.00,0.0023
1118.00,0.0024
1117.00,0.0025
1116.00,0.0026
1115.00,0.0027
1114.00,0.0028
1113.00,0.0028
1112.00,0.0028
1111.00,0.0028
1110.00,0.0029
1109.00,0.0029
1108.00,0.0028
1107.00,0.0028
1106.00,0.0028
1105.00,0.0028
1104.00,0.0028
1103.00,0.0028
1102.00,0.0029
1101.00,0.0029
1100.00,0.0029
1099.00,0.0029
1098.00,0.0030
1097.00,0.0031
1096.00,0.0031
1095.00,0.0032
1094.00,0.0033
1093.00,0.0034
1092.00,0.0035
1091.00,0.0035
1090.00,0.0035
1089.00,0.0036
1088.00,0.0036
1087.00,0.0038
1086.00,0.0040
1085.00,0.0042
1084.00,0.0044
1083.00,0.0046
1082.00,0.0048
1081.00,0.0050
1080.00,0.0052
1079.00,0.0054
1078.00,0.0057
1077.00,0.0059
1076.00,0.0062
1075.00,0.0065
1074.00,0.0069
1073.00,0.0072
1072.00,0.0075
1071.00,0.0078
1070.00,0.0080
1069.00,0.0081
1068.00,0.0081
1067.00,0.0080
1066.00,0.0078
1065.00,0.0075
1064.00,0.0072
1063.00,0.0068
1062.00,0.0065
1061.00,0.0063
1060.00,0.0060
1059.00,0.0058
1058.00,0.0057
1057.00,0.0055
1056.00,0.0053
1055.00,0.0051
1054.00,0.0050
1053.00,0.0048
1052.00,0.0047
1051.00,0.0045
1050.00,0.0044
1049.00,0.0043
1048.00,0.0041
1047.00,0.0040
1046.00,0.0040
1045.00,0.0039
1044.00,0.0038
1043.00,0.0038
1042.00,0.0038
1041.00,0.0039
1040.00,0.0040
1039.00,0.0042
1038.00,0.0046
1037.00,0.0051
1036.00,0.0058
1035.00,0.0068
1034.00,0.0080
1033.00,0.0094
1032.00,0.0108
1031.00,0.0121
1030.00,0.0133
1029.00,0.0140
1028.00,0.0143
1027.00,0.0141
1026.00,0.0134
1025.00,0.0125
1024.00,0.0114
1023.00,0.0104
1022.00,0.0096
1021.00,0.0089
1020.00,0.0083
1019.00,0.0078
1018.00,0.0073
1017.00,0.0069
1016.00,0.0066
1015.00,0.0063
1014.00,0.0061
1013.00,0.0059
1012.00,0.0056
1011.00,0.0055
1010.00,0.0054
1009.00,0.0054
1008.00,0.0054
1007.00,0.0055
1006.00,0.0056
1005.00,0.0058
1004.00,0.0060
1003.00,0.0060
1002.00,0.0059
1001.00,0.0056
1000.00,0.0052
999.00,0.0048
998.00,0.0045
997.00,0.0043
996.00,0.0041
995.00,0.0041
994.00,0.0042
993.00,0.0042
992.00,0.0042
991.00,0.0041
990.00,0.0042
989.00,0.0043
988.00,0.0044
987.00,0.0045
986.00,0.0048
985.00,0.0050
984.00,0.0051
983.00,0.0052
982.00,0.0054
981.00,0.0055
980.00,0.0055
979.00,0.0055
978.00,0.0054
977.00,0.0054
976.00,0.0052
975.00,0.0051
974.00,0.0050
973.00,0.0049
972.00,0.0049
971.00,0.0050
970.00,0.0052
969.00,0.0054
968.00,0.0056
967.00,0.0058
966.00,0.0060
965.00,0.0060
964.00,0.0060
963.00,0.0060
962.00,0.0059
961.00,0.0056
960.00,0.0053
959.00,0.0050
958.00,0.0047
957.00,0.0045
956.00,0.0044
955.00,0.0042
954.00,0.0042
953.00,0.0042
952.00,0.0042
951.00,0.0042
950.00,0.0043
949.00,0.0044
948.00,0.0044
947.00,0.0045
946.00,0.0046
945.00,0.0047
944.00,0.0047
943.00,0.0047
942.00,0.0047
941.00,0.0046
940.00,0.0045
939.00,0.0043
938.00,0.0042
937.00,0.0041
936.00,0.0039
935.00,0.0037
934.00,0.0036
933.00,0.0034
932.00,0.0033
931.00,0.0032
930.00,0.0031
929.00,0.0031
928.00,0.0030
927.00,0.0030
926.00,0.0031
925.00,0.0032
924.00,0.0032
923.00,0.0034
922.00,0.0035
921.00,0.0037
920.00,0.0038
919.00,0.0040
918.00,0.0043
917.00,0.0047
916.00,0.0050
915.00,0.0055
914.00,0.0061
913.00,0.0068
912.00,0.0075
911.00,0.0082
910.00,0.0089
909.00,0.0096
908.00,0.0101
907.00,0.0104
906.00,0.0105
905.00,0.0104
904.00,0.0099
903.00,0.0092
902.00,0.0084
901.00,0.0076
900.00,0.0068
899.00,0.0060
898.00,0.0054
897.00,0.0048
896.00,0.0043
895.00,0.0039
894.00,0.0037
893.00,0.0035
892.00,0.0033
891.00,0.0031
890.00,0.0030
889.00,0.0029
888.00,0.0028
887.00,0.0027
886.00,0.0027
885.00,0.0026
884.00,0.0025
883.00,0.0025
882.00,0.0025
881.00,0.0024
880.00,0.0023
879.00,0.0023
878.00,0.0023
877.00,0.0024
876.00,0.0023
875.00,0.0023
874.00,0.0023
873.00,0.0023
872.00,0.0022
871.00,0.0021
870.00,0.0021
869.00,0.0021
868.00,0.0020
867.00,0.0020
866.00,0.0020
865.00,0.0021
864.00,0.0021
863.00,0.0021
862.00,0.0021
861.00,0.0022
860.00,0.0021
859.00,0.0021
858.00,0.0022
857.00,0.0022
856.00,0.0022
855.00,0.0022
854.00,0.0024
853.00,0.0025
852.00,0.0027
851.00,0.0028
850.00,0.0031
849.00,0.0034
848.00,0.0037
847.00,0.0040
846.00,0.0044
845.00,0.0047
844.00,0.0049
843.00,0.0050
842.00,0.0051
841.00,0.0051
840.00,0.0049
839.00,0.0047
838.00,0.0045
837.00,0.0042
836.00,0.0039
835.00,0.0035
834.00,0.0032
833.00,0.0029
832.00,0.0025
831.00,0.0023
830.00,0.0021
829.00,0.0020
828.00,0.0020
827.00,0.0019
826.00,0.0020
825.00,0.0020
824.00,0.0020
823.00,0.0019
822.00,0.0020
821.00,0.0021
820.00,0.0021
819.00,0.0020
818.00,0.0020
817.00,0.0020
816.00,0.0020
815.00,0.0020
814.00,0.0020
813.00,0.0021
812.00,0.0021
811.00,0.0021
810.00,0.0022
809.00,0.0022
808.00,0.0022
807.00,0.0021
806.00,0.0022
805.00,0.0022
804.00,0.0023
803.00,0.0023
802.00,0.0024
801.00,0.0025
800.00,0.0026
799.00,0.0027
798.00,0.0029
797.00,0.0031
796.00,0.0032
795.00,0.0034
794.00,0.0036
793.00,0.0039
792.00,0.0041
791.00,0.0044
790.00,0.0048
789.00,0.0052
788.00,0.0055
787.00,0.0059
786.00,0.0063
785.00,0.0067
784.00,0.0071
783.00,0.0075
782.00,0.0081
781.00,0.0087
780.00,0.0094
779.00,0.0102
778.00,0.0112
777.00,0.0122
776.00,0.0133
775.00,0.0146
774.00,0.0160
773.00,0.0175
772.00,0.0191
771.00,0.0208
770.00,0.0227
769.00,0.0246
768.00,0.0265
767.00,0.0284
766.00,0.0303
765.00,0.0321
764.00,0.0339
763.00,0.0357
762.00,0.0377
761.00,0.0396
760.00,0.0415
759.00,0.0433
758.00,0.0449
757.00,0.0462
756.00,0.0471
755.00,0.0476
754.00,0.0477
753.00,0.0476
752.00,0.0474
751.00,0.0472
750.00,0.0472
749.00,0.0471
748.00,0.0469
747.00,0.0462
746.00,0.0449
745.00,0.0430
744.00,0.0404
743.00,0.0373
742.00,0.0341
741.00,0.0308
740.00,0.0277
739.00,0.0249
738.00,0.0223
737.00,0.0200
736.00,0.0176
735.00,0.0154
734.00,0.0134
733.00,0.0116
732.00,0.0099
731.00,0.0086
730.00,0.0077
729.00,0.0069
728.00,0.0062
727.00,0.0058
726.00,0.0055
725.00,0.0054
724.00,0.0052
723.00,0.0051
722.00,0.0051
721.00,0.0051
720.00,0.0051
719.00,0.0052
718.00,0.0054
717.00,0.0057
716.00,0.0061
715.00,0.0067
714.00,0.0075
713.00,0.0086
712.00,0.0101
711.00,0.0122
710.00,0.0151
709.00,0.0189
708.00,0.0236
707.00,0.0296
706.00,0.0369
705.00,0.0454
704.00,0.0551
703.00,0.0659
702.00,0.0775
701.00,0.0895
700.00,0.1016
699.00,0.1136
698.00,0.1253
697.00,0.1363
696.00,0.1451
695.00,0.1503
694.00,0.1501
693.00,0.1435
692.00,0.1316
691.00,0.1168
690.00,0.1017
689.00,0.0878
688.00,0.0758
687.00,0.0660
686.00,0.0583
685.00,0.0521
684.00,0.0471
683.00,0.0429
682.00,0.0395
681.00,0.0365
680.00,0.0338
679.00,0.0314
678.00,0.0295
677.00,0.0278
676.00,0.0262
675.00,0.0249
674.00,0.0238
673.00,0.0228
672.00,0.0219
671.00,0.0212
670.00,0.0207
669.00,0.0200
668.00,0.0191
667.00,0.0181
666.00,0.0174
665.00,0.0167
664.00,0.0160
663.00,0.0153
662.00,0.0146
661.00,0.0140
660.00,0.0132
659.00,0.0125
658.00,0.0119
657.00,0.0114
656.00,0.0108
655.00,0.0102
654.00,0.0098
653.00,0.0094
652.00,0.0089
651.00,0.0085
650.00,0.0082
649.00,0.0079
648.00,0.0075
647.00,0.0072
646.00,0.0071
645.00,0.0070
644.00,0.0069
643.00,0.0067
642.00,0.0067
641.00,0.0067
640.00,0.0065
639.00,0.0065
638.00,0.0067
637.00,0.0070
636.00,0.0071
635.00,0.0074
634.00,0.0077
633.00,0.0080
632.00,0.0083
631.00,0.0085
630.00,0.0088
629.00,0.0090
628.00,0.0091
627.00,0.0092
626.00,0.0093
625.00,0.0093
624.00,0.0094
623.00,0.0096
622.00,0.0099
621.00,0.0101
620.00,0.0100
619.00,0.0097
618.00,0.0095
617.00,0.0092
616.00,0.0088
615.00,0.0086
614.00,0.0085
613.00,0.0084
612.00,0.0084
611.00,0.0084
610.00,0.0085
609.00,0.0084
608.00,0.0080
607.00,0.0077
606.00,0.0077
605.00,0.0077
604.00,0.0077
603.00,0.0077
602.00,0.0078
601.00,0.0079
600.00,0.0079
599.00,0.0078
598.00,0.0080
597.00,0.0082
596.00,0.0082
595.00,0.0083
594.00,0.0085
593.00,0.0086
592.00,0.0087
591.00,0.0088
590.00,0.0090
589.00,0.0092
588.00,0.0093
587.00,0.0094
586.00,0.0097
585.00,0.0100
584.00,0.0102
583.00,0.0106
582.00,0.0111
581.00,0.0115
580.00,0.0118
579.00,0.0122
578.00,0.0128
577.00,0.0135
576.00,0.0141
575.00,0.0148
574.00,0.0156
573.00,0.0164
572.00,0.0170
571.00,0.0178
570.00,0.0187
569.00,0.0196
568.00,0.0202
567.00,0.0207
566.00,0.0213
565.00,0.0220
564.00,0.0225
563.00,0.0232
562.00,0.0241
561.00,0.0251
560.00,0.0258
559.00,0.0265
558.00,0.0273
557.00,0.0279
556.00,0.0285
555.00,0.0292
554.00,0.0302
553.00,0.0312
552.00,0.0321
551.00,0.0331
550.00,0.0342
549.00,0.0355
548.00,0.0367
547.00,0.0382
546.00,0.0401
545.00,0.0421
544.00,0.0439
543.00,0.0457
542.00,0.0478
541.00,0.0496
540.00,0.0510
539.00,0.0521
538.00,0.0527
537.00,0.0527
536.00,0.0518
535.00,0.0503
534.00,0.0484
533.00,0.0460
532.00,0.0433
531.00,0.0405
530.00,0.0381
529.00,0.0358
528.00,0.0333
527.00,0.0308
526.00,0.0285
525.00,0.0263
524.00,0.0242
523.00,0.0227
522.00,0.0217
521.00,0.0209
520.00,0.0198
519.00,0.0189
518.00,0.0183
517.00,0.0177
516.00,0.0168
515.00,0.0160
514.00,0.0156
513.00,0.0151
512.00,0.0144
511.00,0.0138
510.00,0.0135
509.00,0.0131
508.00,0.0125
507.00,0.0121
506.00,0.0120
505.00,0.0119
504.00,0.0114
503.00,0.0109
502.00,0.0107
501.00,0.0105
500.00,0.0101
499.00,0.0098
498.00,0.0099
497.00,0.0099
496.00,0.0096
495.00,0.0093
494.00,0.0093
493.00,0.0093
492.00,0.0090
491.00,0.0088
490.00,0.0089
489.00,0.0088
488.00,0.0085
487.00,0.0083
486.00,0.0084
485.00,0.0083
484.00,0.0078
483.00,0.0074
482.00,0.0076
481.00,0.0077
480.00,0.0076
479.00,0.0074
478.00,0.0075
477.00,0.0075
476.00,0.0070
475.00,0.0068
474.00,0.0071
473.00,0.0074
472.00,0.0073
471.00,0.0071
470.00,0.0071
469.00,0.0070
468.00,0.0064
467.00,0.0061
466.00,0.0063
465.00,0.0065
464.00,0.0062
463.00,0.0059
462.00,0.0063
461.00,0.0066
460.00,0.0066
459.00,0.0068
458.00,0.0074
457.00,0.0075
456.00,0.0068
455.00,0.0061
454.00,0.0061
453.00,0.0063
452.00,0.0061
451.00,0.0061
450.00,0.0065
449.00,0.0067
448.00,0.0062
447.00,0.0059
446.00,0.0062
445.00,0.0063
444.00,0.0058
443.00,0.0054
442.00,0.0056
441.00,0.0060
440.00,0.0058
439.00,0.0057
438.00,0.0060
437.00,0.0060
436.00,0.0054
435.00,0.0050
434.00,0.0054
433.00,0.0056
432.00,0.0051
431.00,0.0045
430.00,0.0048
429.00,0.0050
428.00,0.0047
427.00,0.0045
426.00,0.0051
425.00,0.0055
424.00,0.0051
423.00,0.0048
422.00,0.0053
421.00,0.0056
420.00,0.0047
419.00,0.0040
418.00,0.0046
417.00,0.0048
416.00,0.0037
415.00,0.0027
414.00,0.0031
413.00,0.0037
412.00,0.0035
411.00,0.0035
410.00,0.0046
409.00,0.0056
408.00,0.0056
407.00,0.0061
406.00,0.0079
405.00,0.0088
404.00,0.0075
403.00,0.0058
402.00,0.0059
401.00,0.0061
400.00,0.0047
