Created as New Dataset,Sample 891 By YargerLab Date Wednesday, July 23 2025
cm-1,A
4000.00,0.0065
3999.00,0.0065
3998.00,0.0065
3997.00,0.0065
3996.00,0.0065
3995.00,0.0065
3994.00,0.0065
3993.00,0.0066
3992.00,0.0066
3991.00,0.0066
3990.00,0.0066
3989.00,0.0066
3988.00,0.0065
3987.00,0.0065
3986.00,0.0065
3985.00,0.0065
3984.00,0.0065
3983.00,0.0065
3982.00,0.0065
3981.00,0.0065
3980.00,0.0065
3979.00,0.0065
3978.00,0.0065
3977.00,0.0065
3976.00,0.0065
3975.00,0.0066
3974.00,0.0066
3973.00,0.0066
3972.00,0.0066
3971.00,0.0066
3970.00,0.0066
3969.00,0.0066
3968.00,0.0067
3967.00,0.0067
3966.00,0.0067
3965.00,0.0067
3964.00,0.0067
3963.00,0.0067
3962.00,0.0067
3961.00,0.0067
3960.00,0.0067
3959.00,0.0067
3958.00,0.0067
3957.00,0.0067
3956.00,0.0067
3955.00,0.0067
3954.00,0.0067
3953.00,0.0067
3952.00,0.0067
3951.00,0.0067
3950.00,0.0066
3949.00,0.0066
3948.00,0.0065
3947.00,0.0065
3946.00,0.0065
3945.00,0.0065
3944.00,0.0066
3943.00,0.0066
3942.00,0.0066
3941.00,0.0066
3940.00,0.0066
3939.00,0.0066
3938.00,0.0066
3937.00,0.0066
3936.00,0.0066
3935.00,0.0066
3934.00,0.0065
3933.00,0.0065
3932.00,0.0066
3931.00,0.0066
3930.00,0.0066
3929.00,0.0066
3928.00,0.0066
3927.00,0.0067
3926.00,0.0067
3925.00,0.0068
3924.00,0.0068
3923.00,0.0067
3922.00,0.0066
3921.00,0.0066
3920.00,0.0066
3919.00,0.0065
3918.00,0.0065
3917.00,0.0066
3916.00,0.0066
3915.00,0.0067
3914.00,0.0067
3913.00,0.0067
3912.00,0.0066
3911.00,0.0066
3910.00,0.0066
3909.00,0.0066
3908.00,0.0066
3907.00,0.0065
3906.00,0.0065
3905.00,0.0064
3904.00,0.0063
3903.00,0.0061
3902.00,0.0060
3901.00,0.0060
3900.00,0.0060
3899.00,0.0061
3898.00,0.0061
3897.00,0.0062
3896.00,0.0062
3895.00,0.0063
3894.00,0.0063
3893.00,0.0063
3892.00,0.0063
3891.00,0.0063
3890.00,0.0063
3889.00,0.0062
3888.00,0.0061
3887.00,0.0060
3886.00,0.0060
3885.00,0.0061
3884.00,0.0061
3883.00,0.0061
3882.00,0.0060
3881.00,0.0060
3880.00,0.0061
3879.00,0.0061
3878.00,0.0061
3877.00,0.0060
3876.00,0.0060
3875.00,0.0060
3874.00,0.0061
3873.00,0.0061
3872.00,0.0060
3871.00,0.0059
3870.00,0.0059
3869.00,0.0059
3868.00,0.0059
3867.00,0.0058
3866.00,0.0058
3865.00,0.0059
3864.00,0.0059
3863.00,0.0060
3862.00,0.0059
3861.00,0.0059
3860.00,0.0059
3859.00,0.0059
3858.00,0.0060
3857.00,0.0061
3856.00,0.0062
3855.00,0.0062
3854.00,0.0061
3853.00,0.0061
3852.00,0.0060
3851.00,0.0059
3850.00,0.0059
3849.00,0.0059
3848.00,0.0059
3847.00,0.0059
3846.00,0.0059
3845.00,0.0059
3844.00,0.0059
3843.00,0.0059
3842.00,0.0058
3841.00,0.0058
3840.00,0.0058
3839.00,0.0058
3838.00,0.0058
3837.00,0.0058
3836.00,0.0058
3835.00,0.0058
3834.00,0.0058
3833.00,0.0058
3832.00,0.0058
3831.00,0.0059
3830.00,0.0059
3829.00,0.0059
3828.00,0.0059
3827.00,0.0059
3826.00,0.0059
3825.00,0.0059
3824.00,0.0058
3823.00,0.0057
3822.00,0.0057
3821.00,0.0057
3820.00,0.0057
3819.00,0.0057
3818.00,0.0056
3817.00,0.0056
3816.00,0.0057
3815.00,0.0059
3814.00,0.0059
3813.00,0.0059
3812.00,0.0059
3811.00,0.0059
3810.00,0.0059
3809.00,0.0059
3808.00,0.0059
3807.00,0.0058
3806.00,0.0058
3805.00,0.0058
3804.00,0.0057
3803.00,0.0056
3802.00,0.0056
3801.00,0.0057
3800.00,0.0057
3799.00,0.0057
3798.00,0.0057
3797.00,0.0057
3796.00,0.0058
3795.00,0.0058
3794.00,0.0059
3793.00,0.0060
3792.00,0.0060
3791.00,0.0060
3790.00,0.0060
3789.00,0.0060
3788.00,0.0060
3787.00,0.0061
3786.00,0.0061
3785.00,0.0061
3784.00,0.0060
3783.00,0.0060
3782.00,0.0060
3781.00,0.0059
3780.00,0.0059
3779.00,0.0060
3778.00,0.0060
3777.00,0.0060
3776.00,0.0060
3775.00,0.0059
3774.00,0.0060
3773.00,0.0059
3772.00,0.0059
3771.00,0.0059
3770.00,0.0058
3769.00,0.0058
3768.00,0.0058
3767.00,0.0057
3766.00,0.0057
3765.00,0.0058
3764.00,0.0058
3763.00,0.0058
3762.00,0.0057
3761.00,0.0057
3760.00,0.0057
3759.00,0.0057
3758.00,0.0057
3757.00,0.0056
3756.00,0.0056
3755.00,0.0055
3754.00,0.0054
3753.00,0.0054
3752.00,0.0053
3751.00,0.0052
3750.00,0.0051
3749.00,0.0051
3748.00,0.0051
3747.00,0.0051
3746.00,0.0051
3745.00,0.0050
3744.00,0.0051
3743.00,0.0052
3742.00,0.0052
3741.00,0.0051
3740.00,0.0050
3739.00,0.0049
3738.00,0.0048
3737.00,0.0048
3736.00,0.0048
3735.00,0.0049
3734.00,0.0049
3733.00,0.0049
3732.00,0.0050
3731.00,0.0051
3730.00,0.0051
3729.00,0.0052
3728.00,0.0052
3727.00,0.0052
3726.00,0.0052
3725.00,0.0053
3724.00,0.0053
3723.00,0.0053
3722.00,0.0053
3721.00,0.0053
3720.00,0.0054
3719.00,0.0054
3718.00,0.0054
3717.00,0.0055
3716.00,0.0055
3715.00,0.0055
3714.00,0.0054
3713.00,0.0053
3712.00,0.0053
3711.00,0.0053
3710.00,0.0052
3709.00,0.0052
3708.00,0.0053
3707.00,0.0053
3706.00,0.0054
3705.00,0.0054
3704.00,0.0054
3703.00,0.0055
3702.00,0.0055
3701.00,0.0055
3700.00,0.0056
3699.00,0.0055
3698.00,0.0055
3697.00,0.0055
3696.00,0.0055
3695.00,0.0055
3694.00,0.0054
3693.00,0.0054
3692.00,0.0054
3691.00,0.0054
3690.00,0.0053
3689.00,0.0053
3688.00,0.0052
3687.00,0.0052
3686.00,0.0053
3685.00,0.0053
3684.00,0.0053
3683.00,0.0053
3682.00,0.0053
3681.00,0.0053
3680.00,0.0052
3679.00,0.0052
3678.00,0.0051
3677.00,0.0049
3676.00,0.0048
3675.00,0.0048
3674.00,0.0047
3673.00,0.0047
3672.00,0.0046
3671.00,0.0046
3670.00,0.0048
3669.00,0.0049
3668.00,0.0049
3667.00,0.0050
3666.00,0.0050
3665.00,0.0051
3664.00,0.0052
3663.00,0.0053
3662.00,0.0053
3661.00,0.0053
3660.00,0.0053
3659.00,0.0052
3658.00,0.0051
3657.00,0.0051
3656.00,0.0050
3655.00,0.0050
3654.00,0.0049
3653.00,0.0048
3652.00,0.0047
3651.00,0.0047
3650.00,0.0046
3649.00,0.0046
3648.00,0.0045
3647.00,0.0046
3646.00,0.0047
3645.00,0.0048
3644.00,0.0049
3643.00,0.0051
3642.00,0.0052
3641.00,0.0053
3640.00,0.0053
3639.00,0.0053
3638.00,0.0053
3637.00,0.0053
3636.00,0.0053
3635.00,0.0053
3634.00,0.0053
3633.00,0.0053
3632.00,0.0053
3631.00,0.0052
3630.00,0.0052
3629.00,0.0051
3628.00,0.0052
3627.00,0.0052
3626.00,0.0052
3625.00,0.0052
3624.00,0.0053
3623.00,0.0054
3622.00,0.0055
3621.00,0.0055
3620.00,0.0056
3619.00,0.0056
3618.00,0.0056
3617.00,0.0055
3616.00,0.0054
3615.00,0.0054
3614.00,0.0054
3613.00,0.0055
3612.00,0.0055
3611.00,0.0055
3610.00,0.0055
3609.00,0.0055
3608.00,0.0056
3607.00,0.0057
3606.00,0.0058
3605.00,0.0058
3604.00,0.0059
3603.00,0.0060
3602.00,0.0060
3601.00,0.0061
3600.00,0.0061
3599.00,0.0061
3598.00,0.0061
3597.00,0.0061
3596.00,0.0062
3595.00,0.0062
3594.00,0.0062
3593.00,0.0062
3592.00,0.0061
3591.00,0.0061
3590.00,0.0060
3589.00,0.0061
3588.00,0.0062
3587.00,0.0063
3586.00,0.0064
3585.00,0.0065
3584.00,0.0065
3583.00,0.0066
3582.00,0.0068
3581.00,0.0069
3580.00,0.0070
3579.00,0.0071
3578.00,0.0072
3577.00,0.0073
3576.00,0.0074
3575.00,0.0074
3574.00,0.0075
3573.00,0.0075
3572.00,0.0075
3571.00,0.0075
3570.00,0.0075
3569.00,0.0076
3568.00,0.0076
3567.00,0.0077
3566.00,0.0079
3565.00,0.0080
3564.00,0.0081
3563.00,0.0083
3562.00,0.0084
3561.00,0.0086
3560.00,0.0088
3559.00,0.0089
3558.00,0.0091
3557.00,0.0093
3556.00,0.0095
3555.00,0.0097
3554.00,0.0099
3553.00,0.0101
3552.00,0.0103
3551.00,0.0105
3550.00,0.0108
3549.00,0.0110
3548.00,0.0113
3547.00,0.0117
3546.00,0.0121
3545.00,0.0126
3544.00,0.0132
3543.00,0.0137
3542.00,0.0143
3541.00,0.0149
3540.00,0.0156
3539.00,0.0164
3538.00,0.0173
3537.00,0.0183
3536.00,0.0195
3535.00,0.0209
3534.00,0.0224
3533.00,0.0242
3532.00,0.0263
3531.00,0.0287
3530.00,0.0317
3529.00,0.0350
3528.00,0.0388
3527.00,0.0428
3526.00,0.0468
3525.00,0.0507
3524.00,0.0543
3523.00,0.0574
3522.00,0.0597
3521.00,0.0610
3520.00,0.0615
3519.00,0.0611
3518.00,0.0600
3517.00,0.0583
3516.00,0.0561
3515.00,0.0535
3514.00,0.0508
3513.00,0.0479
3512.00,0.0452
3511.00,0.0425
3510.00,0.0401
3509.00,0.0380
3508.00,0.0361
3507.00,0.0345
3506.00,0.0331
3505.00,0.0319
3504.00,0.0309
3503.00,0.0302
3502.00,0.0296
3501.00,0.0291
3500.00,0.0287
3499.00,0.0285
3498.00,0.0283
3497.00,0.0282
3496.00,0.0282
3495.00,0.0282
3494.00,0.0283
3493.00,0.0283
3492.00,0.0284
3491.00,0.0286
3490.00,0.0287
3489.00,0.0290
3488.00,0.0293
3487.00,0.0296
3486.00,0.0299
3485.00,0.0302
3484.00,0.0306
3483.00,0.0310
3482.00,0.0314
3481.00,0.0320
3480.00,0.0325
3479.00,0.0329
3478.00,0.0334
3477.00,0.0340
3476.00,0.0346
3475.00,0.0352
3474.00,0.0358
3473.00,0.0365
3472.00,0.0372
3471.00,0.0379
3470.00,0.0387
3469.00,0.0394
3468.00,0.0402
3467.00,0.0410
3466.00,0.0417
3465.00,0.0425
3464.00,0.0434
3463.00,0.0442
3462.00,0.0451
3461.00,0.0460
3460.00,0.0469
3459.00,0.0477
3458.00,0.0486
3457.00,0.0494
3456.00,0.0503
3455.00,0.0511
3454.00,0.0520
3453.00,0.0528
3452.00,0.0536
3451.00,0.0544
3450.00,0.0551
3449.00,0.0559
3448.00,0.0567
3447.00,0.0576
3446.00,0.0584
3445.00,0.0592
3444.00,0.0600
3443.00,0.0607
3442.00,0.0615
3441.00,0.0622
3440.00,0.0630
3439.00,0.0637
3438.00,0.0645
3437.00,0.0652
3436.00,0.0660
3435.00,0.0666
3434.00,0.0673
3433.00,0.0680
3432.00,0.0687
3431.00,0.0694
3430.00,0.0701
3429.00,0.0708
3428.00,0.0715
3427.00,0.0722
3426.00,0.0730
3425.00,0.0738
3424.00,0.0748
3423.00,0.0758
3422.00,0.0769
3421.00,0.0781
3420.00,0.0794
3419.00,0.0808
3418.00,0.0821
3417.00,0.0835
3416.00,0.0848
3415.00,0.0862
3414.00,0.0875
3413.00,0.0887
3412.00,0.0898
3411.00,0.0906
3410.00,0.0912
3409.00,0.0915
3408.00,0.0915
3407.00,0.0911
3406.00,0.0904
3405.00,0.0894
3404.00,0.0880
3403.00,0.0864
3402.00,0.0844
3401.00,0.0821
3400.00,0.0796
3399.00,0.0769
3398.00,0.0742
3397.00,0.0714
3396.00,0.0687
3395.00,0.0661
3394.00,0.0635
3393.00,0.0610
3392.00,0.0587
3391.00,0.0564
3390.00,0.0543
3389.00,0.0523
3388.00,0.0505
3387.00,0.0488
3386.00,0.0472
3385.00,0.0458
3384.00,0.0444
3383.00,0.0431
3382.00,0.0419
3381.00,0.0407
3380.00,0.0396
3379.00,0.0386
3378.00,0.0376
3377.00,0.0366
3376.00,0.0357
3375.00,0.0349
3374.00,0.0341
3373.00,0.0333
3372.00,0.0326
3371.00,0.0319
3370.00,0.0312
3369.00,0.0305
3368.00,0.0299
3367.00,0.0293
3366.00,0.0286
3365.00,0.0281
3364.00,0.0275
3363.00,0.0269
3362.00,0.0264
3361.00,0.0259
3360.00,0.0254
3359.00,0.0249
3358.00,0.0244
3357.00,0.0240
3356.00,0.0235
3355.00,0.0231
3354.00,0.0227
3353.00,0.0223
3352.00,0.0219
3351.00,0.0216
3350.00,0.0212
3349.00,0.0209
3348.00,0.0206
3347.00,0.0203
3346.00,0.0200
3345.00,0.0197
3344.00,0.0194
3343.00,0.0191
3342.00,0.0188
3341.00,0.0186
3340.00,0.0183
3339.00,0.0181
3338.00,0.0179
3337.00,0.0176
3336.00,0.0174
3335.00,0.0172
3334.00,0.0170
3333.00,0.0168
3332.00,0.0166
3331.00,0.0164
3330.00,0.0162
3329.00,0.0160
3328.00,0.0159
3327.00,0.0157
3326.00,0.0155
3325.00,0.0153
3324.00,0.0152
3323.00,0.0150
3322.00,0.0149
3321.00,0.0147
3320.00,0.0146
3319.00,0.0145
3318.00,0.0143
3317.00,0.0142
3316.00,0.0141
3315.00,0.0140
3314.00,0.0139
3313.00,0.0138
3312.00,0.0136
3311.00,0.0134
3310.00,0.0133
3309.00,0.0131
3308.00,0.0130
3307.00,0.0129
3306.00,0.0128
3305.00,0.0127
3304.00,0.0126
3303.00,0.0125
3302.00,0.0124
3301.00,0.0123
3300.00,0.0122
3299.00,0.0121
3298.00,0.0119
3297.00,0.0118
3296.00,0.0117
3295.00,0.0116
3294.00,0.0115
3293.00,0.0115
3292.00,0.0114
3291.00,0.0114
3290.00,0.0114
3289.00,0.0113
3288.00,0.0113
3287.00,0.0112
3286.00,0.0111
3285.00,0.0110
3284.00,0.0109
3283.00,0.0109
3282.00,0.0108
3281.00,0.0107
3280.00,0.0106
3279.00,0.0105
3278.00,0.0104
3277.00,0.0103
3276.00,0.0102
3275.00,0.0101
3274.00,0.0101
3273.00,0.0100
3272.00,0.0099
3271.00,0.0099
3270.00,0.0099
3269.00,0.0099
3268.00,0.0100
3267.00,0.0100
3266.00,0.0100
3265.00,0.0100
3264.00,0.0099
3263.00,0.0099
3262.00,0.0099
3261.00,0.0098
3260.00,0.0098
3259.00,0.0097
3258.00,0.0097
3257.00,0.0096
3256.00,0.0096
3255.00,0.0096
3254.00,0.0096
3253.00,0.0096
3252.00,0.0096
3251.00,0.0096
3250.00,0.0095
3249.00,0.0094
3248.00,0.0093
3247.00,0.0092
3246.00,0.0092
3245.00,0.0093
3244.00,0.0093
3243.00,0.0094
3242.00,0.0093
3241.00,0.0093
3240.00,0.0092
3239.00,0.0091
3238.00,0.0091
3237.00,0.0090
3236.00,0.0089
3235.00,0.0087
3234.00,0.0087
3233.00,0.0086
3232.00,0.0086
3231.00,0.0086
3230.00,0.0086
3229.00,0.0086
3228.00,0.0086
3227.00,0.0086
3226.00,0.0086
3225.00,0.0086
3224.00,0.0085
3223.00,0.0085
3222.00,0.0085
3221.00,0.0085
3220.00,0.0085
3219.00,0.0084
3218.00,0.0084
3217.00,0.0084
3216.00,0.0084
3215.00,0.0084
3214.00,0.0084
3213.00,0.0084
3212.00,0.0084
3211.00,0.0083
3210.00,0.0083
3209.00,0.0083
3208.00,0.0083
3207.00,0.0083
3206.00,0.0083
3205.00,0.0083
3204.00,0.0083
3203.00,0.0083
3202.00,0.0083
3201.00,0.0082
3200.00,0.0082
3199.00,0.0082
3198.00,0.0082
3197.00,0.0081
3196.00,0.0081
3195.00,0.0081
3194.00,0.0081
3193.00,0.0081
3192.00,0.0080
3191.00,0.0080
3190.00,0.0080
3189.00,0.0080
3188.00,0.0079
3187.00,0.0079
3186.00,0.0079
3185.00,0.0079
3184.00,0.0080
3183.00,0.0080
3182.00,0.0080
3181.00,0.0081
3180.00,0.0081
3179.00,0.0081
3178.00,0.0082
3177.00,0.0082
3176.00,0.0083
3175.00,0.0083
3174.00,0.0083
3173.00,0.0083
3172.00,0.0083
3171.00,0.0084
3170.00,0.0084
3169.00,0.0084
3168.00,0.0084
3167.00,0.0084
3166.00,0.0084
3165.00,0.0084
3164.00,0.0084
3163.00,0.0084
3162.00,0.0084
3161.00,0.0084
3160.00,0.0084
3159.00,0.0083
3158.00,0.0082
3157.00,0.0082
3156.00,0.0080
3155.00,0.0079
3154.00,0.0078
3153.00,0.0078
3152.00,0.0078
3151.00,0.0079
3150.00,0.0079
3149.00,0.0080
3148.00,0.0080
3147.00,0.0080
3146.00,0.0079
3145.00,0.0079
3144.00,0.0079
3143.00,0.0079
3142.00,0.0078
3141.00,0.0078
3140.00,0.0078
3139.00,0.0078
3138.00,0.0078
3137.00,0.0078
3136.00,0.0079
3135.00,0.0079
3134.00,0.0079
3133.00,0.0079
3132.00,0.0079
3131.00,0.0078
3130.00,0.0078
3129.00,0.0078
3128.00,0.0078
3127.00,0.0078
3126.00,0.0078
3125.00,0.0078
3124.00,0.0077
3123.00,0.0077
3122.00,0.0077
3121.00,0.0077
3120.00,0.0077
3119.00,0.0077
3118.00,0.0077
3117.00,0.0077
3116.00,0.0077
3115.00,0.0077
3114.00,0.0077
3113.00,0.0077
3112.00,0.0077
3111.00,0.0077
3110.00,0.0077
3109.00,0.0078
3108.00,0.0078
3107.00,0.0078
3106.00,0.0078
3105.00,0.0078
3104.00,0.0078
3103.00,0.0078
3102.00,0.0079
3101.00,0.0079
3100.00,0.0080
3099.00,0.0080
3098.00,0.0080
3097.00,0.0081
3096.00,0.0081
3095.00,0.0082
3094.00,0.0082
3093.00,0.0082
3092.00,0.0083
3091.00,0.0083
3090.00,0.0084
3089.00,0.0085
3088.00,0.0086
3087.00,0.0088
3086.00,0.0090
3085.00,0.0093
3084.00,0.0097
3083.00,0.0102
3082.00,0.0108
3081.00,0.0118
3080.00,0.0129
3079.00,0.0144
3078.00,0.0160
3077.00,0.0176
3076.00,0.0188
3075.00,0.0194
3074.00,0.0192
3073.00,0.0184
3072.00,0.0171
3071.00,0.0157
3070.00,0.0142
3069.00,0.0130
3068.00,0.0120
3067.00,0.0113
3066.00,0.0107
3065.00,0.0103
3064.00,0.0100
3063.00,0.0098
3062.00,0.0096
3061.00,0.0095
3060.00,0.0094
3059.00,0.0092
3058.00,0.0092
3057.00,0.0091
3056.00,0.0090
3055.00,0.0090
3054.00,0.0090
3053.00,0.0090
3052.00,0.0090
3051.00,0.0091
3050.00,0.0092
3049.00,0.0093
3048.00,0.0094
3047.00,0.0096
3046.00,0.0098
3045.00,0.0099
3044.00,0.0101
3043.00,0.0102
3042.00,0.0103
3041.00,0.0105
3040.00,0.0107
3039.00,0.0109
3038.00,0.0111
3037.00,0.0113
3036.00,0.0115
3035.00,0.0118
3034.00,0.0119
3033.00,0.0121
3032.00,0.0121
3031.00,0.0120
3030.00,0.0118
3029.00,0.0117
3028.00,0.0114
3027.00,0.0112
3026.00,0.0110
3025.00,0.0108
3024.00,0.0106
3023.00,0.0105
3022.00,0.0104
3021.00,0.0103
3020.00,0.0103
3019.00,0.0103
3018.00,0.0103
3017.00,0.0103
3016.00,0.0103
3015.00,0.0104
3014.00,0.0104
3013.00,0.0105
3012.00,0.0106
3011.00,0.0107
3010.00,0.0108
3009.00,0.0110
3008.00,0.0111
3007.00,0.0112
3006.00,0.0112
3005.00,0.0113
3004.00,0.0114
3003.00,0.0115
3002.00,0.0116
3001.00,0.0117
3000.00,0.0119
2999.00,0.0120
2998.00,0.0122
2997.00,0.0124
2996.00,0.0127
2995.00,0.0130
2994.00,0.0133
2993.00,0.0137
2992.00,0.0142
2991.00,0.0146
2990.00,0.0151
2989.00,0.0155
2988.00,0.0158
2987.00,0.0161
2986.00,0.0163
2985.00,0.0164
2984.00,0.0166
2983.00,0.0169
2982.00,0.0174
2981.00,0.0183
2980.00,0.0194
2979.00,0.0209
2978.00,0.0227
2977.00,0.0247
2976.00,0.0269
2975.00,0.0295
2974.00,0.0322
2973.00,0.0351
2972.00,0.0382
2971.00,0.0413
2970.00,0.0444
2969.00,0.0473
2968.00,0.0498
2967.00,0.0517
2966.00,0.0529
2965.00,0.0535
2964.00,0.0536
2963.00,0.0535
2962.00,0.0531
2961.00,0.0525
2960.00,0.0517
2959.00,0.0506
2958.00,0.0492
2957.00,0.0477
2956.00,0.0461
2955.00,0.0446
2954.00,0.0432
2953.00,0.0421
2952.00,0.0413
2951.00,0.0410
2950.00,0.0411
2949.00,0.0418
2948.00,0.0432
2947.00,0.0452
2946.00,0.0476
2945.00,0.0504
2944.00,0.0532
2943.00,0.0559
2942.00,0.0583
2941.00,0.0605
2940.00,0.0626
2939.00,0.0646
2938.00,0.0668
2937.00,0.0692
2936.00,0.0718
2935.00,0.0747
2934.00,0.0777
2933.00,0.0809
2932.00,0.0842
2931.00,0.0875
2930.00,0.0909
2929.00,0.0941
2928.00,0.0970
2927.00,0.0995
2926.00,0.1012
2925.00,0.1021
2924.00,0.1022
2923.00,0.1016
2922.00,0.1007
2921.00,0.0998
2920.00,0.0989
2919.00,0.0981
2918.00,0.0974
2917.00,0.0967
2916.00,0.0957
2915.00,0.0943
2914.00,0.0924
2913.00,0.0900
2912.00,0.0872
2911.00,0.0842
2910.00,0.0810
2909.00,0.0778
2908.00,0.0747
2907.00,0.0718
2906.00,0.0692
2905.00,0.0669
2904.00,0.0649
2903.00,0.0632
2902.00,0.0617
2901.00,0.0603
2900.00,0.0588
2899.00,0.0572
2898.00,0.0555
2897.00,0.0536
2896.00,0.0516
2895.00,0.0498
2894.00,0.0481
2893.00,0.0466
2892.00,0.0454
2891.00,0.0444
2890.00,0.0436
2889.00,0.0430
2888.00,0.0426
2887.00,0.0422
2886.00,0.0420
2885.00,0.0419
2884.00,0.0418
2883.00,0.0418
2882.00,0.0418
2881.00,0.0420
2880.00,0.0424
2879.00,0.0429
2878.00,0.0435
2877.00,0.0442
2876.00,0.0450
2875.00,0.0458
2874.00,0.0466
2873.00,0.0473
2872.00,0.0477
2871.00,0.0478
2870.00,0.0475
2869.00,0.0469
2868.00,0.0463
2867.00,0.0460
2866.00,0.0461
2865.00,0.0469
2864.00,0.0484
2863.00,0.0507
2862.00,0.0539
2861.00,0.0579
2860.00,0.0626
2859.00,0.0675
2858.00,0.0719
2857.00,0.0753
2856.00,0.0769
2855.00,0.0763
2854.00,0.0738
2853.00,0.0698
2852.00,0.0649
2851.00,0.0597
2850.00,0.0546
2849.00,0.0499
2848.00,0.0456
2847.00,0.0418
2846.00,0.0385
2845.00,0.0357
2844.00,0.0333
2843.00,0.0314
2842.00,0.0298
2841.00,0.0286
2840.00,0.0278
2839.00,0.0273
2838.00,0.0273
2837.00,0.0276
2836.00,0.0286
2835.00,0.0301
2834.00,0.0322
2833.00,0.0348
2832.00,0.0376
2831.00,0.0400
2830.00,0.0414
2829.00,0.0415
2828.00,0.0401
2827.00,0.0375
2826.00,0.0342
2825.00,0.0309
2824.00,0.0278
2823.00,0.0252
2822.00,0.0231
2821.00,0.0214
2820.00,0.0201
2819.00,0.0191
2818.00,0.0182
2817.00,0.0175
2816.00,0.0169
2815.00,0.0164
2814.00,0.0160
2813.00,0.0156
2812.00,0.0153
2811.00,0.0150
2810.00,0.0147
2809.00,0.0145
2808.00,0.0142
2807.00,0.0140
2806.00,0.0138
2805.00,0.0136
2804.00,0.0134
2803.00,0.0132
2802.00,0.0130
2801.00,0.0128
2800.00,0.0126
2799.00,0.0125
2798.00,0.0123
2797.00,0.0122
2796.00,0.0120
2795.00,0.0119
2794.00,0.0117
2793.00,0.0116
2792.00,0.0115
2791.00,0.0114
2790.00,0.0114
2789.00,0.0113
2788.00,0.0112
2787.00,0.0111
2786.00,0.0110
2785.00,0.0109
2784.00,0.0108
2783.00,0.0107
2782.00,0.0106
2781.00,0.0105
2780.00,0.0104
2779.00,0.0104
2778.00,0.0103
2777.00,0.0103
2776.00,0.0102
2775.00,0.0101
2774.00,0.0101
2773.00,0.0100
2772.00,0.0099
2771.00,0.0099
2770.00,0.0098
2769.00,0.0098
2768.00,0.0098
2767.00,0.0097
2766.00,0.0097
2765.00,0.0096
2764.00,0.0095
2763.00,0.0095
2762.00,0.0094
2761.00,0.0094
2760.00,0.0094
2759.00,0.0093
2758.00,0.0093
2757.00,0.0093
2756.00,0.0093
2755.00,0.0093
2754.00,0.0093
2753.00,0.0093
2752.00,0.0093
2751.00,0.0093
2750.00,0.0092
2749.00,0.0092
2748.00,0.0092
2747.00,0.0093
2746.00,0.0093
2745.00,0.0094
2744.00,0.0094
2743.00,0.0095
2742.00,0.0095
2741.00,0.0096
2740.00,0.0097
2739.00,0.0098
2738.00,0.0099
2737.00,0.0100
2736.00,0.0101
2735.00,0.0103
2734.00,0.0105
2733.00,0.0107
2732.00,0.0109
2731.00,0.0111
2730.00,0.0113
2729.00,0.0114
2728.00,0.0114
2727.00,0.0112
2726.00,0.0110
2725.00,0.0108
2724.00,0.0106
2723.00,0.0104
2722.00,0.0102
2721.00,0.0100
2720.00,0.0099
2719.00,0.0097
2718.00,0.0096
2717.00,0.0095
2716.00,0.0094
2715.00,0.0093
2714.00,0.0092
2713.00,0.0091
2712.00,0.0091
2711.00,0.0090
2710.00,0.0090
2709.00,0.0089
2708.00,0.0089
2707.00,0.0088
2706.00,0.0088
2705.00,0.0088
2704.00,0.0087
2703.00,0.0087
2702.00,0.0086
2701.00,0.0086
2700.00,0.0086
2699.00,0.0085
2698.00,0.0085
2697.00,0.0085
2696.00,0.0085
2695.00,0.0085
2694.00,0.0085
2693.00,0.0085
2692.00,0.0085
2691.00,0.0085
2690.00,0.0085
2689.00,0.0086
2688.00,0.0086
2687.00,0.0086
2686.00,0.0087
2685.00,0.0087
2684.00,0.0087
2683.00,0.0088
2682.00,0.0088
2681.00,0.0089
2680.00,0.0089
2679.00,0.0089
2678.00,0.0090
2677.00,0.0091
2676.00,0.0091
2675.00,0.0092
2674.00,0.0092
2673.00,0.0092
2672.00,0.0093
2671.00,0.0093
2670.00,0.0093
2669.00,0.0094
2668.00,0.0094
2667.00,0.0094
2666.00,0.0094
2665.00,0.0095
2664.00,0.0095
2663.00,0.0095
2662.00,0.0095
2661.00,0.0095
2660.00,0.0095
2659.00,0.0095
2658.00,0.0095
2657.00,0.0095
2656.00,0.0094
2655.00,0.0094
2654.00,0.0094
2653.00,0.0093
2652.00,0.0093
2651.00,0.0093
2650.00,0.0092
2649.00,0.0091
2648.00,0.0091
2647.00,0.0091
2646.00,0.0090
2645.00,0.0090
2644.00,0.0090
2643.00,0.0090
2642.00,0.0089
2641.00,0.0089
2640.00,0.0089
2639.00,0.0088
2638.00,0.0088
2637.00,0.0088
2636.00,0.0088
2635.00,0.0088
2634.00,0.0089
2633.00,0.0089
2632.00,0.0089
2631.00,0.0089
2630.00,0.0088
2629.00,0.0088
2628.00,0.0088
2627.00,0.0088
2626.00,0.0088
2625.00,0.0088
2624.00,0.0088
2623.00,0.0088
2622.00,0.0088
2621.00,0.0087
2620.00,0.0087
2619.00,0.0087
2618.00,0.0087
2617.00,0.0087
2616.00,0.0087
2615.00,0.0087
2614.00,0.0087
2613.00,0.0086
2612.00,0.0087
2611.00,0.0087
2610.00,0.0087
2609.00,0.0086
2608.00,0.0086
2607.00,0.0086
2606.00,0.0086
2605.00,0.0086
2604.00,0.0086
2603.00,0.0086
2602.00,0.0085
2601.00,0.0085
2600.00,0.0085
2599.00,0.0085
2598.00,0.0085
2597.00,0.0085
2596.00,0.0084
2595.00,0.0084
2594.00,0.0084
2593.00,0.0084
2592.00,0.0083
2591.00,0.0083
2590.00,0.0083
2589.00,0.0083
2588.00,0.0083
2587.00,0.0083
2586.00,0.0083
2585.00,0.0083
2584.00,0.0083
2583.00,0.0083
2582.00,0.0083
2581.00,0.0083
2580.00,0.0083
2579.00,0.0083
2578.00,0.0083
2577.00,0.0083
2576.00,0.0083
2575.00,0.0083
2574.00,0.0083
2573.00,0.0083
2572.00,0.0083
2571.00,0.0083
2570.00,0.0083
2569.00,0.0083
2568.00,0.0083
2567.00,0.0083
2566.00,0.0083
2565.00,0.0083
2564.00,0.0083
2563.00,0.0083
2562.00,0.0083
2561.00,0.0083
2560.00,0.0082
2559.00,0.0082
2558.00,0.0082
2557.00,0.0082
2556.00,0.0082
2555.00,0.0081
2554.00,0.0081
2553.00,0.0081
2552.00,0.0082
2551.00,0.0082
2550.00,0.0082
2549.00,0.0082
2548.00,0.0081
2547.00,0.0081
2546.00,0.0080
2545.00,0.0080
2544.00,0.0080
2543.00,0.0081
2542.00,0.0080
2541.00,0.0080
2540.00,0.0080
2539.00,0.0080
2538.00,0.0080
2537.00,0.0080
2536.00,0.0080
2535.00,0.0080
2534.00,0.0079
2533.00,0.0079
2532.00,0.0079
2531.00,0.0079
2530.00,0.0079
2529.00,0.0079
2528.00,0.0079
2527.00,0.0080
2526.00,0.0079
2525.00,0.0079
2524.00,0.0079
2523.00,0.0079
2522.00,0.0079
2521.00,0.0078
2520.00,0.0078
2519.00,0.0078
2518.00,0.0078
2517.00,0.0078
2516.00,0.0078
2515.00,0.0078
2514.00,0.0078
2513.00,0.0079
2512.00,0.0079
2511.00,0.0079
2510.00,0.0078
2509.00,0.0078
2508.00,0.0078
2507.00,0.0078
2506.00,0.0078
2505.00,0.0078
2504.00,0.0078
2503.00,0.0078
2502.00,0.0078
2501.00,0.0078
2500.00,0.0078
2499.00,0.0078
2498.00,0.0078
2497.00,0.0077
2496.00,0.0077
2495.00,0.0078
2494.00,0.0078
2493.00,0.0078
2492.00,0.0078
2491.00,0.0078
2490.00,0.0078
2489.00,0.0078
2488.00,0.0078
2487.00,0.0078
2486.00,0.0078
2485.00,0.0078
2484.00,0.0078
2483.00,0.0079
2482.00,0.0079
2481.00,0.0079
2480.00,0.0079
2479.00,0.0080
2478.00,0.0080
2477.00,0.0080
2476.00,0.0081
2475.00,0.0080
2474.00,0.0080
2473.00,0.0080
2472.00,0.0080
2471.00,0.0080
2470.00,0.0079
2469.00,0.0079
2468.00,0.0079
2467.00,0.0079
2466.00,0.0080
2465.00,0.0080
2464.00,0.0080
2463.00,0.0081
2462.00,0.0081
2461.00,0.0081
2460.00,0.0082
2459.00,0.0082
2458.00,0.0082
2457.00,0.0082
2456.00,0.0083
2455.00,0.0083
2454.00,0.0083
2453.00,0.0083
2452.00,0.0083
2451.00,0.0083
2450.00,0.0082
2449.00,0.0082
2448.00,0.0081
2447.00,0.0081
2446.00,0.0080
2445.00,0.0079
2444.00,0.0078
2443.00,0.0078
2442.00,0.0077
2441.00,0.0077
2440.00,0.0076
2439.00,0.0076
2438.00,0.0075
2437.00,0.0074
2436.00,0.0073
2435.00,0.0073
2434.00,0.0072
2433.00,0.0072
2432.00,0.0071
2431.00,0.0071
2430.00,0.0071
2429.00,0.0071
2428.00,0.0070
2427.00,0.0070
2426.00,0.0069
2425.00,0.0069
2424.00,0.0068
2423.00,0.0068
2422.00,0.0068
2421.00,0.0068
2420.00,0.0068
2419.00,0.0068
2418.00,0.0068
2417.00,0.0068
2416.00,0.0067
2415.00,0.0067
2414.00,0.0067
2413.00,0.0067
2412.00,0.0068
2411.00,0.0067
2410.00,0.0067
2409.00,0.0066
2408.00,0.0066
2407.00,0.0065
2406.00,0.0065
2405.00,0.0065
2404.00,0.0065
2403.00,0.0065
2402.00,0.0065
2401.00,0.0065
2400.00,0.0065
2399.00,0.0064
2398.00,0.0064
2397.00,0.0064
2396.00,0.0064
2395.00,0.0064
2394.00,0.0064
2393.00,0.0064
2392.00,0.0064
2391.00,0.0064
2390.00,0.0064
2389.00,0.0064
2388.00,0.0064
2387.00,0.0063
2386.00,0.0063
2385.00,0.0062
2384.00,0.0061
2383.00,0.0061
2382.00,0.0060
2381.00,0.0060
2380.00,0.0060
2379.00,0.0060
2378.00,0.0060
2377.00,0.0060
2376.00,0.0060
2375.00,0.0060
2374.00,0.0060
2373.00,0.0061
2372.00,0.0061
2371.00,0.0061
2370.00,0.0060
2369.00,0.0059
2368.00,0.0059
2367.00,0.0058
2366.00,0.0059
2365.00,0.0059
2364.00,0.0060
2363.00,0.0060
2362.00,0.0060
2361.00,0.0060
2360.00,0.0060
2359.00,0.0060
2358.00,0.0060
2357.00,0.0060
2356.00,0.0061
2355.00,0.0061
2354.00,0.0060
2353.00,0.0059
2352.00,0.0059
2351.00,0.0060
2350.00,0.0061
2349.00,0.0062
2348.00,0.0063
2347.00,0.0063
2346.00,0.0063
2345.00,0.0062
2344.00,0.0061
2343.00,0.0061
2342.00,0.0062
2341.00,0.0062
2340.00,0.0063
2339.00,0.0064
2338.00,0.0063
2337.00,0.0063
2336.00,0.0063
2335.00,0.0063
2334.00,0.0063
2333.00,0.0063
2332.00,0.0062
2331.00,0.0062
2330.00,0.0062
2329.00,0.0064
2328.00,0.0068
2327.00,0.0072
2326.00,0.0075
2325.00,0.0076
2324.00,0.0074
2323.00,0.0072
2322.00,0.0069
2321.00,0.0068
2320.00,0.0067
2319.00,0.0066
2318.00,0.0066
2317.00,0.0065
2316.00,0.0065
2315.00,0.0064
2314.00,0.0063
2313.00,0.0062
2312.00,0.0062
2311.00,0.0061
2310.00,0.0061
2309.00,0.0061
2308.00,0.0061
2307.00,0.0061
2306.00,0.0060
2305.00,0.0060
2304.00,0.0061
2303.00,0.0061
2302.00,0.0061
2301.00,0.0062
2300.00,0.0062
2299.00,0.0063
2298.00,0.0064
2297.00,0.0064
2296.00,0.0066
2295.00,0.0067
2294.00,0.0069
2293.00,0.0070
2292.00,0.0071
2291.00,0.0072
2290.00,0.0073
2289.00,0.0073
2288.00,0.0073
2287.00,0.0073
2286.00,0.0073
2285.00,0.0072
2284.00,0.0071
2283.00,0.0071
2282.00,0.0069
2281.00,0.0068
2280.00,0.0067
2279.00,0.0067
2278.00,0.0067
2277.00,0.0067
2276.00,0.0067
2275.00,0.0067
2274.00,0.0067
2273.00,0.0067
2272.00,0.0067
2271.00,0.0066
2270.00,0.0066
2269.00,0.0065
2268.00,0.0064
2267.00,0.0063
2266.00,0.0063
2265.00,0.0063
2264.00,0.0063
2263.00,0.0063
2262.00,0.0063
2261.00,0.0063
2260.00,0.0064
2259.00,0.0064
2258.00,0.0064
2257.00,0.0064
2256.00,0.0063
2255.00,0.0063
2254.00,0.0062
2253.00,0.0062
2252.00,0.0062
2251.00,0.0062
2250.00,0.0062
2249.00,0.0062
2248.00,0.0062
2247.00,0.0062
2246.00,0.0062
2245.00,0.0062
2244.00,0.0062
2243.00,0.0062
2242.00,0.0062
2241.00,0.0062
2240.00,0.0062
2239.00,0.0062
2238.00,0.0063
2237.00,0.0064
2236.00,0.0065
2235.00,0.0065
2234.00,0.0064
2233.00,0.0064
2232.00,0.0063
2231.00,0.0063
2230.00,0.0063
2229.00,0.0062
2228.00,0.0062
2227.00,0.0061
2226.00,0.0061
2225.00,0.0061
2224.00,0.0062
2223.00,0.0062
2222.00,0.0062
2221.00,0.0062
2220.00,0.0062
2219.00,0.0061
2218.00,0.0061
2217.00,0.0061
2216.00,0.0061
2215.00,0.0061
2214.00,0.0061
2213.00,0.0061
2212.00,0.0061
2211.00,0.0061
2210.00,0.0061
2209.00,0.0063
2208.00,0.0064
2207.00,0.0064
2206.00,0.0064
2205.00,0.0064
2204.00,0.0064
2203.00,0.0063
2202.00,0.0062
2201.00,0.0060
2200.00,0.0059
2199.00,0.0058
2198.00,0.0058
2197.00,0.0058
2196.00,0.0059
2195.00,0.0060
2194.00,0.0060
2193.00,0.0061
2192.00,0.0063
2191.00,0.0064
2190.00,0.0065
2189.00,0.0064
2188.00,0.0064
2187.00,0.0062
2186.00,0.0059
2185.00,0.0057
2184.00,0.0056
2183.00,0.0056
2182.00,0.0056
2181.00,0.0056
2180.00,0.0057
2179.00,0.0057
2178.00,0.0056
2177.00,0.0054
2176.00,0.0053
2175.00,0.0053
2174.00,0.0054
2173.00,0.0056
2172.00,0.0060
2171.00,0.0063
2170.00,0.0067
2169.00,0.0071
2168.00,0.0074
2167.00,0.0075
2166.00,0.0074
2165.00,0.0074
2164.00,0.0074
2163.00,0.0071
2162.00,0.0064
2161.00,0.0051
2160.00,0.0036
2159.00,0.0025
2158.00,0.0020
2157.00,0.0021
2156.00,0.0024
2155.00,0.0027
2154.00,0.0029
2153.00,0.0032
2152.00,0.0035
2151.00,0.0036
2150.00,0.0037
2149.00,0.0036
2148.00,0.0036
2147.00,0.0036
2146.00,0.0035
2145.00,0.0035
2144.00,0.0035
2143.00,0.0035
2142.00,0.0035
2141.00,0.0036
2140.00,0.0036
2139.00,0.0036
2138.00,0.0035
2137.00,0.0034
2136.00,0.0032
2135.00,0.0031
2134.00,0.0031
2133.00,0.0033
2132.00,0.0035
2131.00,0.0037
2130.00,0.0038
2129.00,0.0040
2128.00,0.0041
2127.00,0.0043
2126.00,0.0043
2125.00,0.0044
2124.00,0.0045
2123.00,0.0046
2122.00,0.0047
2121.00,0.0048
2120.00,0.0049
2119.00,0.0050
2118.00,0.0051
2117.00,0.0052
2116.00,0.0053
2115.00,0.0053
2114.00,0.0053
2113.00,0.0054
2112.00,0.0054
2111.00,0.0054
2110.00,0.0053
2109.00,0.0052
2108.00,0.0051
2107.00,0.0050
2106.00,0.0050
2105.00,0.0050
2104.00,0.0050
2103.00,0.0050
2102.00,0.0050
2101.00,0.0050
2100.00,0.0050
2099.00,0.0050
2098.00,0.0049
2097.00,0.0047
2096.00,0.0047
2095.00,0.0046
2094.00,0.0047
2093.00,0.0048
2092.00,0.0049
2091.00,0.0050
2090.00,0.0051
2089.00,0.0052
2088.00,0.0053
2087.00,0.0053
2086.00,0.0053
2085.00,0.0053
2084.00,0.0054
2083.00,0.0054
2082.00,0.0054
2081.00,0.0054
2080.00,0.0054
2079.00,0.0054
2078.00,0.0054
2077.00,0.0054
2076.00,0.0054
2075.00,0.0053
2074.00,0.0052
2073.00,0.0051
2072.00,0.0050
2071.00,0.0049
2070.00,0.0048
2069.00,0.0048
2068.00,0.0048
2067.00,0.0047
2066.00,0.0046
2065.00,0.0045
2064.00,0.0045
2063.00,0.0044
2062.00,0.0044
2061.00,0.0044
2060.00,0.0044
2059.00,0.0046
2058.00,0.0047
2057.00,0.0048
2056.00,0.0048
2055.00,0.0048
2054.00,0.0051
2053.00,0.0055
2052.00,0.0059
2051.00,0.0059
2050.00,0.0055
2049.00,0.0051
2048.00,0.0048
2047.00,0.0045
2046.00,0.0043
2045.00,0.0041
2044.00,0.0040
2043.00,0.0039
2042.00,0.0038
2041.00,0.0038
2040.00,0.0039
2039.00,0.0040
2038.00,0.0040
2037.00,0.0039
2036.00,0.0037
2035.00,0.0035
2034.00,0.0032
2033.00,0.0030
2032.00,0.0031
2031.00,0.0031
2030.00,0.0030
2029.00,0.0030
2028.00,0.0032
2027.00,0.0033
2026.00,0.0034
2025.00,0.0035
2024.00,0.0037
2023.00,0.0038
2022.00,0.0038
2021.00,0.0038
2020.00,0.0038
2019.00,0.0037
2018.00,0.0035
2017.00,0.0033
2016.00,0.0033
2015.00,0.0033
2014.00,0.0033
2013.00,0.0034
2012.00,0.0036
2011.00,0.0037
2010.00,0.0035
2009.00,0.0031
2008.00,0.0028
2007.00,0.0025
2006.00,0.0023
2005.00,0.0024
2004.00,0.0027
2003.00,0.0029
2002.00,0.0031
2001.00,0.0032
2000.00,0.0034
1999.00,0.0036
1998.00,0.0037
1997.00,0.0039
1996.00,0.0040
1995.00,0.0042
1994.00,0.0043
1993.00,0.0044
1992.00,0.0045
1991.00,0.0044
1990.00,0.0044
1989.00,0.0045
1988.00,0.0048
1987.00,0.0050
1986.00,0.0050
1985.00,0.0051
1984.00,0.0052
1983.00,0.0055
1982.00,0.0057
1981.00,0.0057
1980.00,0.0055
1979.00,0.0049
1978.00,0.0041
1977.00,0.0034
1976.00,0.0031
1975.00,0.0028
1974.00,0.0027
1973.00,0.0027
1972.00,0.0027
1971.00,0.0028
1970.00,0.0028
1969.00,0.0029
1968.00,0.0031
1967.00,0.0033
1966.00,0.0033
1965.00,0.0033
1964.00,0.0032
1963.00,0.0032
1962.00,0.0031
1961.00,0.0031
1960.00,0.0032
1959.00,0.0032
1958.00,0.0033
1957.00,0.0034
1956.00,0.0035
1955.00,0.0035
1954.00,0.0036
1953.00,0.0037
1952.00,0.0038
1951.00,0.0038
1950.00,0.0038
1949.00,0.0038
1948.00,0.0038
1947.00,0.0038
1946.00,0.0037
1945.00,0.0037
1944.00,0.0037
1943.00,0.0036
1942.00,0.0036
1941.00,0.0036
1940.00,0.0037
1939.00,0.0037
1938.00,0.0037
1937.00,0.0038
1936.00,0.0039
1935.00,0.0039
1934.00,0.0040
1933.00,0.0040
1932.00,0.0041
1931.00,0.0041
1930.00,0.0041
1929.00,0.0040
1928.00,0.0040
1927.00,0.0040
1926.00,0.0039
1925.00,0.0039
1924.00,0.0041
1923.00,0.0042
1922.00,0.0042
1921.00,0.0042
1920.00,0.0042
1919.00,0.0042
1918.00,0.0042
1917.00,0.0041
1916.00,0.0041
1915.00,0.0042
1914.00,0.0043
1913.00,0.0045
1912.00,0.0046
1911.00,0.0047
1910.00,0.0047
1909.00,0.0047
1908.00,0.0047
1907.00,0.0046
1906.00,0.0046
1905.00,0.0046
1904.00,0.0046
1903.00,0.0047
1902.00,0.0047
1901.00,0.0047
1900.00,0.0048
1899.00,0.0048
1898.00,0.0048
1897.00,0.0048
1896.00,0.0049
1895.00,0.0049
1894.00,0.0048
1893.00,0.0047
1892.00,0.0048
1891.00,0.0048
1890.00,0.0048
1889.00,0.0048
1888.00,0.0048
1887.00,0.0047
1886.00,0.0047
1885.00,0.0048
1884.00,0.0049
1883.00,0.0049
1882.00,0.0049
1881.00,0.0049
1880.00,0.0050
1879.00,0.0051
1878.00,0.0051
1877.00,0.0051
1876.00,0.0051
1875.00,0.0051
1874.00,0.0050
1873.00,0.0049
1872.00,0.0048
1871.00,0.0047
1870.00,0.0047
1869.00,0.0047
1868.00,0.0047
1867.00,0.0047
1866.00,0.0047
1865.00,0.0048
1864.00,0.0049
1863.00,0.0050
1862.00,0.0050
1861.00,0.0050
1860.00,0.0050
1859.00,0.0050
1858.00,0.0050
1857.00,0.0050
1856.00,0.0050
1855.00,0.0050
1854.00,0.0050
1853.00,0.0049
1852.00,0.0049
1851.00,0.0049
1850.00,0.0049
1849.00,0.0049
1848.00,0.0048
1847.00,0.0047
1846.00,0.0046
1845.00,0.0046
1844.00,0.0046
1843.00,0.0046
1842.00,0.0046
1841.00,0.0047
1840.00,0.0049
1839.00,0.0050
1838.00,0.0051
1837.00,0.0051
1836.00,0.0052
1835.00,0.0052
1834.00,0.0051
1833.00,0.0051
1832.00,0.0051
1831.00,0.0051
1830.00,0.0051
1829.00,0.0051
1828.00,0.0050
1827.00,0.0050
1826.00,0.0051
1825.00,0.0052
1824.00,0.0053
1823.00,0.0054
1822.00,0.0054
1821.00,0.0054
1820.00,0.0054
1819.00,0.0053
1818.00,0.0052
1817.00,0.0052
1816.00,0.0053
1815.00,0.0054
1814.00,0.0054
1813.00,0.0055
1812.00,0.0057
1811.00,0.0058
1810.00,0.0059
1809.00,0.0060
1808.00,0.0061
1807.00,0.0063
1806.00,0.0064
1805.00,0.0065
1804.00,0.0066
1803.00,0.0066
1802.00,0.0066
1801.00,0.0065
1800.00,0.0065
1799.00,0.0065
1798.00,0.0064
1797.00,0.0064
1796.00,0.0063
1795.00,0.0062
1794.00,0.0059
1793.00,0.0057
1792.00,0.0056
1791.00,0.0056
1790.00,0.0056
1789.00,0.0057
1788.00,0.0058
1787.00,0.0059
1786.00,0.0060
1785.00,0.0060
1784.00,0.0060
1783.00,0.0060
1782.00,0.0061
1781.00,0.0062
1780.00,0.0063
1779.00,0.0063
1778.00,0.0063
1777.00,0.0064
1776.00,0.0065
1775.00,0.0067
1774.00,0.0067
1773.00,0.0068
1772.00,0.0068
1771.00,0.0066
1770.00,0.0065
1769.00,0.0065
1768.00,0.0065
1767.00,0.0064
1766.00,0.0063
1765.00,0.0062
1764.00,0.0062
1763.00,0.0061
1762.00,0.0060
1761.00,0.0059
1760.00,0.0059
1759.00,0.0059
1758.00,0.0060
1757.00,0.0060
1756.00,0.0059
1755.00,0.0058
1754.00,0.0058
1753.00,0.0058
1752.00,0.0058
1751.00,0.0057
1750.00,0.0056
1749.00,0.0056
1748.00,0.0057
1747.00,0.0057
1746.00,0.0058
1745.00,0.0060
1744.00,0.0061
1743.00,0.0061
1742.00,0.0060
1741.00,0.0059
1740.00,0.0060
1739.00,0.0060
1738.00,0.0060
1737.00,0.0060
1736.00,0.0060
1735.00,0.0061
1734.00,0.0061
1733.00,0.0060
1732.00,0.0061
1731.00,0.0063
1730.00,0.0065
1729.00,0.0067
1728.00,0.0068
1727.00,0.0069
1726.00,0.0070
1725.00,0.0072
1724.00,0.0073
1723.00,0.0073
1722.00,0.0072
1721.00,0.0071
1720.00,0.0071
1719.00,0.0071
1718.00,0.0072
1717.00,0.0073
1716.00,0.0073
1715.00,0.0074
1714.00,0.0076
1713.00,0.0078
1712.00,0.0082
1711.00,0.0085
1710.00,0.0086
1709.00,0.0088
1708.00,0.0089
1707.00,0.0091
1706.00,0.0094
1705.00,0.0097
1704.00,0.0099
1703.00,0.0099
1702.00,0.0099
1701.00,0.0099
1700.00,0.0103
1699.00,0.0107
1698.00,0.0114
1697.00,0.0123
1696.00,0.0133
1695.00,0.0139
1694.00,0.0141
1693.00,0.0145
1692.00,0.0150
1691.00,0.0156
1690.00,0.0162
1689.00,0.0166
1688.00,0.0170
1687.00,0.0174
1686.00,0.0177
1685.00,0.0182
1684.00,0.0188
1683.00,0.0192
1682.00,0.0196
1681.00,0.0203
1680.00,0.0210
1679.00,0.0215
1678.00,0.0218
1677.00,0.0220
1676.00,0.0223
1675.00,0.0227
1674.00,0.0231
1673.00,0.0235
1672.00,0.0239
1671.00,0.0244
1670.00,0.0250
1669.00,0.0257
1668.00,0.0265
1667.00,0.0272
1666.00,0.0278
1665.00,0.0283
1664.00,0.0290
1663.00,0.0295
1662.00,0.0299
1661.00,0.0301
1660.00,0.0303
1659.00,0.0305
1658.00,0.0305
1657.00,0.0305
1656.00,0.0306
1655.00,0.0309
1654.00,0.0320
1653.00,0.0340
1652.00,0.0357
1651.00,0.0369
1650.00,0.0381
1649.00,0.0402
1648.00,0.0446
1647.00,0.0515
1646.00,0.0591
1645.00,0.0648
1644.00,0.0675
1643.00,0.0675
1642.00,0.0656
1641.00,0.0627
1640.00,0.0601
1639.00,0.0584
1638.00,0.0583
1637.00,0.0609
1636.00,0.0670
1635.00,0.0746
1634.00,0.0808
1633.00,0.0850
1632.00,0.0880
1631.00,0.0902
1630.00,0.0919
1629.00,0.0939
1628.00,0.0967
1627.00,0.1002
1626.00,0.1042
1625.00,0.1085
1624.00,0.1128
1623.00,0.1150
1622.00,0.1131
1621.00,0.1073
1620.00,0.0993
1619.00,0.0902
1618.00,0.0803
1617.00,0.0702
1616.00,0.0614
1615.00,0.0547
1614.00,0.0498
1613.00,0.0460
1612.00,0.0425
1611.00,0.0394
1610.00,0.0367
1609.00,0.0345
1608.00,0.0326
1607.00,0.0310
1606.00,0.0298
1605.00,0.0288
1604.00,0.0281
1603.00,0.0277
1602.00,0.0275
1601.00,0.0276
1600.00,0.0279
1599.00,0.0285
1598.00,0.0294
1597.00,0.0308
1596.00,0.0327
1595.00,0.0353
1594.00,0.0388
1593.00,0.0434
1592.00,0.0494
1591.00,0.0569
1590.00,0.0658
1589.00,0.0756
1588.00,0.0857
1587.00,0.0954
1586.00,0.1042
1585.00,0.1120
1584.00,0.1187
1583.00,0.1237
1582.00,0.1260
1581.00,0.1252
1580.00,0.1213
1579.00,0.1149
1578.00,0.1065
1577.00,0.0962
1576.00,0.0852
1575.00,0.0754
1574.00,0.0678
1573.00,0.0616
1572.00,0.0561
1571.00,0.0506
1570.00,0.0452
1569.00,0.0402
1568.00,0.0362
1567.00,0.0331
1566.00,0.0305
1565.00,0.0281
1564.00,0.0259
1563.00,0.0242
1562.00,0.0228
1561.00,0.0214
1560.00,0.0198
1559.00,0.0185
1558.00,0.0175
1557.00,0.0169
1556.00,0.0169
1555.00,0.0169
1554.00,0.0167
1553.00,0.0164
1552.00,0.0160
1551.00,0.0157
1550.00,0.0155
1549.00,0.0151
1548.00,0.0146
1547.00,0.0142
1546.00,0.0139
1545.00,0.0136
1544.00,0.0132
1543.00,0.0129
1542.00,0.0126
1541.00,0.0126
1540.00,0.0129
1539.00,0.0130
1538.00,0.0129
1537.00,0.0130
1536.00,0.0130
1535.00,0.0130
1534.00,0.0131
1533.00,0.0132
1532.00,0.0133
1531.00,0.0134
1530.00,0.0136
1529.00,0.0137
1528.00,0.0139
1527.00,0.0142
1526.00,0.0145
1525.00,0.0148
1524.00,0.0153
1523.00,0.0163
1522.00,0.0182
1521.00,0.0207
1520.00,0.0229
1519.00,0.0249
1518.00,0.0272
1517.00,0.0298
1516.00,0.0321
1515.00,0.0333
1514.00,0.0335
1513.00,0.0330
1512.00,0.0317
1511.00,0.0299
1510.00,0.0281
1509.00,0.0263
1508.00,0.0248
1507.00,0.0236
1506.00,0.0224
1505.00,0.0217
1504.00,0.0215
1503.00,0.0215
1502.00,0.0214
1501.00,0.0212
1500.00,0.0207
1499.00,0.0203
1498.00,0.0198
1497.00,0.0194
1496.00,0.0190
1495.00,0.0186
1494.00,0.0181
1493.00,0.0175
1492.00,0.0170
1491.00,0.0165
1490.00,0.0160
1489.00,0.0157
1488.00,0.0154
1487.00,0.0152
1486.00,0.0150
1485.00,0.0149
1484.00,0.0149
1483.00,0.0149
1482.00,0.0149
1481.00,0.0150
1480.00,0.0151
1479.00,0.0152
1478.00,0.0154
1477.00,0.0158
1476.00,0.0164
1475.00,0.0170
1474.00,0.0181
1473.00,0.0202
1472.00,0.0235
1471.00,0.0274
1470.00,0.0317
1469.00,0.0364
1468.00,0.0408
1467.00,0.0446
1466.00,0.0475
1465.00,0.0500
1464.00,0.0522
1463.00,0.0541
1462.00,0.0558
1461.00,0.0571
1460.00,0.0581
1459.00,0.0589
1458.00,0.0605
1457.00,0.0634
1456.00,0.0669
1455.00,0.0704
1454.00,0.0744
1453.00,0.0797
1452.00,0.0865
1451.00,0.0944
1450.00,0.1035
1449.00,0.1142
1448.00,0.1263
1447.00,0.1379
1446.00,0.1471
1445.00,0.1536
1444.00,0.1575
1443.00,0.1592
1442.00,0.1591
1441.00,0.1577
1440.00,0.1552
1439.00,0.1517
1438.00,0.1480
1437.00,0.1443
1436.00,0.1403
1435.00,0.1357
1434.00,0.1307
1433.00,0.1254
1432.00,0.1196
1431.00,0.1129
1430.00,0.1051
1429.00,0.0962
1428.00,0.0869
1427.00,0.0779
1426.00,0.0698
1425.00,0.0626
1424.00,0.0564
1423.00,0.0516
1422.00,0.0479
1421.00,0.0447
1420.00,0.0417
1419.00,0.0390
1418.00,0.0366
1417.00,0.0345
1416.00,0.0327
1415.00,0.0310
1414.00,0.0295
1413.00,0.0280
1412.00,0.0265
1411.00,0.0253
1410.00,0.0242
1409.00,0.0232
1408.00,0.0223
1407.00,0.0216
1406.00,0.0211
1405.00,0.0205
1404.00,0.0199
1403.00,0.0194
1402.00,0.0190
1401.00,0.0185
1400.00,0.0180
1399.00,0.0176
1398.00,0.0174
1397.00,0.0171
1396.00,0.0168
1395.00,0.0167
1394.00,0.0165
1393.00,0.0164
1392.00,0.0163
1391.00,0.0164
1390.00,0.0167
1389.00,0.0170
1388.00,0.0175
1387.00,0.0183
1386.00,0.0194
1385.00,0.0208
1384.00,0.0226
1383.00,0.0252
1382.00,0.0287
1381.00,0.0333
1380.00,0.0391
1379.00,0.0462
1378.00,0.0538
1377.00,0.0609
1376.00,0.0661
1375.00,0.0686
1374.00,0.0679
1373.00,0.0648
1372.00,0.0607
1371.00,0.0565
1370.00,0.0527
1369.00,0.0491
1368.00,0.0460
1367.00,0.0433
1366.00,0.0409
1365.00,0.0386
1364.00,0.0363
1363.00,0.0343
1362.00,0.0325
1361.00,0.0311
1360.00,0.0300
1359.00,0.0293
1358.00,0.0288
1357.00,0.0285
1356.00,0.0283
1355.00,0.0284
1354.00,0.0285
1353.00,0.0286
1352.00,0.0288
1351.00,0.0291
1350.00,0.0295
1349.00,0.0302
1348.00,0.0310
1347.00,0.0320
1346.00,0.0331
1345.00,0.0342
1344.00,0.0351
1343.00,0.0358
1342.00,0.0362
1341.00,0.0361
1340.00,0.0354
1339.00,0.0342
1338.00,0.0329
1337.00,0.0318
1336.00,0.0312
1335.00,0.0312
1334.00,0.0318
1333.00,0.0329
1332.00,0.0343
1331.00,0.0359
1330.00,0.0375
1329.00,0.0391
1328.00,0.0406
1327.00,0.0422
1326.00,0.0437
1325.00,0.0451
1324.00,0.0460
1323.00,0.0460
1322.00,0.0451
1321.00,0.0437
1320.00,0.0424
1319.00,0.0419
1318.00,0.0427
1317.00,0.0450
1316.00,0.0487
1315.00,0.0537
1314.00,0.0591
1313.00,0.0641
1312.00,0.0675
1311.00,0.0688
1310.00,0.0683
1309.00,0.0665
1308.00,0.0646
1307.00,0.0634
1306.00,0.0634
1305.00,0.0646
1304.00,0.0664
1303.00,0.0683
1302.00,0.0698
1301.00,0.0706
1300.00,0.0707
1299.00,0.0703
1298.00,0.0697
1297.00,0.0688
1296.00,0.0677
1295.00,0.0665
1294.00,0.0652
1293.00,0.0640
1292.00,0.0629
1291.00,0.0619
1290.00,0.0612
1289.00,0.0609
1288.00,0.0613
1287.00,0.0625
1286.00,0.0645
1285.00,0.0670
1284.00,0.0698
1283.00,0.0725
1282.00,0.0749
1281.00,0.0769
1280.00,0.0782
1279.00,0.0787
1278.00,0.0785
1277.00,0.0775
1276.00,0.0757
1275.00,0.0734
1274.00,0.0704
1273.00,0.0670
1272.00,0.0631
1271.00,0.0589
1270.00,0.0548
1269.00,0.0507
1268.00,0.0470
1267.00,0.0437
1266.00,0.0409
1265.00,0.0384
1264.00,0.0363
1263.00,0.0345
1262.00,0.0329
1261.00,0.0315
1260.00,0.0302
1259.00,0.0291
1258.00,0.0282
1257.00,0.0275
1256.00,0.0271
1255.00,0.0269
1254.00,0.0271
1253.00,0.0277
1252.00,0.0288
1251.00,0.0302
1250.00,0.0319
1249.00,0.0333
1248.00,0.0344
1247.00,0.0351
1246.00,0.0361
1245.00,0.0377
1244.00,0.0404
1243.00,0.0446
1242.00,0.0503
1241.00,0.0573
1240.00,0.0650
1239.00,0.0726
1238.00,0.0787
1237.00,0.0827
1236.00,0.0843
1235.00,0.0841
1234.00,0.0826
1233.00,0.0803
1232.00,0.0774
1231.00,0.0745
1230.00,0.0726
1229.00,0.0726
1228.00,0.0749
1227.00,0.0794
1226.00,0.0855
1225.00,0.0925
1224.00,0.0997
1223.00,0.1074
1222.00,0.1158
1221.00,0.1256
1220.00,0.1373
1219.00,0.1509
1218.00,0.1654
1217.00,0.1792
1216.00,0.1900
1215.00,0.1959
1214.00,0.1960
1213.00,0.1905
1212.00,0.1807
1211.00,0.1685
1210.00,0.1554
1209.00,0.1429
1208.00,0.1317
1207.00,0.1222
1206.00,0.1139
1205.00,0.1062
1204.00,0.0986
1203.00,0.0909
1202.00,0.0832
1201.00,0.0757
1200.00,0.0687
1199.00,0.0625
1198.00,0.0573
1197.00,0.0531
1196.00,0.0499
1195.00,0.0476
1194.00,0.0462
1193.00,0.0454
1192.00,0.0453
1191.00,0.0458
1190.00,0.0466
1189.00,0.0477
1188.00,0.0489
1187.00,0.0502
1186.00,0.0517
1185.00,0.0532
1184.00,0.0548
1183.00,0.0562
1182.00,0.0574
1181.00,0.0583
1180.00,0.0591
1179.00,0.0598
1178.00,0.0605
1177.00,0.0611
1176.00,0.0618
1175.00,0.0633
1174.00,0.0657
1173.00,0.0682
1172.00,0.0692
1171.00,0.0674
1170.00,0.0626
1169.00,0.0561
1168.00,0.0494
1167.00,0.0437
1166.00,0.0391
1165.00,0.0356
1164.00,0.0328
1163.00,0.0308
1162.00,0.0294
1161.00,0.0285
1160.00,0.0280
1159.00,0.0281
1158.00,0.0288
1157.00,0.0304
1156.00,0.0334
1155.00,0.0384
1154.00,0.0459
1153.00,0.0554
1152.00,0.0651
1151.00,0.0718
1150.00,0.0729
1149.00,0.0677
1148.00,0.0584
1147.00,0.0483
1146.00,0.0399
1145.00,0.0338
1144.00,0.0297
1143.00,0.0270
1142.00,0.0254
1141.00,0.0245
1140.00,0.0242
1139.00,0.0244
1138.00,0.0250
1137.00,0.0258
1136.00,0.0265
1135.00,0.0269
1134.00,0.0268
1133.00,0.0262
1132.00,0.0250
1131.00,0.0236
1130.00,0.0223
1129.00,0.0210
1128.00,0.0199
1127.00,0.0191
1126.00,0.0185
1125.00,0.0180
1124.00,0.0176
1123.00,0.0174
1122.00,0.0173
1121.00,0.0173
1120.00,0.0173
1119.00,0.0173
1118.00,0.0176
1117.00,0.0178
1116.00,0.0181
1115.00,0.0185
1114.00,0.0189
1113.00,0.0193
1112.00,0.0196
1111.00,0.0201
1110.00,0.0208
1109.00,0.0216
1108.00,0.0226
1107.00,0.0237
1106.00,0.0250
1105.00,0.0263
1104.00,0.0277
1103.00,0.0294
1102.00,0.0313
1101.00,0.0333
1100.00,0.0350
1099.00,0.0359
1098.00,0.0356
1097.00,0.0340
1096.00,0.0317
1095.00,0.0292
1094.00,0.0272
1093.00,0.0255
1092.00,0.0242
1091.00,0.0232
1090.00,0.0225
1089.00,0.0220
1088.00,0.0218
1087.00,0.0220
1086.00,0.0227
1085.00,0.0239
1084.00,0.0258
1083.00,0.0282
1082.00,0.0309
1081.00,0.0335
1080.00,0.0352
1079.00,0.0357
1078.00,0.0349
1077.00,0.0331
1076.00,0.0309
1075.00,0.0288
1074.00,0.0271
1073.00,0.0257
1072.00,0.0246
1071.00,0.0237
1070.00,0.0231
1069.00,0.0227
1068.00,0.0223
1067.00,0.0222
1066.00,0.0223
1065.00,0.0225
1064.00,0.0229
1063.00,0.0236
1062.00,0.0248
1061.00,0.0263
1060.00,0.0283
1059.00,0.0313
1058.00,0.0358
1057.00,0.0421
1056.00,0.0503
1055.00,0.0596
1054.00,0.0687
1053.00,0.0759
1052.00,0.0802
1051.00,0.0815
1050.00,0.0801
1049.00,0.0760
1048.00,0.0697
1047.00,0.0623
1046.00,0.0555
1045.00,0.0501
1044.00,0.0468
1043.00,0.0454
1042.00,0.0454
1041.00,0.0464
1040.00,0.0481
1039.00,0.0506
1038.00,0.0543
1037.00,0.0595
1036.00,0.0664
1035.00,0.0748
1034.00,0.0835
1033.00,0.0906
1032.00,0.0944
1031.00,0.0940
1030.00,0.0901
1029.00,0.0844
1028.00,0.0786
1027.00,0.0743
1026.00,0.0726
1025.00,0.0739
1024.00,0.0783
1023.00,0.0858
1022.00,0.0954
1021.00,0.1054
1020.00,0.1134
1019.00,0.1171
1018.00,0.1157
1017.00,0.1102
1016.00,0.1022
1015.00,0.0937
1014.00,0.0856
1013.00,0.0783
1012.00,0.0722
1011.00,0.0677
1010.00,0.0651
1009.00,0.0641
1008.00,0.0644
1007.00,0.0660
1006.00,0.0688
1005.00,0.0725
1004.00,0.0762
1003.00,0.0790
1002.00,0.0802
1001.00,0.0792
1000.00,0.0758
999.00,0.0703
998.00,0.0636
997.00,0.0568
996.00,0.0508
995.00,0.0461
994.00,0.0429
993.00,0.0408
992.00,0.0399
991.00,0.0400
990.00,0.0411
989.00,0.0426
988.00,0.0442
987.00,0.0457
986.00,0.0468
985.00,0.0471
984.00,0.0465
983.00,0.0447
982.00,0.0422
981.00,0.0396
980.00,0.0373
979.00,0.0356
978.00,0.0346
977.00,0.0338
976.00,0.0330
975.00,0.0322
974.00,0.0316
973.00,0.0313
972.00,0.0314
971.00,0.0321
970.00,0.0334
969.00,0.0351
968.00,0.0369
967.00,0.0389
966.00,0.0412
965.00,0.0439
964.00,0.0470
963.00,0.0501
962.00,0.0525
961.00,0.0533
960.00,0.0518
959.00,0.0484
958.00,0.0439
957.00,0.0392
956.00,0.0349
955.00,0.0314
954.00,0.0287
953.00,0.0267
952.00,0.0251
951.00,0.0239
950.00,0.0231
949.00,0.0224
948.00,0.0219
947.00,0.0215
946.00,0.0212
945.00,0.0209
944.00,0.0207
943.00,0.0205
942.00,0.0203
941.00,0.0202
940.00,0.0201
939.00,0.0201
938.00,0.0202
937.00,0.0203
936.00,0.0204
935.00,0.0207
934.00,0.0212
933.00,0.0218
932.00,0.0225
931.00,0.0231
930.00,0.0238
929.00,0.0242
928.00,0.0243
927.00,0.0242
926.00,0.0241
925.00,0.0241
924.00,0.0239
923.00,0.0239
922.00,0.0239
921.00,0.0241
920.00,0.0246
919.00,0.0255
918.00,0.0267
917.00,0.0280
916.00,0.0290
915.00,0.0296
914.00,0.0297
913.00,0.0294
912.00,0.0290
911.00,0.0290
910.00,0.0295
909.00,0.0306
908.00,0.0324
907.00,0.0351
906.00,0.0385
905.00,0.0426
904.00,0.0472
903.00,0.0528
902.00,0.0599
901.00,0.0691
900.00,0.0805
899.00,0.0938
898.00,0.1070
897.00,0.1168
896.00,0.1205
895.00,0.1173
894.00,0.1091
893.00,0.0987
892.00,0.0886
891.00,0.0806
890.00,0.0759
889.00,0.0754
888.00,0.0800
887.00,0.0900
886.00,0.1050
885.00,0.1218
884.00,0.1353
883.00,0.1403
882.00,0.1348
881.00,0.1210
880.00,0.1038
879.00,0.0877
878.00,0.0748
877.00,0.0656
876.00,0.0594
875.00,0.0558
874.00,0.0545
873.00,0.0551
872.00,0.0572
871.00,0.0599
870.00,0.0620
869.00,0.0623
868.00,0.0609
867.00,0.0594
866.00,0.0592
865.00,0.0613
864.00,0.0655
863.00,0.0703
862.00,0.0742
861.00,0.0762
860.00,0.0762
859.00,0.0754
858.00,0.0752
857.00,0.0762
856.00,0.0784
855.00,0.0811
854.00,0.0840
853.00,0.0866
852.00,0.0887
851.00,0.0900
850.00,0.0898
849.00,0.0880
848.00,0.0847
847.00,0.0810
846.00,0.0779
845.00,0.0756
844.00,0.0740
843.00,0.0726
842.00,0.0710
841.00,0.0691
840.00,0.0672
839.00,0.0659
838.00,0.0655
837.00,0.0660
836.00,0.0672
835.00,0.0692
834.00,0.0719
833.00,0.0750
832.00,0.0781
831.00,0.0812
830.00,0.0840
829.00,0.0861
828.00,0.0872
827.00,0.0867
826.00,0.0846
825.00,0.0807
824.00,0.0755
823.00,0.0697
822.00,0.0638
821.00,0.0580
820.00,0.0525
819.00,0.0477
818.00,0.0438
817.00,0.0409
816.00,0.0388
815.00,0.0372
814.00,0.0359
813.00,0.0349
812.00,0.0342
811.00,0.0342
810.00,0.0355
809.00,0.0387
808.00,0.0444
807.00,0.0527
806.00,0.0619
805.00,0.0690
804.00,0.0714
803.00,0.0687
802.00,0.0625
801.00,0.0554
800.00,0.0490
799.00,0.0438
798.00,0.0400
797.00,0.0371
796.00,0.0351
795.00,0.0338
794.00,0.0332
793.00,0.0330
792.00,0.0327
791.00,0.0324
790.00,0.0321
789.00,0.0318
788.00,0.0317
787.00,0.0319
786.00,0.0322
785.00,0.0320
784.00,0.0313
783.00,0.0302
782.00,0.0293
781.00,0.0285
780.00,0.0281
779.00,0.0281
778.00,0.0281
777.00,0.0281
776.00,0.0279
775.00,0.0275
774.00,0.0273
773.00,0.0274
772.00,0.0276
771.00,0.0278
770.00,0.0280
769.00,0.0277
768.00,0.0269
767.00,0.0258
766.00,0.0248
765.00,0.0238
764.00,0.0230
763.00,0.0224
762.00,0.0221
761.00,0.0221
760.00,0.0221
759.00,0.0224
758.00,0.0229
757.00,0.0237
756.00,0.0249
755.00,0.0268
754.00,0.0293
753.00,0.0321
752.00,0.0344
751.00,0.0361
750.00,0.0374
749.00,0.0381
748.00,0.0377
747.00,0.0362
746.00,0.0338
745.00,0.0312
744.00,0.0289
743.00,0.0272
742.00,0.0260
741.00,0.0252
740.00,0.0247
739.00,0.0246
738.00,0.0249
737.00,0.0255
736.00,0.0264
735.00,0.0277
734.00,0.0296
733.00,0.0320
732.00,0.0342
731.00,0.0356
730.00,0.0356
729.00,0.0341
728.00,0.0321
727.00,0.0302
726.00,0.0291
725.00,0.0284
724.00,0.0279
723.00,0.0275
722.00,0.0272
721.00,0.0269
720.00,0.0266
719.00,0.0261
718.00,0.0254
717.00,0.0245
716.00,0.0235
715.00,0.0227
714.00,0.0222
713.00,0.0219
712.00,0.0218
711.00,0.0217
710.00,0.0216
709.00,0.0212
708.00,0.0206
707.00,0.0200
706.00,0.0197
705.00,0.0194
704.00,0.0192
703.00,0.0191
702.00,0.0190
701.00,0.0190
700.00,0.0190
699.00,0.0190
698.00,0.0191
697.00,0.0191
696.00,0.0191
695.00,0.0191
694.00,0.0192
693.00,0.0193
692.00,0.0194
691.00,0.0194
690.00,0.0196
689.00,0.0197
688.00,0.0199
687.00,0.0201
686.00,0.0205
685.00,0.0208
684.00,0.0210
683.00,0.0213
682.00,0.0217
681.00,0.0221
680.00,0.0225
679.00,0.0231
678.00,0.0237
677.00,0.0244
676.00,0.0252
675.00,0.0261
674.00,0.0274
673.00,0.0289
672.00,0.0306
671.00,0.0326
670.00,0.0348
669.00,0.0370
668.00,0.0388
667.00,0.0398
666.00,0.0402
665.00,0.0406
664.00,0.0411
663.00,0.0416
662.00,0.0421
661.00,0.0424
660.00,0.0425
659.00,0.0427
658.00,0.0427
657.00,0.0426
656.00,0.0421
655.00,0.0418
654.00,0.0419
653.00,0.0424
652.00,0.0432
651.00,0.0445
650.00,0.0458
649.00,0.0466
648.00,0.0465
647.00,0.0455
646.00,0.0440
645.00,0.0420
644.00,0.0399
643.00,0.0380
642.00,0.0366
641.00,0.0355
640.00,0.0346
639.00,0.0341
638.00,0.0339
637.00,0.0339
636.00,0.0339
635.00,0.0341
634.00,0.0346
633.00,0.0351
632.00,0.0357
631.00,0.0363
630.00,0.0371
629.00,0.0379
628.00,0.0386
627.00,0.0394
626.00,0.0402
625.00,0.0409
624.00,0.0413
623.00,0.0413
622.00,0.0409
621.00,0.0398
620.00,0.0381
619.00,0.0361
618.00,0.0343
617.00,0.0331
616.00,0.0328
615.00,0.0341
614.00,0.0369
613.00,0.0407
612.00,0.0443
611.00,0.0467
610.00,0.0474
609.00,0.0467
608.00,0.0456
607.00,0.0451
606.00,0.0455
605.00,0.0464
604.00,0.0474
603.00,0.0484
602.00,0.0497
601.00,0.0513
600.00,0.0530
599.00,0.0544
598.00,0.0552
597.00,0.0553
596.00,0.0549
595.00,0.0549
594.00,0.0557
593.00,0.0574
592.00,0.0598
591.00,0.0629
590.00,0.0665
589.00,0.0701
588.00,0.0731
587.00,0.0750
586.00,0.0757
585.00,0.0749
584.00,0.0728
583.00,0.0699
582.00,0.0668
581.00,0.0636
580.00,0.0606
579.00,0.0583
578.00,0.0567
577.00,0.0559
576.00,0.0556
575.00,0.0557
574.00,0.0564
573.00,0.0571
572.00,0.0579
571.00,0.0587
570.00,0.0596
569.00,0.0603
568.00,0.0608
567.00,0.0613
566.00,0.0618
565.00,0.0622
564.00,0.0622
563.00,0.0623
562.00,0.0625
561.00,0.0625
560.00,0.0623
559.00,0.0621
558.00,0.0620
557.00,0.0620
556.00,0.0620
555.00,0.0622
554.00,0.0630
553.00,0.0643
552.00,0.0659
551.00,0.0678
550.00,0.0698
549.00,0.0712
548.00,0.0722
547.00,0.0734
546.00,0.0752
545.00,0.0770
544.00,0.0782
543.00,0.0788
542.00,0.0794
541.00,0.0805
540.00,0.0825
539.00,0.0860
538.00,0.0906
537.00,0.0950
536.00,0.0978
535.00,0.0987
534.00,0.0979
533.00,0.0961
532.00,0.0940
531.00,0.0923
530.00,0.0913
529.00,0.0911
528.00,0.0922
527.00,0.0955
526.00,0.1011
525.00,0.1078
524.00,0.1145
523.00,0.1203
522.00,0.1238
521.00,0.1227
520.00,0.1165
519.00,0.1070
518.00,0.0973
517.00,0.0891
516.00,0.0830
515.00,0.0790
514.00,0.0768
513.00,0.0758
512.00,0.0758
511.00,0.0766
510.00,0.0782
509.00,0.0803
508.00,0.0827
507.00,0.0857
506.00,0.0896
505.00,0.0938
504.00,0.0981
503.00,0.1028
502.00,0.1082
501.00,0.1135
500.00,0.1181
499.00,0.1223
498.00,0.1262
497.00,0.1292
496.00,0.1311
495.00,0.1323
494.00,0.1330
493.00,0.1332
492.00,0.1327
491.00,0.1320
490.00,0.1313
489.00,0.1305
488.00,0.1296
487.00,0.1289
486.00,0.1287
485.00,0.1285
484.00,0.1275
483.00,0.1260
482.00,0.1240
481.00,0.1213
480.00,0.1179
479.00,0.1146
478.00,0.1123
477.00,0.1107
476.00,0.1096
475.00,0.1092
474.00,0.1098
473.00,0.1110
472.00,0.1123
471.00,0.1142
470.00,0.1166
469.00,0.1189
468.00,0.1204
467.00,0.1215
466.00,0.1224
465.00,0.1227
464.00,0.1226
463.00,0.1224
462.00,0.1227
461.00,0.1226
460.00,0.1216
459.00,0.1203
458.00,0.1196
457.00,0.1193
456.00,0.1190
455.00,0.1188
454.00,0.1189
453.00,0.1186
452.00,0.1174
451.00,0.1158
450.00,0.1142
449.00,0.1125
448.00,0.1103
447.00,0.1081
446.00,0.1064
445.00,0.1046
444.00,0.1026
443.00,0.1008
442.00,0.0998
441.00,0.0989
440.00,0.0980
439.00,0.0975
438.00,0.0976
437.00,0.0975
436.00,0.0967
435.00,0.0960
434.00,0.0959
433.00,0.0962
432.00,0.0965
431.00,0.0978
430.00,0.1008
429.00,0.1047
428.00,0.1091
427.00,0.1142
426.00,0.1196
425.00,0.1237
424.00,0.1254
423.00,0.1252
422.00,0.1244
421.00,0.1231
420.00,0.1211
419.00,0.1193
418.00,0.1186
417.00,0.1177
416.00,0.1163
415.00,0.1157
414.00,0.1169
413.00,0.1186
412.00,0.1200
411.00,0.1219
410.00,0.1250
409.00,0.1283
408.00,0.1309
407.00,0.1339
406.00,0.1377
405.00,0.1408
404.00,0.1426
403.00,0.1445
402.00,0.1475
401.00,0.1497
400.00,0.1497
