Created as New Dataset,Sample 1040 By YargerLab Date Monday, August 04 2025
cm-1,A
4000.00,0.0067
3999.00,0.0067
3998.00,0.0067
3997.00,0.0067
3996.00,0.0067
3995.00,0.0068
3994.00,0.0068
3993.00,0.0068
3992.00,0.0068
3991.00,0.0068
3990.00,0.0068
3989.00,0.0068
3988.00,0.0068
3987.00,0.0068
3986.00,0.0068
3985.00,0.0068
3984.00,0.0068
3983.00,0.0068
3982.00,0.0068
3981.00,0.0068
3980.00,0.0068
3979.00,0.0068
3978.00,0.0068
3977.00,0.0068
3976.00,0.0068
3975.00,0.0068
3974.00,0.0068
3973.00,0.0068
3972.00,0.0068
3971.00,0.0068
3970.00,0.0069
3969.00,0.0069
3968.00,0.0069
3967.00,0.0068
3966.00,0.0068
3965.00,0.0068
3964.00,0.0068
3963.00,0.0068
3962.00,0.0068
3961.00,0.0068
3960.00,0.0068
3959.00,0.0068
3958.00,0.0068
3957.00,0.0068
3956.00,0.0068
3955.00,0.0068
3954.00,0.0068
3953.00,0.0068
3952.00,0.0068
3951.00,0.0068
3950.00,0.0068
3949.00,0.0068
3948.00,0.0068
3947.00,0.0068
3946.00,0.0068
3945.00,0.0068
3944.00,0.0068
3943.00,0.0068
3942.00,0.0067
3941.00,0.0067
3940.00,0.0067
3939.00,0.0067
3938.00,0.0067
3937.00,0.0067
3936.00,0.0068
3935.00,0.0068
3934.00,0.0068
3933.00,0.0068
3932.00,0.0068
3931.00,0.0068
3930.00,0.0068
3929.00,0.0068
3928.00,0.0068
3927.00,0.0068
3926.00,0.0068
3925.00,0.0068
3924.00,0.0068
3923.00,0.0068
3922.00,0.0068
3921.00,0.0068
3920.00,0.0068
3919.00,0.0068
3918.00,0.0068
3917.00,0.0068
3916.00,0.0068
3915.00,0.0068
3914.00,0.0068
3913.00,0.0068
3912.00,0.0068
3911.00,0.0068
3910.00,0.0068
3909.00,0.0068
3908.00,0.0068
3907.00,0.0068
3906.00,0.0068
3905.00,0.0068
3904.00,0.0068
3903.00,0.0069
3902.00,0.0069
3901.00,0.0069
3900.00,0.0068
3899.00,0.0068
3898.00,0.0068
3897.00,0.0068
3896.00,0.0068
3895.00,0.0068
3894.00,0.0068
3893.00,0.0068
3892.00,0.0068
3891.00,0.0068
3890.00,0.0068
3889.00,0.0068
3888.00,0.0068
3887.00,0.0068
3886.00,0.0068
3885.00,0.0068
3884.00,0.0068
3883.00,0.0068
3882.00,0.0068
3881.00,0.0068
3880.00,0.0068
3879.00,0.0068
3878.00,0.0068
3877.00,0.0068
3876.00,0.0068
3875.00,0.0068
3874.00,0.0068
3873.00,0.0068
3872.00,0.0068
3871.00,0.0068
3870.00,0.0068
3869.00,0.0068
3868.00,0.0068
3867.00,0.0068
3866.00,0.0068
3865.00,0.0068
3864.00,0.0068
3863.00,0.0068
3862.00,0.0068
3861.00,0.0068
3860.00,0.0068
3859.00,0.0068
3858.00,0.0068
3857.00,0.0068
3856.00,0.0068
3855.00,0.0069
3854.00,0.0069
3853.00,0.0069
3852.00,0.0069
3851.00,0.0069
3850.00,0.0068
3849.00,0.0068
3848.00,0.0068
3847.00,0.0068
3846.00,0.0068
3845.00,0.0068
3844.00,0.0068
3843.00,0.0068
3842.00,0.0068
3841.00,0.0069
3840.00,0.0069
3839.00,0.0069
3838.00,0.0069
3837.00,0.0069
3836.00,0.0068
3835.00,0.0068
3834.00,0.0068
3833.00,0.0068
3832.00,0.0068
3831.00,0.0068
3830.00,0.0068
3829.00,0.0068
3828.00,0.0068
3827.00,0.0068
3826.00,0.0068
3825.00,0.0068
3824.00,0.0068
3823.00,0.0068
3822.00,0.0068
3821.00,0.0068
3820.00,0.0068
3819.00,0.0068
3818.00,0.0069
3817.00,0.0069
3816.00,0.0069
3815.00,0.0069
3814.00,0.0068
3813.00,0.0068
3812.00,0.0068
3811.00,0.0068
3810.00,0.0068
3809.00,0.0068
3808.00,0.0068
3807.00,0.0068
3806.00,0.0068
3805.00,0.0068
3804.00,0.0068
3803.00,0.0068
3802.00,0.0068
3801.00,0.0068
3800.00,0.0068
3799.00,0.0068
3798.00,0.0068
3797.00,0.0068
3796.00,0.0068
3795.00,0.0068
3794.00,0.0067
3793.00,0.0067
3792.00,0.0067
3791.00,0.0067
3790.00,0.0067
3789.00,0.0067
3788.00,0.0067
3787.00,0.0067
3786.00,0.0067
3785.00,0.0067
3784.00,0.0067
3783.00,0.0067
3782.00,0.0067
3781.00,0.0067
3780.00,0.0068
3779.00,0.0068
3778.00,0.0068
3777.00,0.0068
3776.00,0.0067
3775.00,0.0067
3774.00,0.0067
3773.00,0.0067
3772.00,0.0067
3771.00,0.0067
3770.00,0.0068
3769.00,0.0068
3768.00,0.0068
3767.00,0.0068
3766.00,0.0068
3765.00,0.0067
3764.00,0.0067
3763.00,0.0067
3762.00,0.0067
3761.00,0.0067
3760.00,0.0068
3759.00,0.0068
3758.00,0.0068
3757.00,0.0068
3756.00,0.0068
3755.00,0.0069
3754.00,0.0069
3753.00,0.0069
3752.00,0.0070
3751.00,0.0069
3750.00,0.0069
3749.00,0.0069
3748.00,0.0069
3747.00,0.0069
3746.00,0.0069
3745.00,0.0069
3744.00,0.0069
3743.00,0.0069
3742.00,0.0069
3741.00,0.0069
3740.00,0.0069
3739.00,0.0070
3738.00,0.0070
3737.00,0.0070
3736.00,0.0070
3735.00,0.0069
3734.00,0.0069
3733.00,0.0069
3732.00,0.0068
3731.00,0.0068
3730.00,0.0068
3729.00,0.0067
3728.00,0.0067
3727.00,0.0067
3726.00,0.0067
3725.00,0.0067
3724.00,0.0067
3723.00,0.0067
3722.00,0.0067
3721.00,0.0067
3720.00,0.0067
3719.00,0.0066
3718.00,0.0067
3717.00,0.0067
3716.00,0.0067
3715.00,0.0067
3714.00,0.0067
3713.00,0.0067
3712.00,0.0067
3711.00,0.0067
3710.00,0.0067
3709.00,0.0067
3708.00,0.0067
3707.00,0.0067
3706.00,0.0067
3705.00,0.0067
3704.00,0.0067
3703.00,0.0066
3702.00,0.0066
3701.00,0.0066
3700.00,0.0066
3699.00,0.0067
3698.00,0.0067
3697.00,0.0067
3696.00,0.0067
3695.00,0.0067
3694.00,0.0067
3693.00,0.0067
3692.00,0.0067
3691.00,0.0067
3690.00,0.0067
3689.00,0.0067
3688.00,0.0068
3687.00,0.0068
3686.00,0.0068
3685.00,0.0069
3684.00,0.0069
3683.00,0.0069
3682.00,0.0069
3681.00,0.0069
3680.00,0.0069
3679.00,0.0070
3678.00,0.0070
3677.00,0.0070
3676.00,0.0070
3675.00,0.0070
3674.00,0.0071
3673.00,0.0071
3672.00,0.0072
3671.00,0.0072
3670.00,0.0072
3669.00,0.0072
3668.00,0.0072
3667.00,0.0072
3666.00,0.0072
3665.00,0.0072
3664.00,0.0072
3663.00,0.0072
3662.00,0.0072
3661.00,0.0072
3660.00,0.0073
3659.00,0.0073
3658.00,0.0073
3657.00,0.0074
3656.00,0.0074
3655.00,0.0074
3654.00,0.0075
3653.00,0.0075
3652.00,0.0076
3651.00,0.0076
3650.00,0.0077
3649.00,0.0077
3648.00,0.0078
3647.00,0.0079
3646.00,0.0079
3645.00,0.0079
3644.00,0.0079
3643.00,0.0079
3642.00,0.0079
3641.00,0.0079
3640.00,0.0080
3639.00,0.0080
3638.00,0.0081
3637.00,0.0081
3636.00,0.0081
3635.00,0.0082
3634.00,0.0082
3633.00,0.0083
3632.00,0.0083
3631.00,0.0084
3630.00,0.0084
3629.00,0.0085
3628.00,0.0086
3627.00,0.0087
3626.00,0.0087
3625.00,0.0088
3624.00,0.0088
3623.00,0.0088
3622.00,0.0089
3621.00,0.0089
3620.00,0.0090
3619.00,0.0090
3618.00,0.0091
3617.00,0.0092
3616.00,0.0093
3615.00,0.0094
3614.00,0.0095
3613.00,0.0095
3612.00,0.0096
3611.00,0.0097
3610.00,0.0097
3609.00,0.0098
3608.00,0.0098
3607.00,0.0099
3606.00,0.0100
3605.00,0.0101
3604.00,0.0101
3603.00,0.0102
3602.00,0.0103
3601.00,0.0103
3600.00,0.0104
3599.00,0.0105
3598.00,0.0106
3597.00,0.0107
3596.00,0.0108
3595.00,0.0109
3594.00,0.0110
3593.00,0.0110
3592.00,0.0111
3591.00,0.0112
3590.00,0.0112
3589.00,0.0114
3588.00,0.0115
3587.00,0.0116
3586.00,0.0117
3585.00,0.0118
3584.00,0.0119
3583.00,0.0120
3582.00,0.0121
3581.00,0.0122
3580.00,0.0123
3579.00,0.0124
3578.00,0.0125
3577.00,0.0126
3576.00,0.0127
3575.00,0.0128
3574.00,0.0129
3573.00,0.0129
3572.00,0.0130
3571.00,0.0131
3570.00,0.0132
3569.00,0.0134
3568.00,0.0135
3567.00,0.0137
3566.00,0.0139
3565.00,0.0140
3564.00,0.0141
3563.00,0.0142
3562.00,0.0142
3561.00,0.0143
3560.00,0.0144
3559.00,0.0145
3558.00,0.0146
3557.00,0.0147
3556.00,0.0148
3555.00,0.0149
3554.00,0.0150
3553.00,0.0152
3552.00,0.0153
3551.00,0.0155
3550.00,0.0156
3549.00,0.0156
3548.00,0.0157
3547.00,0.0158
3546.00,0.0159
3545.00,0.0161
3544.00,0.0162
3543.00,0.0163
3542.00,0.0164
3541.00,0.0164
3540.00,0.0165
3539.00,0.0166
3538.00,0.0167
3537.00,0.0168
3536.00,0.0169
3535.00,0.0170
3534.00,0.0171
3533.00,0.0172
3532.00,0.0173
3531.00,0.0173
3530.00,0.0174
3529.00,0.0175
3528.00,0.0176
3527.00,0.0177
3526.00,0.0178
3525.00,0.0179
3524.00,0.0180
3523.00,0.0181
3522.00,0.0182
3521.00,0.0183
3520.00,0.0183
3519.00,0.0184
3518.00,0.0185
3517.00,0.0185
3516.00,0.0186
3515.00,0.0186
3514.00,0.0187
3513.00,0.0187
3512.00,0.0188
3511.00,0.0189
3510.00,0.0190
3509.00,0.0190
3508.00,0.0191
3507.00,0.0192
3506.00,0.0193
3505.00,0.0194
3504.00,0.0195
3503.00,0.0195
3502.00,0.0196
3501.00,0.0197
3500.00,0.0198
3499.00,0.0198
3498.00,0.0199
3497.00,0.0200
3496.00,0.0201
3495.00,0.0202
3494.00,0.0203
3493.00,0.0203
3492.00,0.0204
3491.00,0.0205
3490.00,0.0206
3489.00,0.0206
3488.00,0.0207
3487.00,0.0208
3486.00,0.0209
3485.00,0.0210
3484.00,0.0211
3483.00,0.0212
3482.00,0.0213
3481.00,0.0215
3480.00,0.0216
3479.00,0.0217
3478.00,0.0217
3477.00,0.0218
3476.00,0.0219
3475.00,0.0221
3474.00,0.0222
3473.00,0.0223
3472.00,0.0224
3471.00,0.0225
3470.00,0.0226
3469.00,0.0227
3468.00,0.0228
3467.00,0.0229
3466.00,0.0230
3465.00,0.0231
3464.00,0.0232
3463.00,0.0234
3462.00,0.0235
3461.00,0.0236
3460.00,0.0237
3459.00,0.0238
3458.00,0.0239
3457.00,0.0240
3456.00,0.0241
3455.00,0.0243
3454.00,0.0244
3453.00,0.0245
3452.00,0.0246
3451.00,0.0247
3450.00,0.0248
3449.00,0.0250
3448.00,0.0251
3447.00,0.0252
3446.00,0.0254
3445.00,0.0255
3444.00,0.0257
3443.00,0.0258
3442.00,0.0259
3441.00,0.0261
3440.00,0.0262
3439.00,0.0263
3438.00,0.0264
3437.00,0.0266
3436.00,0.0267
3435.00,0.0269
3434.00,0.0270
3433.00,0.0272
3432.00,0.0274
3431.00,0.0275
3430.00,0.0277
3429.00,0.0279
3428.00,0.0281
3427.00,0.0282
3426.00,0.0284
3425.00,0.0286
3424.00,0.0288
3423.00,0.0290
3422.00,0.0292
3421.00,0.0293
3420.00,0.0295
3419.00,0.0297
3418.00,0.0299
3417.00,0.0300
3416.00,0.0302
3415.00,0.0304
3414.00,0.0306
3413.00,0.0307
3412.00,0.0308
3411.00,0.0310
3410.00,0.0311
3409.00,0.0311
3408.00,0.0312
3407.00,0.0313
3406.00,0.0314
3405.00,0.0315
3404.00,0.0315
3403.00,0.0316
3402.00,0.0316
3401.00,0.0316
3400.00,0.0315
3399.00,0.0315
3398.00,0.0315
3397.00,0.0314
3396.00,0.0314
3395.00,0.0313
3394.00,0.0312
3393.00,0.0311
3392.00,0.0311
3391.00,0.0310
3390.00,0.0309
3389.00,0.0308
3388.00,0.0306
3387.00,0.0305
3386.00,0.0304
3385.00,0.0302
3384.00,0.0301
3383.00,0.0300
3382.00,0.0298
3381.00,0.0297
3380.00,0.0296
3379.00,0.0294
3378.00,0.0293
3377.00,0.0291
3376.00,0.0290
3375.00,0.0289
3374.00,0.0287
3373.00,0.0286
3372.00,0.0284
3371.00,0.0282
3370.00,0.0280
3369.00,0.0279
3368.00,0.0277
3367.00,0.0276
3366.00,0.0276
3365.00,0.0275
3364.00,0.0274
3363.00,0.0273
3362.00,0.0272
3361.00,0.0271
3360.00,0.0270
3359.00,0.0269
3358.00,0.0268
3357.00,0.0268
3356.00,0.0267
3355.00,0.0266
3354.00,0.0264
3353.00,0.0263
3352.00,0.0261
3351.00,0.0260
3350.00,0.0260
3349.00,0.0260
3348.00,0.0259
3347.00,0.0259
3346.00,0.0258
3345.00,0.0257
3344.00,0.0257
3343.00,0.0256
3342.00,0.0255
3341.00,0.0254
3340.00,0.0253
3339.00,0.0253
3338.00,0.0253
3337.00,0.0253
3336.00,0.0253
3335.00,0.0254
3334.00,0.0254
3333.00,0.0254
3332.00,0.0253
3331.00,0.0253
3330.00,0.0253
3329.00,0.0252
3328.00,0.0252
3327.00,0.0251
3326.00,0.0251
3325.00,0.0251
3324.00,0.0252
3323.00,0.0252
3322.00,0.0253
3321.00,0.0253
3320.00,0.0254
3319.00,0.0254
3318.00,0.0254
3317.00,0.0254
3316.00,0.0254
3315.00,0.0254
3314.00,0.0254
3313.00,0.0254
3312.00,0.0254
3311.00,0.0253
3310.00,0.0252
3309.00,0.0251
3308.00,0.0251
3307.00,0.0251
3306.00,0.0252
3305.00,0.0253
3304.00,0.0254
3303.00,0.0256
3302.00,0.0257
3301.00,0.0258
3300.00,0.0258
3299.00,0.0258
3298.00,0.0258
3297.00,0.0258
3296.00,0.0258
3295.00,0.0258
3294.00,0.0259
3293.00,0.0259
3292.00,0.0260
3291.00,0.0261
3290.00,0.0263
3289.00,0.0264
3288.00,0.0265
3287.00,0.0265
3286.00,0.0266
3285.00,0.0266
3284.00,0.0267
3283.00,0.0267
3282.00,0.0268
3281.00,0.0268
3280.00,0.0268
3279.00,0.0268
3278.00,0.0268
3277.00,0.0268
3276.00,0.0268
3275.00,0.0268
3274.00,0.0268
3273.00,0.0268
3272.00,0.0268
3271.00,0.0268
3270.00,0.0269
3269.00,0.0270
3268.00,0.0271
3267.00,0.0272
3266.00,0.0273
3265.00,0.0273
3264.00,0.0274
3263.00,0.0274
3262.00,0.0274
3261.00,0.0274
3260.00,0.0274
3259.00,0.0274
3258.00,0.0274
3257.00,0.0274
3256.00,0.0274
3255.00,0.0275
3254.00,0.0276
3253.00,0.0277
3252.00,0.0277
3251.00,0.0277
3250.00,0.0277
3249.00,0.0276
3248.00,0.0276
3247.00,0.0276
3246.00,0.0276
3245.00,0.0277
3244.00,0.0277
3243.00,0.0277
3242.00,0.0277
3241.00,0.0277
3240.00,0.0277
3239.00,0.0276
3238.00,0.0276
3237.00,0.0275
3236.00,0.0274
3235.00,0.0273
3234.00,0.0273
3233.00,0.0272
3232.00,0.0272
3231.00,0.0272
3230.00,0.0272
3229.00,0.0272
3228.00,0.0271
3227.00,0.0271
3226.00,0.0270
3225.00,0.0269
3224.00,0.0269
3223.00,0.0268
3222.00,0.0267
3221.00,0.0266
3220.00,0.0265
3219.00,0.0264
3218.00,0.0263
3217.00,0.0262
3216.00,0.0261
3215.00,0.0260
3214.00,0.0259
3213.00,0.0257
3212.00,0.0256
3211.00,0.0255
3210.00,0.0253
3209.00,0.0252
3208.00,0.0250
3207.00,0.0249
3206.00,0.0248
3205.00,0.0246
3204.00,0.0245
3203.00,0.0243
3202.00,0.0242
3201.00,0.0241
3200.00,0.0239
3199.00,0.0238
3198.00,0.0236
3197.00,0.0234
3196.00,0.0233
3195.00,0.0231
3194.00,0.0230
3193.00,0.0228
3192.00,0.0227
3191.00,0.0225
3190.00,0.0224
3189.00,0.0222
3188.00,0.0221
3187.00,0.0219
3186.00,0.0218
3185.00,0.0217
3184.00,0.0215
3183.00,0.0214
3182.00,0.0212
3181.00,0.0211
3180.00,0.0210
3179.00,0.0209
3178.00,0.0208
3177.00,0.0207
3176.00,0.0205
3175.00,0.0204
3174.00,0.0202
3173.00,0.0201
3172.00,0.0199
3171.00,0.0198
3170.00,0.0197
3169.00,0.0195
3168.00,0.0193
3167.00,0.0192
3166.00,0.0191
3165.00,0.0189
3164.00,0.0188
3163.00,0.0187
3162.00,0.0185
3161.00,0.0184
3160.00,0.0183
3159.00,0.0181
3158.00,0.0180
3157.00,0.0178
3156.00,0.0177
3155.00,0.0175
3154.00,0.0173
3153.00,0.0172
3152.00,0.0171
3151.00,0.0170
3150.00,0.0169
3149.00,0.0168
3148.00,0.0167
3147.00,0.0166
3146.00,0.0165
3145.00,0.0164
3144.00,0.0162
3143.00,0.0161
3142.00,0.0160
3141.00,0.0159
3140.00,0.0158
3139.00,0.0157
3138.00,0.0157
3137.00,0.0156
3136.00,0.0155
3135.00,0.0154
3134.00,0.0153
3133.00,0.0152
3132.00,0.0151
3131.00,0.0151
3130.00,0.0150
3129.00,0.0149
3128.00,0.0148
3127.00,0.0148
3126.00,0.0147
3125.00,0.0146
3124.00,0.0146
3123.00,0.0145
3122.00,0.0144
3121.00,0.0143
3120.00,0.0142
3119.00,0.0142
3118.00,0.0141
3117.00,0.0140
3116.00,0.0140
3115.00,0.0139
3114.00,0.0138
3113.00,0.0138
3112.00,0.0137
3111.00,0.0136
3110.00,0.0135
3109.00,0.0134
3108.00,0.0134
3107.00,0.0133
3106.00,0.0132
3105.00,0.0131
3104.00,0.0131
3103.00,0.0130
3102.00,0.0130
3101.00,0.0129
3100.00,0.0129
3099.00,0.0128
3098.00,0.0128
3097.00,0.0128
3096.00,0.0127
3095.00,0.0127
3094.00,0.0127
3093.00,0.0127
3092.00,0.0127
3091.00,0.0127
3090.00,0.0127
3089.00,0.0127
3088.00,0.0127
3087.00,0.0127
3086.00,0.0126
3085.00,0.0126
3084.00,0.0126
3083.00,0.0126
3082.00,0.0126
3081.00,0.0125
3080.00,0.0125
3079.00,0.0125
3078.00,0.0124
3077.00,0.0124
3076.00,0.0124
3075.00,0.0124
3074.00,0.0123
3073.00,0.0123
3072.00,0.0122
3071.00,0.0122
3070.00,0.0121
3069.00,0.0121
3068.00,0.0121
3067.00,0.0121
3066.00,0.0121
3065.00,0.0121
3064.00,0.0121
3063.00,0.0121
3062.00,0.0121
3061.00,0.0120
3060.00,0.0120
3059.00,0.0121
3058.00,0.0121
3057.00,0.0121
3056.00,0.0121
3055.00,0.0121
3054.00,0.0121
3053.00,0.0121
3052.00,0.0120
3051.00,0.0120
3050.00,0.0120
3049.00,0.0120
3048.00,0.0120
3047.00,0.0119
3046.00,0.0119
3045.00,0.0119
3044.00,0.0120
3043.00,0.0120
3042.00,0.0120
3041.00,0.0120
3040.00,0.0120
3039.00,0.0121
3038.00,0.0122
3037.00,0.0123
3036.00,0.0123
3035.00,0.0124
3034.00,0.0125
3033.00,0.0125
3032.00,0.0125
3031.00,0.0125
3030.00,0.0124
3029.00,0.0124
3028.00,0.0123
3027.00,0.0122
3026.00,0.0121
3025.00,0.0121
3024.00,0.0120
3023.00,0.0119
3022.00,0.0119
3021.00,0.0118
3020.00,0.0118
3019.00,0.0117
3018.00,0.0117
3017.00,0.0117
3016.00,0.0118
3015.00,0.0118
3014.00,0.0119
3013.00,0.0120
3012.00,0.0121
3011.00,0.0122
3010.00,0.0123
3009.00,0.0125
3008.00,0.0127
3007.00,0.0129
3006.00,0.0131
3005.00,0.0134
3004.00,0.0137
3003.00,0.0140
3002.00,0.0143
3001.00,0.0146
3000.00,0.0150
2999.00,0.0154
2998.00,0.0159
2997.00,0.0164
2996.00,0.0169
2995.00,0.0174
2994.00,0.0179
2993.00,0.0183
2992.00,0.0188
2991.00,0.0192
2990.00,0.0196
2989.00,0.0200
2988.00,0.0203
2987.00,0.0207
2986.00,0.0212
2985.00,0.0217
2984.00,0.0223
2983.00,0.0230
2982.00,0.0238
2981.00,0.0246
2980.00,0.0253
2979.00,0.0258
2978.00,0.0261
2977.00,0.0264
2976.00,0.0267
2975.00,0.0270
2974.00,0.0276
2973.00,0.0284
2972.00,0.0293
2971.00,0.0302
2970.00,0.0309
2969.00,0.0315
2968.00,0.0320
2967.00,0.0324
2966.00,0.0328
2965.00,0.0333
2964.00,0.0338
2963.00,0.0343
2962.00,0.0349
2961.00,0.0353
2960.00,0.0356
2959.00,0.0356
2958.00,0.0355
2957.00,0.0350
2956.00,0.0345
2955.00,0.0338
2954.00,0.0331
2953.00,0.0325
2952.00,0.0319
2951.00,0.0315
2950.00,0.0311
2949.00,0.0308
2948.00,0.0307
2947.00,0.0307
2946.00,0.0309
2945.00,0.0311
2944.00,0.0314
2943.00,0.0319
2942.00,0.0324
2941.00,0.0330
2940.00,0.0336
2939.00,0.0344
2938.00,0.0354
2937.00,0.0365
2936.00,0.0378
2935.00,0.0392
2934.00,0.0407
2933.00,0.0423
2932.00,0.0438
2931.00,0.0453
2930.00,0.0465
2929.00,0.0476
2928.00,0.0483
2927.00,0.0486
2926.00,0.0485
2925.00,0.0481
2924.00,0.0474
2923.00,0.0464
2922.00,0.0454
2921.00,0.0443
2920.00,0.0431
2919.00,0.0419
2918.00,0.0407
2917.00,0.0395
2916.00,0.0383
2915.00,0.0372
2914.00,0.0362
2913.00,0.0353
2912.00,0.0345
2911.00,0.0338
2910.00,0.0330
2909.00,0.0323
2908.00,0.0317
2907.00,0.0311
2906.00,0.0305
2905.00,0.0300
2904.00,0.0296
2903.00,0.0292
2902.00,0.0288
2901.00,0.0284
2900.00,0.0280
2899.00,0.0277
2898.00,0.0273
2897.00,0.0270
2896.00,0.0268
2895.00,0.0266
2894.00,0.0264
2893.00,0.0262
2892.00,0.0260
2891.00,0.0258
2890.00,0.0257
2889.00,0.0255
2888.00,0.0254
2887.00,0.0252
2886.00,0.0251
2885.00,0.0250
2884.00,0.0250
2883.00,0.0249
2882.00,0.0250
2881.00,0.0251
2880.00,0.0253
2879.00,0.0256
2878.00,0.0260
2877.00,0.0264
2876.00,0.0268
2875.00,0.0272
2874.00,0.0276
2873.00,0.0278
2872.00,0.0280
2871.00,0.0280
2870.00,0.0278
2869.00,0.0276
2868.00,0.0275
2867.00,0.0274
2866.00,0.0275
2865.00,0.0278
2864.00,0.0284
2863.00,0.0291
2862.00,0.0299
2861.00,0.0310
2860.00,0.0320
2859.00,0.0330
2858.00,0.0338
2857.00,0.0343
2856.00,0.0345
2855.00,0.0344
2854.00,0.0341
2853.00,0.0336
2852.00,0.0328
2851.00,0.0318
2850.00,0.0305
2849.00,0.0291
2848.00,0.0276
2847.00,0.0262
2846.00,0.0249
2845.00,0.0237
2844.00,0.0227
2843.00,0.0217
2842.00,0.0208
2841.00,0.0200
2840.00,0.0193
2839.00,0.0187
2838.00,0.0182
2837.00,0.0178
2836.00,0.0174
2835.00,0.0171
2834.00,0.0167
2833.00,0.0164
2832.00,0.0161
2831.00,0.0159
2830.00,0.0156
2829.00,0.0153
2828.00,0.0151
2827.00,0.0148
2826.00,0.0146
2825.00,0.0144
2824.00,0.0142
2823.00,0.0140
2822.00,0.0139
2821.00,0.0137
2820.00,0.0135
2819.00,0.0134
2818.00,0.0132
2817.00,0.0131
2816.00,0.0130
2815.00,0.0129
2814.00,0.0128
2813.00,0.0127
2812.00,0.0125
2811.00,0.0125
2810.00,0.0124
2809.00,0.0123
2808.00,0.0123
2807.00,0.0122
2806.00,0.0122
2805.00,0.0121
2804.00,0.0121
2803.00,0.0120
2802.00,0.0120
2801.00,0.0119
2800.00,0.0118
2799.00,0.0118
2798.00,0.0117
2797.00,0.0116
2796.00,0.0116
2795.00,0.0115
2794.00,0.0115
2793.00,0.0114
2792.00,0.0114
2791.00,0.0113
2790.00,0.0113
2789.00,0.0112
2788.00,0.0112
2787.00,0.0112
2786.00,0.0111
2785.00,0.0111
2784.00,0.0110
2783.00,0.0110
2782.00,0.0110
2781.00,0.0109
2780.00,0.0109
2779.00,0.0109
2778.00,0.0108
2777.00,0.0108
2776.00,0.0108
2775.00,0.0107
2774.00,0.0107
2773.00,0.0107
2772.00,0.0107
2771.00,0.0107
2770.00,0.0106
2769.00,0.0106
2768.00,0.0106
2767.00,0.0106
2766.00,0.0106
2765.00,0.0106
2764.00,0.0105
2763.00,0.0105
2762.00,0.0105
2761.00,0.0105
2760.00,0.0105
2759.00,0.0105
2758.00,0.0105
2757.00,0.0106
2756.00,0.0106
2755.00,0.0106
2754.00,0.0106
2753.00,0.0105
2752.00,0.0105
2751.00,0.0105
2750.00,0.0105
2749.00,0.0105
2748.00,0.0105
2747.00,0.0106
2746.00,0.0106
2745.00,0.0106
2744.00,0.0106
2743.00,0.0106
2742.00,0.0106
2741.00,0.0106
2740.00,0.0106
2739.00,0.0107
2738.00,0.0107
2737.00,0.0107
2736.00,0.0108
2735.00,0.0108
2734.00,0.0109
2733.00,0.0109
2732.00,0.0110
2731.00,0.0110
2730.00,0.0110
2729.00,0.0110
2728.00,0.0110
2727.00,0.0109
2726.00,0.0109
2725.00,0.0109
2724.00,0.0108
2723.00,0.0108
2722.00,0.0107
2721.00,0.0107
2720.00,0.0107
2719.00,0.0107
2718.00,0.0106
2717.00,0.0106
2716.00,0.0105
2715.00,0.0105
2714.00,0.0105
2713.00,0.0105
2712.00,0.0105
2711.00,0.0105
2710.00,0.0104
2709.00,0.0104
2708.00,0.0105
2707.00,0.0105
2706.00,0.0105
2705.00,0.0104
2704.00,0.0104
2703.00,0.0104
2702.00,0.0104
2701.00,0.0104
2700.00,0.0103
2699.00,0.0103
2698.00,0.0103
2697.00,0.0103
2696.00,0.0102
2695.00,0.0102
2694.00,0.0102
2693.00,0.0102
2692.00,0.0101
2691.00,0.0101
2690.00,0.0101
2689.00,0.0101
2688.00,0.0101
2687.00,0.0101
2686.00,0.0101
2685.00,0.0101
2684.00,0.0100
2683.00,0.0100
2682.00,0.0100
2681.00,0.0100
2680.00,0.0100
2679.00,0.0100
2678.00,0.0100
2677.00,0.0100
2676.00,0.0100
2675.00,0.0100
2674.00,0.0100
2673.00,0.0100
2672.00,0.0100
2671.00,0.0100
2670.00,0.0101
2669.00,0.0101
2668.00,0.0101
2667.00,0.0101
2666.00,0.0102
2665.00,0.0102
2664.00,0.0103
2663.00,0.0103
2662.00,0.0104
2661.00,0.0104
2660.00,0.0105
2659.00,0.0105
2658.00,0.0105
2657.00,0.0105
2656.00,0.0105
2655.00,0.0105
2654.00,0.0105
2653.00,0.0105
2652.00,0.0105
2651.00,0.0105
2650.00,0.0105
2649.00,0.0105
2648.00,0.0105
2647.00,0.0104
2646.00,0.0104
2645.00,0.0104
2644.00,0.0104
2643.00,0.0104
2642.00,0.0104
2641.00,0.0104
2640.00,0.0104
2639.00,0.0103
2638.00,0.0103
2637.00,0.0103
2636.00,0.0103
2635.00,0.0103
2634.00,0.0102
2633.00,0.0102
2632.00,0.0102
2631.00,0.0101
2630.00,0.0101
2629.00,0.0100
2628.00,0.0100
2627.00,0.0100
2626.00,0.0100
2625.00,0.0100
2624.00,0.0100
2623.00,0.0100
2622.00,0.0099
2621.00,0.0099
2620.00,0.0099
2619.00,0.0099
2618.00,0.0099
2617.00,0.0099
2616.00,0.0099
2615.00,0.0099
2614.00,0.0099
2613.00,0.0099
2612.00,0.0099
2611.00,0.0099
2610.00,0.0099
2609.00,0.0098
2608.00,0.0098
2607.00,0.0098
2606.00,0.0098
2605.00,0.0098
2604.00,0.0098
2603.00,0.0099
2602.00,0.0099
2601.00,0.0099
2600.00,0.0099
2599.00,0.0099
2598.00,0.0099
2597.00,0.0099
2596.00,0.0099
2595.00,0.0099
2594.00,0.0100
2593.00,0.0100
2592.00,0.0100
2591.00,0.0100
2590.00,0.0100
2589.00,0.0100
2588.00,0.0100
2587.00,0.0100
2586.00,0.0100
2585.00,0.0100
2584.00,0.0100
2583.00,0.0100
2582.00,0.0100
2581.00,0.0100
2580.00,0.0099
2579.00,0.0099
2578.00,0.0099
2577.00,0.0098
2576.00,0.0098
2575.00,0.0098
2574.00,0.0098
2573.00,0.0098
2572.00,0.0098
2571.00,0.0098
2570.00,0.0098
2569.00,0.0098
2568.00,0.0098
2567.00,0.0098
2566.00,0.0098
2565.00,0.0098
2564.00,0.0097
2563.00,0.0097
2562.00,0.0097
2561.00,0.0097
2560.00,0.0096
2559.00,0.0096
2558.00,0.0095
2557.00,0.0095
2556.00,0.0095
2555.00,0.0095
2554.00,0.0096
2553.00,0.0095
2552.00,0.0095
2551.00,0.0095
2550.00,0.0095
2549.00,0.0095
2548.00,0.0094
2547.00,0.0094
2546.00,0.0094
2545.00,0.0093
2544.00,0.0093
2543.00,0.0094
2542.00,0.0094
2541.00,0.0094
2540.00,0.0094
2539.00,0.0094
2538.00,0.0094
2537.00,0.0094
2536.00,0.0094
2535.00,0.0094
2534.00,0.0094
2533.00,0.0094
2532.00,0.0094
2531.00,0.0094
2530.00,0.0094
2529.00,0.0093
2528.00,0.0093
2527.00,0.0093
2526.00,0.0093
2525.00,0.0093
2524.00,0.0093
2523.00,0.0092
2522.00,0.0092
2521.00,0.0092
2520.00,0.0092
2519.00,0.0091
2518.00,0.0091
2517.00,0.0091
2516.00,0.0091
2515.00,0.0091
2514.00,0.0091
2513.00,0.0091
2512.00,0.0091
2511.00,0.0091
2510.00,0.0091
2509.00,0.0091
2508.00,0.0091
2507.00,0.0090
2506.00,0.0090
2505.00,0.0090
2504.00,0.0091
2503.00,0.0090
2502.00,0.0090
2501.00,0.0089
2500.00,0.0089
2499.00,0.0089
2498.00,0.0089
2497.00,0.0089
2496.00,0.0089
2495.00,0.0089
2494.00,0.0089
2493.00,0.0089
2492.00,0.0089
2491.00,0.0089
2490.00,0.0089
2489.00,0.0088
2488.00,0.0088
2487.00,0.0088
2486.00,0.0088
2485.00,0.0088
2484.00,0.0088
2483.00,0.0088
2482.00,0.0088
2481.00,0.0088
2480.00,0.0088
2479.00,0.0088
2478.00,0.0088
2477.00,0.0088
2476.00,0.0088
2475.00,0.0088
2474.00,0.0088
2473.00,0.0088
2472.00,0.0088
2471.00,0.0088
2470.00,0.0087
2469.00,0.0087
2468.00,0.0087
2467.00,0.0087
2466.00,0.0087
2465.00,0.0087
2464.00,0.0087
2463.00,0.0087
2462.00,0.0087
2461.00,0.0088
2460.00,0.0088
2459.00,0.0088
2458.00,0.0088
2457.00,0.0088
2456.00,0.0088
2455.00,0.0089
2454.00,0.0088
2453.00,0.0088
2452.00,0.0088
2451.00,0.0088
2450.00,0.0088
2449.00,0.0088
2448.00,0.0088
2447.00,0.0087
2446.00,0.0087
2445.00,0.0087
2444.00,0.0087
2443.00,0.0087
2442.00,0.0087
2441.00,0.0087
2440.00,0.0087
2439.00,0.0086
2438.00,0.0086
2437.00,0.0086
2436.00,0.0086
2435.00,0.0085
2434.00,0.0085
2433.00,0.0085
2432.00,0.0085
2431.00,0.0086
2430.00,0.0086
2429.00,0.0086
2428.00,0.0086
2427.00,0.0086
2426.00,0.0086
2425.00,0.0085
2424.00,0.0085
2423.00,0.0085
2422.00,0.0085
2421.00,0.0085
2420.00,0.0085
2419.00,0.0085
2418.00,0.0086
2417.00,0.0085
2416.00,0.0085
2415.00,0.0085
2414.00,0.0085
2413.00,0.0085
2412.00,0.0086
2411.00,0.0086
2410.00,0.0086
2409.00,0.0086
2408.00,0.0086
2407.00,0.0085
2406.00,0.0085
2405.00,0.0084
2404.00,0.0084
2403.00,0.0085
2402.00,0.0085
2401.00,0.0085
2400.00,0.0085
2399.00,0.0085
2398.00,0.0085
2397.00,0.0085
2396.00,0.0085
2395.00,0.0085
2394.00,0.0085
2393.00,0.0084
2392.00,0.0084
2391.00,0.0084
2390.00,0.0084
2389.00,0.0084
2388.00,0.0084
2387.00,0.0083
2386.00,0.0083
2385.00,0.0083
2384.00,0.0082
2383.00,0.0082
2382.00,0.0082
2381.00,0.0081
2380.00,0.0081
2379.00,0.0081
2378.00,0.0080
2377.00,0.0080
2376.00,0.0081
2375.00,0.0081
2374.00,0.0081
2373.00,0.0081
2372.00,0.0081
2371.00,0.0081
2370.00,0.0081
2369.00,0.0081
2368.00,0.0081
2367.00,0.0081
2366.00,0.0081
2365.00,0.0081
2364.00,0.0081
2363.00,0.0081
2362.00,0.0081
2361.00,0.0081
2360.00,0.0081
2359.00,0.0082
2358.00,0.0082
2357.00,0.0082
2356.00,0.0082
2355.00,0.0082
2354.00,0.0082
2353.00,0.0081
2352.00,0.0082
2351.00,0.0082
2350.00,0.0082
2349.00,0.0083
2348.00,0.0083
2347.00,0.0084
2346.00,0.0084
2345.00,0.0084
2344.00,0.0084
2343.00,0.0085
2342.00,0.0085
2341.00,0.0085
2340.00,0.0085
2339.00,0.0085
2338.00,0.0086
2337.00,0.0086
2336.00,0.0086
2335.00,0.0086
2334.00,0.0085
2333.00,0.0085
2332.00,0.0085
2331.00,0.0085
2330.00,0.0086
2329.00,0.0088
2328.00,0.0091
2327.00,0.0094
2326.00,0.0097
2325.00,0.0097
2324.00,0.0096
2323.00,0.0094
2322.00,0.0093
2321.00,0.0092
2320.00,0.0091
2319.00,0.0090
2318.00,0.0089
2317.00,0.0089
2316.00,0.0088
2315.00,0.0088
2314.00,0.0088
2313.00,0.0088
2312.00,0.0088
2311.00,0.0088
2310.00,0.0088
2309.00,0.0088
2308.00,0.0088
2307.00,0.0088
2306.00,0.0088
2305.00,0.0088
2304.00,0.0088
2303.00,0.0088
2302.00,0.0089
2301.00,0.0089
2300.00,0.0090
2299.00,0.0090
2298.00,0.0091
2297.00,0.0091
2296.00,0.0091
2295.00,0.0092
2294.00,0.0092
2293.00,0.0093
2292.00,0.0094
2291.00,0.0094
2290.00,0.0095
2289.00,0.0095
2288.00,0.0095
2287.00,0.0095
2286.00,0.0095
2285.00,0.0095
2284.00,0.0094
2283.00,0.0094
2282.00,0.0093
2281.00,0.0092
2280.00,0.0091
2279.00,0.0091
2278.00,0.0091
2277.00,0.0090
2276.00,0.0090
2275.00,0.0090
2274.00,0.0089
2273.00,0.0089
2272.00,0.0089
2271.00,0.0089
2270.00,0.0088
2269.00,0.0088
2268.00,0.0087
2267.00,0.0087
2266.00,0.0086
2265.00,0.0085
2264.00,0.0085
2263.00,0.0085
2262.00,0.0085
2261.00,0.0085
2260.00,0.0085
2259.00,0.0085
2258.00,0.0084
2257.00,0.0083
2256.00,0.0083
2255.00,0.0083
2254.00,0.0082
2253.00,0.0082
2252.00,0.0083
2251.00,0.0083
2250.00,0.0084
2249.00,0.0085
2248.00,0.0085
2247.00,0.0085
2246.00,0.0085
2245.00,0.0085
2244.00,0.0085
2243.00,0.0085
2242.00,0.0085
2241.00,0.0085
2240.00,0.0085
2239.00,0.0085
2238.00,0.0085
2237.00,0.0086
2236.00,0.0086
2235.00,0.0087
2234.00,0.0086
2233.00,0.0086
2232.00,0.0086
2231.00,0.0086
2230.00,0.0085
2229.00,0.0085
2228.00,0.0085
2227.00,0.0085
2226.00,0.0086
2225.00,0.0086
2224.00,0.0086
2223.00,0.0085
2222.00,0.0085
2221.00,0.0085
2220.00,0.0085
2219.00,0.0084
2218.00,0.0084
2217.00,0.0084
2216.00,0.0085
2215.00,0.0086
2214.00,0.0086
2213.00,0.0086
2212.00,0.0086
2211.00,0.0086
2210.00,0.0086
2209.00,0.0085
2208.00,0.0085
2207.00,0.0085
2206.00,0.0084
2205.00,0.0085
2204.00,0.0085
2203.00,0.0085
2202.00,0.0085
2201.00,0.0085
2200.00,0.0086
2199.00,0.0086
2198.00,0.0086
2197.00,0.0085
2196.00,0.0085
2195.00,0.0085
2194.00,0.0086
2193.00,0.0086
2192.00,0.0086
2191.00,0.0086
2190.00,0.0086
2189.00,0.0086
2188.00,0.0087
2187.00,0.0088
2186.00,0.0088
2185.00,0.0086
2184.00,0.0084
2183.00,0.0081
2182.00,0.0080
2181.00,0.0080
2180.00,0.0081
2179.00,0.0083
2178.00,0.0083
2177.00,0.0082
2176.00,0.0082
2175.00,0.0082
2174.00,0.0083
2173.00,0.0084
2172.00,0.0087
2171.00,0.0089
2170.00,0.0090
2169.00,0.0092
2168.00,0.0092
2167.00,0.0093
2166.00,0.0093
2165.00,0.0095
2164.00,0.0097
2163.00,0.0097
2162.00,0.0092
2161.00,0.0082
2160.00,0.0069
2159.00,0.0058
2158.00,0.0053
2157.00,0.0053
2156.00,0.0056
2155.00,0.0060
2154.00,0.0064
2153.00,0.0067
2152.00,0.0069
2151.00,0.0071
2150.00,0.0072
2149.00,0.0073
2148.00,0.0073
2147.00,0.0072
2146.00,0.0071
2145.00,0.0070
2144.00,0.0069
2143.00,0.0069
2142.00,0.0069
2141.00,0.0070
2140.00,0.0070
2139.00,0.0070
2138.00,0.0070
2137.00,0.0069
2136.00,0.0068
2135.00,0.0067
2134.00,0.0066
2133.00,0.0067
2132.00,0.0068
2131.00,0.0069
2130.00,0.0070
2129.00,0.0072
2128.00,0.0074
2127.00,0.0076
2126.00,0.0077
2125.00,0.0077
2124.00,0.0077
2123.00,0.0077
2122.00,0.0078
2121.00,0.0078
2120.00,0.0079
2119.00,0.0080
2118.00,0.0081
2117.00,0.0082
2116.00,0.0083
2115.00,0.0083
2114.00,0.0083
2113.00,0.0082
2112.00,0.0082
2111.00,0.0081
2110.00,0.0080
2109.00,0.0080
2108.00,0.0080
2107.00,0.0080
2106.00,0.0080
2105.00,0.0080
2104.00,0.0081
2103.00,0.0081
2102.00,0.0081
2101.00,0.0081
2100.00,0.0081
2099.00,0.0080
2098.00,0.0078
2097.00,0.0077
2096.00,0.0075
2095.00,0.0075
2094.00,0.0076
2093.00,0.0077
2092.00,0.0079
2091.00,0.0079
2090.00,0.0080
2089.00,0.0080
2088.00,0.0080
2087.00,0.0080
2086.00,0.0080
2085.00,0.0080
2084.00,0.0080
2083.00,0.0081
2082.00,0.0081
2081.00,0.0082
2080.00,0.0082
2079.00,0.0082
2078.00,0.0082
2077.00,0.0082
2076.00,0.0083
2075.00,0.0082
2074.00,0.0081
2073.00,0.0081
2072.00,0.0080
2071.00,0.0080
2070.00,0.0079
2069.00,0.0079
2068.00,0.0079
2067.00,0.0079
2066.00,0.0079
2065.00,0.0079
2064.00,0.0078
2063.00,0.0078
2062.00,0.0077
2061.00,0.0076
2060.00,0.0076
2059.00,0.0076
2058.00,0.0076
2057.00,0.0076
2056.00,0.0076
2055.00,0.0077
2054.00,0.0079
2053.00,0.0082
2052.00,0.0084
2051.00,0.0084
2050.00,0.0081
2049.00,0.0078
2048.00,0.0076
2047.00,0.0075
2046.00,0.0075
2045.00,0.0075
2044.00,0.0076
2043.00,0.0077
2042.00,0.0077
2041.00,0.0077
2040.00,0.0077
2039.00,0.0077
2038.00,0.0077
2037.00,0.0076
2036.00,0.0074
2035.00,0.0072
2034.00,0.0071
2033.00,0.0070
2032.00,0.0071
2031.00,0.0070
2030.00,0.0070
2029.00,0.0070
2028.00,0.0070
2027.00,0.0069
2026.00,0.0068
2025.00,0.0067
2024.00,0.0069
2023.00,0.0070
2022.00,0.0071
2021.00,0.0070
2020.00,0.0070
2019.00,0.0069
2018.00,0.0068
2017.00,0.0068
2016.00,0.0067
2015.00,0.0067
2014.00,0.0065
2013.00,0.0065
2012.00,0.0065
2011.00,0.0066
2010.00,0.0066
2009.00,0.0065
2008.00,0.0063
2007.00,0.0060
2006.00,0.0059
2005.00,0.0060
2004.00,0.0062
2003.00,0.0065
2002.00,0.0066
2001.00,0.0068
2000.00,0.0069
1999.00,0.0070
1998.00,0.0070
1997.00,0.0070
1996.00,0.0071
1995.00,0.0072
1994.00,0.0073
1993.00,0.0074
1992.00,0.0074
1991.00,0.0074
1990.00,0.0073
1989.00,0.0073
1988.00,0.0074
1987.00,0.0074
1986.00,0.0074
1985.00,0.0075
1984.00,0.0077
1983.00,0.0079
1982.00,0.0080
1981.00,0.0079
1980.00,0.0077
1979.00,0.0073
1978.00,0.0068
1977.00,0.0065
1976.00,0.0064
1975.00,0.0064
1974.00,0.0064
1973.00,0.0064
1972.00,0.0063
1971.00,0.0063
1970.00,0.0062
1969.00,0.0064
1968.00,0.0066
1967.00,0.0067
1966.00,0.0066
1965.00,0.0065
1964.00,0.0064
1963.00,0.0063
1962.00,0.0061
1961.00,0.0061
1960.00,0.0061
1959.00,0.0062
1958.00,0.0063
1957.00,0.0064
1956.00,0.0066
1955.00,0.0067
1954.00,0.0068
1953.00,0.0067
1952.00,0.0067
1951.00,0.0067
1950.00,0.0067
1949.00,0.0068
1948.00,0.0069
1947.00,0.0070
1946.00,0.0070
1945.00,0.0070
1944.00,0.0070
1943.00,0.0070
1942.00,0.0070
1941.00,0.0069
1940.00,0.0068
1939.00,0.0068
1938.00,0.0067
1937.00,0.0068
1936.00,0.0068
1935.00,0.0069
1934.00,0.0069
1933.00,0.0069
1932.00,0.0069
1931.00,0.0070
1930.00,0.0070
1929.00,0.0071
1928.00,0.0070
1927.00,0.0070
1926.00,0.0070
1925.00,0.0070
1924.00,0.0072
1923.00,0.0073
1922.00,0.0073
1921.00,0.0072
1920.00,0.0072
1919.00,0.0071
1918.00,0.0071
1917.00,0.0071
1916.00,0.0071
1915.00,0.0072
1914.00,0.0073
1913.00,0.0075
1912.00,0.0076
1911.00,0.0078
1910.00,0.0079
1909.00,0.0080
1908.00,0.0080
1907.00,0.0079
1906.00,0.0078
1905.00,0.0076
1904.00,0.0076
1903.00,0.0075
1902.00,0.0075
1901.00,0.0075
1900.00,0.0076
1899.00,0.0076
1898.00,0.0076
1897.00,0.0076
1896.00,0.0077
1895.00,0.0077
1894.00,0.0076
1893.00,0.0076
1892.00,0.0075
1891.00,0.0075
1890.00,0.0075
1889.00,0.0074
1888.00,0.0073
1887.00,0.0073
1886.00,0.0073
1885.00,0.0074
1884.00,0.0074
1883.00,0.0074
1882.00,0.0073
1881.00,0.0073
1880.00,0.0073
1879.00,0.0073
1878.00,0.0073
1877.00,0.0073
1876.00,0.0073
1875.00,0.0073
1874.00,0.0073
1873.00,0.0073
1872.00,0.0074
1871.00,0.0074
1870.00,0.0074
1869.00,0.0074
1868.00,0.0074
1867.00,0.0074
1866.00,0.0073
1865.00,0.0074
1864.00,0.0074
1863.00,0.0074
1862.00,0.0074
1861.00,0.0074
1860.00,0.0074
1859.00,0.0074
1858.00,0.0074
1857.00,0.0074
1856.00,0.0074
1855.00,0.0074
1854.00,0.0074
1853.00,0.0074
1852.00,0.0074
1851.00,0.0075
1850.00,0.0076
1849.00,0.0077
1848.00,0.0078
1847.00,0.0079
1846.00,0.0078
1845.00,0.0077
1844.00,0.0076
1843.00,0.0075
1842.00,0.0074
1841.00,0.0075
1840.00,0.0075
1839.00,0.0076
1838.00,0.0076
1837.00,0.0076
1836.00,0.0076
1835.00,0.0075
1834.00,0.0075
1833.00,0.0074
1832.00,0.0075
1831.00,0.0075
1830.00,0.0075
1829.00,0.0074
1828.00,0.0074
1827.00,0.0074
1826.00,0.0075
1825.00,0.0075
1824.00,0.0074
1823.00,0.0074
1822.00,0.0074
1821.00,0.0074
1820.00,0.0074
1819.00,0.0073
1818.00,0.0072
1817.00,0.0071
1816.00,0.0072
1815.00,0.0072
1814.00,0.0073
1813.00,0.0074
1812.00,0.0075
1811.00,0.0075
1810.00,0.0075
1809.00,0.0075
1808.00,0.0076
1807.00,0.0076
1806.00,0.0075
1805.00,0.0075
1804.00,0.0076
1803.00,0.0076
1802.00,0.0077
1801.00,0.0077
1800.00,0.0077
1799.00,0.0077
1798.00,0.0077
1797.00,0.0078
1796.00,0.0079
1795.00,0.0079
1794.00,0.0078
1793.00,0.0077
1792.00,0.0077
1791.00,0.0076
1790.00,0.0076
1789.00,0.0076
1788.00,0.0077
1787.00,0.0078
1786.00,0.0078
1785.00,0.0078
1784.00,0.0078
1783.00,0.0078
1782.00,0.0079
1781.00,0.0079
1780.00,0.0080
1779.00,0.0079
1778.00,0.0079
1777.00,0.0080
1776.00,0.0081
1775.00,0.0081
1774.00,0.0081
1773.00,0.0081
1772.00,0.0081
1771.00,0.0080
1770.00,0.0079
1769.00,0.0080
1768.00,0.0081
1767.00,0.0081
1766.00,0.0080
1765.00,0.0081
1764.00,0.0081
1763.00,0.0082
1762.00,0.0082
1761.00,0.0082
1760.00,0.0082
1759.00,0.0083
1758.00,0.0083
1757.00,0.0083
1756.00,0.0083
1755.00,0.0083
1754.00,0.0083
1753.00,0.0084
1752.00,0.0085
1751.00,0.0086
1750.00,0.0086
1749.00,0.0086
1748.00,0.0087
1747.00,0.0088
1746.00,0.0088
1745.00,0.0089
1744.00,0.0090
1743.00,0.0090
1742.00,0.0088
1741.00,0.0088
1740.00,0.0088
1739.00,0.0088
1738.00,0.0088
1737.00,0.0088
1736.00,0.0090
1735.00,0.0091
1734.00,0.0092
1733.00,0.0093
1732.00,0.0095
1731.00,0.0098
1730.00,0.0101
1729.00,0.0102
1728.00,0.0104
1727.00,0.0105
1726.00,0.0107
1725.00,0.0109
1724.00,0.0111
1723.00,0.0113
1722.00,0.0113
1721.00,0.0114
1720.00,0.0115
1719.00,0.0118
1718.00,0.0120
1717.00,0.0122
1716.00,0.0125
1715.00,0.0127
1714.00,0.0130
1713.00,0.0135
1712.00,0.0140
1711.00,0.0144
1710.00,0.0149
1709.00,0.0153
1708.00,0.0158
1707.00,0.0164
1706.00,0.0171
1705.00,0.0178
1704.00,0.0184
1703.00,0.0189
1702.00,0.0194
1701.00,0.0204
1700.00,0.0220
1699.00,0.0235
1698.00,0.0249
1697.00,0.0266
1696.00,0.0287
1695.00,0.0308
1694.00,0.0325
1693.00,0.0342
1692.00,0.0361
1691.00,0.0382
1690.00,0.0404
1689.00,0.0425
1688.00,0.0444
1687.00,0.0460
1686.00,0.0479
1685.00,0.0508
1684.00,0.0546
1683.00,0.0577
1682.00,0.0600
1681.00,0.0620
1680.00,0.0641
1679.00,0.0660
1678.00,0.0675
1677.00,0.0692
1676.00,0.0715
1675.00,0.0743
1674.00,0.0767
1673.00,0.0785
1672.00,0.0801
1671.00,0.0820
1670.00,0.0843
1669.00,0.0870
1668.00,0.0892
1667.00,0.0909
1666.00,0.0920
1665.00,0.0931
1664.00,0.0946
1663.00,0.0967
1662.00,0.0988
1661.00,0.1004
1660.00,0.1017
1659.00,0.1027
1658.00,0.1033
1657.00,0.1035
1656.00,0.1032
1655.00,0.1032
1654.00,0.1046
1653.00,0.1074
1652.00,0.1094
1651.00,0.1094
1650.00,0.1084
1649.00,0.1073
1648.00,0.1068
1647.00,0.1068
1646.00,0.1066
1645.00,0.1059
1644.00,0.1047
1643.00,0.1031
1642.00,0.1014
1641.00,0.0996
1640.00,0.0976
1639.00,0.0954
1638.00,0.0931
1637.00,0.0908
1636.00,0.0889
1635.00,0.0873
1634.00,0.0857
1633.00,0.0843
1632.00,0.0831
1631.00,0.0822
1630.00,0.0819
1629.00,0.0824
1628.00,0.0836
1627.00,0.0850
1626.00,0.0862
1625.00,0.0871
1624.00,0.0879
1623.00,0.0885
1622.00,0.0882
1621.00,0.0870
1620.00,0.0850
1619.00,0.0824
1618.00,0.0792
1617.00,0.0755
1616.00,0.0721
1615.00,0.0696
1614.00,0.0680
1613.00,0.0669
1612.00,0.0660
1611.00,0.0652
1610.00,0.0640
1609.00,0.0622
1608.00,0.0599
1607.00,0.0573
1606.00,0.0546
1605.00,0.0519
1604.00,0.0493
1603.00,0.0469
1602.00,0.0447
1601.00,0.0428
1600.00,0.0411
1599.00,0.0396
1598.00,0.0385
1597.00,0.0376
1596.00,0.0370
1595.00,0.0367
1594.00,0.0367
1593.00,0.0371
1592.00,0.0380
1591.00,0.0393
1590.00,0.0410
1589.00,0.0428
1588.00,0.0447
1587.00,0.0464
1586.00,0.0478
1585.00,0.0486
1584.00,0.0489
1583.00,0.0486
1582.00,0.0480
1581.00,0.0469
1580.00,0.0456
1579.00,0.0442
1578.00,0.0427
1577.00,0.0409
1576.00,0.0390
1575.00,0.0373
1574.00,0.0359
1573.00,0.0348
1572.00,0.0339
1571.00,0.0331
1570.00,0.0324
1569.00,0.0317
1568.00,0.0310
1567.00,0.0303
1566.00,0.0295
1565.00,0.0285
1564.00,0.0273
1563.00,0.0261
1562.00,0.0249
1561.00,0.0238
1560.00,0.0227
1559.00,0.0219
1558.00,0.0210
1557.00,0.0206
1556.00,0.0205
1555.00,0.0205
1554.00,0.0204
1553.00,0.0202
1552.00,0.0200
1551.00,0.0199
1550.00,0.0198
1549.00,0.0195
1548.00,0.0193
1547.00,0.0190
1546.00,0.0189
1545.00,0.0187
1544.00,0.0185
1543.00,0.0181
1542.00,0.0178
1541.00,0.0176
1540.00,0.0175
1539.00,0.0173
1538.00,0.0172
1537.00,0.0172
1536.00,0.0172
1535.00,0.0172
1534.00,0.0172
1533.00,0.0171
1532.00,0.0170
1531.00,0.0169
1530.00,0.0170
1529.00,0.0170
1528.00,0.0170
1527.00,0.0170
1526.00,0.0169
1525.00,0.0169
1524.00,0.0168
1523.00,0.0169
1522.00,0.0171
1521.00,0.0173
1520.00,0.0174
1519.00,0.0176
1518.00,0.0180
1517.00,0.0186
1516.00,0.0190
1515.00,0.0193
1514.00,0.0197
1513.00,0.0202
1512.00,0.0206
1511.00,0.0210
1510.00,0.0214
1509.00,0.0218
1508.00,0.0223
1507.00,0.0229
1506.00,0.0234
1505.00,0.0241
1504.00,0.0251
1503.00,0.0263
1502.00,0.0277
1501.00,0.0295
1500.00,0.0316
1499.00,0.0343
1498.00,0.0374
1497.00,0.0404
1496.00,0.0424
1495.00,0.0431
1494.00,0.0426
1493.00,0.0414
1492.00,0.0397
1491.00,0.0377
1490.00,0.0357
1489.00,0.0337
1488.00,0.0317
1487.00,0.0298
1486.00,0.0281
1485.00,0.0267
1484.00,0.0256
1483.00,0.0246
1482.00,0.0239
1481.00,0.0233
1480.00,0.0229
1479.00,0.0227
1478.00,0.0227
1477.00,0.0231
1476.00,0.0236
1475.00,0.0242
1474.00,0.0254
1473.00,0.0273
1472.00,0.0299
1471.00,0.0330
1470.00,0.0364
1469.00,0.0401
1468.00,0.0439
1467.00,0.0477
1466.00,0.0513
1465.00,0.0546
1464.00,0.0571
1463.00,0.0587
1462.00,0.0596
1461.00,0.0599
1460.00,0.0597
1459.00,0.0590
1458.00,0.0576
1457.00,0.0556
1456.00,0.0532
1455.00,0.0512
1454.00,0.0496
1453.00,0.0484
1452.00,0.0477
1451.00,0.0474
1450.00,0.0477
1449.00,0.0487
1448.00,0.0502
1447.00,0.0522
1446.00,0.0544
1445.00,0.0569
1444.00,0.0596
1443.00,0.0624
1442.00,0.0651
1441.00,0.0675
1440.00,0.0695
1439.00,0.0710
1438.00,0.0724
1437.00,0.0742
1436.00,0.0760
1435.00,0.0773
1434.00,0.0782
1433.00,0.0789
1432.00,0.0796
1431.00,0.0804
1430.00,0.0814
1429.00,0.0827
1428.00,0.0839
1427.00,0.0852
1426.00,0.0864
1425.00,0.0878
1424.00,0.0891
1423.00,0.0896
1422.00,0.0893
1421.00,0.0882
1420.00,0.0864
1419.00,0.0838
1418.00,0.0805
1417.00,0.0768
1416.00,0.0729
1415.00,0.0690
1414.00,0.0653
1413.00,0.0620
1412.00,0.0592
1411.00,0.0569
1410.00,0.0552
1409.00,0.0541
1408.00,0.0536
1407.00,0.0536
1406.00,0.0541
1405.00,0.0550
1404.00,0.0559
1403.00,0.0566
1402.00,0.0571
1401.00,0.0572
1400.00,0.0568
1399.00,0.0559
1398.00,0.0545
1397.00,0.0526
1396.00,0.0504
1395.00,0.0481
1394.00,0.0458
1393.00,0.0438
1392.00,0.0423
1391.00,0.0413
1390.00,0.0409
1389.00,0.0413
1388.00,0.0423
1387.00,0.0434
1386.00,0.0440
1385.00,0.0438
1384.00,0.0434
1383.00,0.0431
1382.00,0.0434
1381.00,0.0440
1380.00,0.0447
1379.00,0.0453
1378.00,0.0456
1377.00,0.0456
1376.00,0.0452
1375.00,0.0444
1374.00,0.0435
1373.00,0.0425
1372.00,0.0418
1371.00,0.0415
1370.00,0.0417
1369.00,0.0424
1368.00,0.0434
1367.00,0.0445
1366.00,0.0454
1365.00,0.0459
1364.00,0.0459
1363.00,0.0462
1362.00,0.0469
1361.00,0.0477
1360.00,0.0481
1359.00,0.0474
1358.00,0.0457
1357.00,0.0435
1356.00,0.0415
1355.00,0.0400
1354.00,0.0388
1353.00,0.0380
1352.00,0.0374
1351.00,0.0370
1350.00,0.0369
1349.00,0.0369
1348.00,0.0368
1347.00,0.0367
1346.00,0.0364
1345.00,0.0360
1344.00,0.0354
1343.00,0.0347
1342.00,0.0340
1341.00,0.0333
1340.00,0.0326
1339.00,0.0320
1338.00,0.0315
1337.00,0.0312
1336.00,0.0311
1335.00,0.0314
1334.00,0.0319
1333.00,0.0326
1332.00,0.0333
1331.00,0.0341
1330.00,0.0348
1329.00,0.0355
1328.00,0.0361
1327.00,0.0367
1326.00,0.0373
1325.00,0.0379
1324.00,0.0386
1323.00,0.0393
1322.00,0.0401
1321.00,0.0409
1320.00,0.0415
1319.00,0.0419
1318.00,0.0421
1317.00,0.0419
1316.00,0.0415
1315.00,0.0410
1314.00,0.0404
1313.00,0.0398
1312.00,0.0392
1311.00,0.0388
1310.00,0.0387
1309.00,0.0389
1308.00,0.0394
1307.00,0.0402
1306.00,0.0416
1305.00,0.0434
1304.00,0.0456
1303.00,0.0482
1302.00,0.0509
1301.00,0.0534
1300.00,0.0556
1299.00,0.0576
1298.00,0.0598
1297.00,0.0625
1296.00,0.0656
1295.00,0.0693
1294.00,0.0731
1293.00,0.0768
1292.00,0.0802
1291.00,0.0834
1290.00,0.0862
1289.00,0.0888
1288.00,0.0911
1287.00,0.0930
1286.00,0.0945
1285.00,0.0953
1284.00,0.0954
1283.00,0.0948
1282.00,0.0935
1281.00,0.0918
1280.00,0.0898
1279.00,0.0880
1278.00,0.0865
1277.00,0.0854
1276.00,0.0848
1275.00,0.0845
1274.00,0.0843
1273.00,0.0841
1272.00,0.0838
1271.00,0.0831
1270.00,0.0821
1269.00,0.0807
1268.00,0.0790
1267.00,0.0770
1266.00,0.0748
1265.00,0.0725
1264.00,0.0700
1263.00,0.0675
1262.00,0.0650
1261.00,0.0626
1260.00,0.0603
1259.00,0.0582
1258.00,0.0562
1257.00,0.0544
1256.00,0.0529
1255.00,0.0515
1254.00,0.0503
1253.00,0.0494
1252.00,0.0487
1251.00,0.0482
1250.00,0.0480
1249.00,0.0482
1248.00,0.0485
1247.00,0.0491
1246.00,0.0499
1245.00,0.0508
1244.00,0.0515
1243.00,0.0521
1242.00,0.0527
1241.00,0.0532
1240.00,0.0538
1239.00,0.0547
1238.00,0.0560
1237.00,0.0576
1236.00,0.0592
1235.00,0.0606
1234.00,0.0616
1233.00,0.0620
1232.00,0.0618
1231.00,0.0611
1230.00,0.0600
1229.00,0.0587
1228.00,0.0574
1227.00,0.0562
1226.00,0.0552
1225.00,0.0542
1224.00,0.0534
1223.00,0.0528
1222.00,0.0525
1221.00,0.0523
1220.00,0.0523
1219.00,0.0526
1218.00,0.0530
1217.00,0.0534
1216.00,0.0538
1215.00,0.0539
1214.00,0.0536
1213.00,0.0529
1212.00,0.0518
1211.00,0.0503
1210.00,0.0487
1209.00,0.0471
1208.00,0.0457
1207.00,0.0446
1206.00,0.0438
1205.00,0.0434
1204.00,0.0434
1203.00,0.0438
1202.00,0.0446
1201.00,0.0457
1200.00,0.0471
1199.00,0.0486
1198.00,0.0504
1197.00,0.0521
1196.00,0.0536
1195.00,0.0545
1194.00,0.0547
1193.00,0.0541
1192.00,0.0528
1191.00,0.0511
1190.00,0.0491
1189.00,0.0470
1188.00,0.0450
1187.00,0.0430
1186.00,0.0414
1185.00,0.0399
1184.00,0.0387
1183.00,0.0377
1182.00,0.0370
1181.00,0.0365
1180.00,0.0362
1179.00,0.0360
1178.00,0.0359
1177.00,0.0359
1176.00,0.0360
1175.00,0.0361
1174.00,0.0363
1173.00,0.0365
1172.00,0.0367
1171.00,0.0369
1170.00,0.0370
1169.00,0.0371
1168.00,0.0370
1167.00,0.0370
1166.00,0.0369
1165.00,0.0369
1164.00,0.0370
1163.00,0.0373
1162.00,0.0378
1161.00,0.0388
1160.00,0.0402
1159.00,0.0423
1158.00,0.0450
1157.00,0.0479
1156.00,0.0504
1155.00,0.0518
1154.00,0.0518
1153.00,0.0500
1152.00,0.0469
1151.00,0.0433
1150.00,0.0398
1149.00,0.0368
1148.00,0.0345
1147.00,0.0328
1146.00,0.0317
1145.00,0.0309
1144.00,0.0303
1143.00,0.0298
1142.00,0.0295
1141.00,0.0293
1140.00,0.0292
1139.00,0.0294
1138.00,0.0298
1137.00,0.0305
1136.00,0.0316
1135.00,0.0333
1134.00,0.0357
1133.00,0.0390
1132.00,0.0428
1131.00,0.0467
1130.00,0.0500
1129.00,0.0522
1128.00,0.0530
1127.00,0.0525
1126.00,0.0510
1125.00,0.0489
1124.00,0.0464
1123.00,0.0437
1122.00,0.0411
1121.00,0.0388
1120.00,0.0369
1119.00,0.0356
1118.00,0.0347
1117.00,0.0341
1116.00,0.0338
1115.00,0.0336
1114.00,0.0335
1113.00,0.0333
1112.00,0.0329
1111.00,0.0325
1110.00,0.0320
1109.00,0.0317
1108.00,0.0315
1107.00,0.0315
1106.00,0.0320
1105.00,0.0328
1104.00,0.0341
1103.00,0.0359
1102.00,0.0380
1101.00,0.0399
1100.00,0.0412
1099.00,0.0415
1098.00,0.0409
1097.00,0.0394
1096.00,0.0374
1095.00,0.0353
1094.00,0.0335
1093.00,0.0320
1092.00,0.0308
1091.00,0.0299
1090.00,0.0293
1089.00,0.0289
1088.00,0.0285
1087.00,0.0283
1086.00,0.0282
1085.00,0.0281
1084.00,0.0281
1083.00,0.0281
1082.00,0.0283
1081.00,0.0284
1080.00,0.0286
1079.00,0.0288
1078.00,0.0291
1077.00,0.0294
1076.00,0.0296
1075.00,0.0299
1074.00,0.0301
1073.00,0.0304
1072.00,0.0306
1071.00,0.0309
1070.00,0.0313
1069.00,0.0317
1068.00,0.0321
1067.00,0.0325
1066.00,0.0331
1065.00,0.0339
1064.00,0.0348
1063.00,0.0361
1062.00,0.0379
1061.00,0.0402
1060.00,0.0431
1059.00,0.0466
1058.00,0.0507
1057.00,0.0550
1056.00,0.0591
1055.00,0.0623
1054.00,0.0646
1053.00,0.0659
1052.00,0.0665
1051.00,0.0666
1050.00,0.0664
1049.00,0.0657
1048.00,0.0642
1047.00,0.0619
1046.00,0.0591
1045.00,0.0558
1044.00,0.0524
1043.00,0.0492
1042.00,0.0463
1041.00,0.0439
1040.00,0.0420
1039.00,0.0407
1038.00,0.0401
1037.00,0.0400
1036.00,0.0401
1035.00,0.0405
1034.00,0.0411
1033.00,0.0421
1032.00,0.0436
1031.00,0.0461
1030.00,0.0496
1029.00,0.0535
1028.00,0.0571
1027.00,0.0594
1026.00,0.0600
1025.00,0.0587
1024.00,0.0558
1023.00,0.0524
1022.00,0.0492
1021.00,0.0463
1020.00,0.0440
1019.00,0.0421
1018.00,0.0404
1017.00,0.0390
1016.00,0.0376
1015.00,0.0363
1014.00,0.0351
1013.00,0.0341
1012.00,0.0333
1011.00,0.0328
1010.00,0.0328
1009.00,0.0332
1008.00,0.0341
1007.00,0.0353
1006.00,0.0368
1005.00,0.0383
1004.00,0.0393
1003.00,0.0399
1002.00,0.0400
1001.00,0.0396
1000.00,0.0389
999.00,0.0380
998.00,0.0372
997.00,0.0364
996.00,0.0357
995.00,0.0350
994.00,0.0344
993.00,0.0338
992.00,0.0329
991.00,0.0320
990.00,0.0311
989.00,0.0302
988.00,0.0294
987.00,0.0287
986.00,0.0282
985.00,0.0277
984.00,0.0272
983.00,0.0268
982.00,0.0265
981.00,0.0262
980.00,0.0260
979.00,0.0258
978.00,0.0258
977.00,0.0257
976.00,0.0256
975.00,0.0255
974.00,0.0254
973.00,0.0252
972.00,0.0251
971.00,0.0249
970.00,0.0248
969.00,0.0247
968.00,0.0245
967.00,0.0244
966.00,0.0245
965.00,0.0246
964.00,0.0247
963.00,0.0249
962.00,0.0249
961.00,0.0248
960.00,0.0243
959.00,0.0238
958.00,0.0232
957.00,0.0228
956.00,0.0224
955.00,0.0221
954.00,0.0219
953.00,0.0217
952.00,0.0216
951.00,0.0216
950.00,0.0217
949.00,0.0220
948.00,0.0221
947.00,0.0222
946.00,0.0222
945.00,0.0222
944.00,0.0223
943.00,0.0226
942.00,0.0231
941.00,0.0237
940.00,0.0244
939.00,0.0251
938.00,0.0258
937.00,0.0264
936.00,0.0270
935.00,0.0275
934.00,0.0279
933.00,0.0282
932.00,0.0281
931.00,0.0278
930.00,0.0274
929.00,0.0269
928.00,0.0265
927.00,0.0263
926.00,0.0263
925.00,0.0266
924.00,0.0270
923.00,0.0274
922.00,0.0277
921.00,0.0277
920.00,0.0272
919.00,0.0264
918.00,0.0255
917.00,0.0247
916.00,0.0239
915.00,0.0233
914.00,0.0229
913.00,0.0226
912.00,0.0224
911.00,0.0222
910.00,0.0222
909.00,0.0223
908.00,0.0224
907.00,0.0226
906.00,0.0229
905.00,0.0234
904.00,0.0241
903.00,0.0250
902.00,0.0263
901.00,0.0276
900.00,0.0287
899.00,0.0293
898.00,0.0295
897.00,0.0291
896.00,0.0284
895.00,0.0278
894.00,0.0275
893.00,0.0277
892.00,0.0283
891.00,0.0291
890.00,0.0296
889.00,0.0292
888.00,0.0281
887.00,0.0266
886.00,0.0255
885.00,0.0248
884.00,0.0244
883.00,0.0243
882.00,0.0243
881.00,0.0245
880.00,0.0249
879.00,0.0255
878.00,0.0267
877.00,0.0282
876.00,0.0301
875.00,0.0325
874.00,0.0352
873.00,0.0381
872.00,0.0409
871.00,0.0432
870.00,0.0445
869.00,0.0447
868.00,0.0437
867.00,0.0421
866.00,0.0404
865.00,0.0388
864.00,0.0372
863.00,0.0357
862.00,0.0345
861.00,0.0334
860.00,0.0327
859.00,0.0325
858.00,0.0329
857.00,0.0339
856.00,0.0354
855.00,0.0372
854.00,0.0390
853.00,0.0408
852.00,0.0426
851.00,0.0443
850.00,0.0460
849.00,0.0470
848.00,0.0472
847.00,0.0466
846.00,0.0456
845.00,0.0443
844.00,0.0431
843.00,0.0421
842.00,0.0414
841.00,0.0410
840.00,0.0409
839.00,0.0412
838.00,0.0422
837.00,0.0436
836.00,0.0451
835.00,0.0463
834.00,0.0471
833.00,0.0472
832.00,0.0465
831.00,0.0451
830.00,0.0432
829.00,0.0410
828.00,0.0385
827.00,0.0363
826.00,0.0348
825.00,0.0343
824.00,0.0351
823.00,0.0376
822.00,0.0415
821.00,0.0456
820.00,0.0483
819.00,0.0495
818.00,0.0504
817.00,0.0518
816.00,0.0529
815.00,0.0522
814.00,0.0491
813.00,0.0443
812.00,0.0396
811.00,0.0360
810.00,0.0336
809.00,0.0319
808.00,0.0306
807.00,0.0297
806.00,0.0290
805.00,0.0284
804.00,0.0280
803.00,0.0277
802.00,0.0276
801.00,0.0274
800.00,0.0272
799.00,0.0271
798.00,0.0271
797.00,0.0270
796.00,0.0270
795.00,0.0270
794.00,0.0271
793.00,0.0272
792.00,0.0272
791.00,0.0272
790.00,0.0273
789.00,0.0274
788.00,0.0274
787.00,0.0275
786.00,0.0276
785.00,0.0277
784.00,0.0278
783.00,0.0279
782.00,0.0280
781.00,0.0281
780.00,0.0282
779.00,0.0285
778.00,0.0290
777.00,0.0298
776.00,0.0307
775.00,0.0316
774.00,0.0321
773.00,0.0321
772.00,0.0316
771.00,0.0311
770.00,0.0309
769.00,0.0308
768.00,0.0308
767.00,0.0310
766.00,0.0313
765.00,0.0316
764.00,0.0320
763.00,0.0326
762.00,0.0332
761.00,0.0339
760.00,0.0345
759.00,0.0350
758.00,0.0354
757.00,0.0356
756.00,0.0358
755.00,0.0360
754.00,0.0363
753.00,0.0367
752.00,0.0370
751.00,0.0374
750.00,0.0379
749.00,0.0383
748.00,0.0388
747.00,0.0392
746.00,0.0397
745.00,0.0403
744.00,0.0409
743.00,0.0416
742.00,0.0425
741.00,0.0435
740.00,0.0447
739.00,0.0462
738.00,0.0483
737.00,0.0508
736.00,0.0531
735.00,0.0548
734.00,0.0554
733.00,0.0550
732.00,0.0542
731.00,0.0535
730.00,0.0532
729.00,0.0530
728.00,0.0524
727.00,0.0514
726.00,0.0499
725.00,0.0481
724.00,0.0465
723.00,0.0452
722.00,0.0443
721.00,0.0438
720.00,0.0435
719.00,0.0436
718.00,0.0441
717.00,0.0448
716.00,0.0454
715.00,0.0458
714.00,0.0460
713.00,0.0458
712.00,0.0453
711.00,0.0448
710.00,0.0444
709.00,0.0442
708.00,0.0440
707.00,0.0439
706.00,0.0441
705.00,0.0443
704.00,0.0446
703.00,0.0451
702.00,0.0457
701.00,0.0462
700.00,0.0468
699.00,0.0473
698.00,0.0477
697.00,0.0480
696.00,0.0480
695.00,0.0478
694.00,0.0478
693.00,0.0479
692.00,0.0482
691.00,0.0489
690.00,0.0500
689.00,0.0510
688.00,0.0518
687.00,0.0522
686.00,0.0523
685.00,0.0521
684.00,0.0519
683.00,0.0517
682.00,0.0519
681.00,0.0521
680.00,0.0525
679.00,0.0530
678.00,0.0537
677.00,0.0546
676.00,0.0555
675.00,0.0565
674.00,0.0578
673.00,0.0589
672.00,0.0598
671.00,0.0604
670.00,0.0608
669.00,0.0612
668.00,0.0617
667.00,0.0623
666.00,0.0629
665.00,0.0633
664.00,0.0639
663.00,0.0648
662.00,0.0658
661.00,0.0666
660.00,0.0670
659.00,0.0673
658.00,0.0675
657.00,0.0677
656.00,0.0679
655.00,0.0682
654.00,0.0687
653.00,0.0693
652.00,0.0698
651.00,0.0703
650.00,0.0709
649.00,0.0713
648.00,0.0715
647.00,0.0716
646.00,0.0717
645.00,0.0716
644.00,0.0713
643.00,0.0709
642.00,0.0704
641.00,0.0699
640.00,0.0694
639.00,0.0689
638.00,0.0686
637.00,0.0683
636.00,0.0678
635.00,0.0674
634.00,0.0671
633.00,0.0668
632.00,0.0666
631.00,0.0664
630.00,0.0663
629.00,0.0662
628.00,0.0660
627.00,0.0659
626.00,0.0660
625.00,0.0663
624.00,0.0667
623.00,0.0671
622.00,0.0677
621.00,0.0681
620.00,0.0683
619.00,0.0682
618.00,0.0679
617.00,0.0674
616.00,0.0666
615.00,0.0659
614.00,0.0654
613.00,0.0650
612.00,0.0647
611.00,0.0646
610.00,0.0650
609.00,0.0658
608.00,0.0668
607.00,0.0682
606.00,0.0698
605.00,0.0713
604.00,0.0724
603.00,0.0733
602.00,0.0740
601.00,0.0743
600.00,0.0744
599.00,0.0745
598.00,0.0747
597.00,0.0748
596.00,0.0749
595.00,0.0750
594.00,0.0752
593.00,0.0754
592.00,0.0755
591.00,0.0756
590.00,0.0758
589.00,0.0760
588.00,0.0762
587.00,0.0765
586.00,0.0770
585.00,0.0777
584.00,0.0784
583.00,0.0793
582.00,0.0804
581.00,0.0815
580.00,0.0827
579.00,0.0841
578.00,0.0858
577.00,0.0873
576.00,0.0882
575.00,0.0883
574.00,0.0878
573.00,0.0870
572.00,0.0860
571.00,0.0851
570.00,0.0845
569.00,0.0840
568.00,0.0834
567.00,0.0831
566.00,0.0831
565.00,0.0833
564.00,0.0835
563.00,0.0839
562.00,0.0845
561.00,0.0851
560.00,0.0854
559.00,0.0852
558.00,0.0848
557.00,0.0839
556.00,0.0827
555.00,0.0816
554.00,0.0808
553.00,0.0803
552.00,0.0801
551.00,0.0802
550.00,0.0808
549.00,0.0816
548.00,0.0823
547.00,0.0830
546.00,0.0835
545.00,0.0835
544.00,0.0827
543.00,0.0818
542.00,0.0810
541.00,0.0802
540.00,0.0793
539.00,0.0786
538.00,0.0782
537.00,0.0780
536.00,0.0779
535.00,0.0782
534.00,0.0789
533.00,0.0798
532.00,0.0804
531.00,0.0808
530.00,0.0809
529.00,0.0805
528.00,0.0797
527.00,0.0787
526.00,0.0779
525.00,0.0771
524.00,0.0762
523.00,0.0754
522.00,0.0750
521.00,0.0748
520.00,0.0744
519.00,0.0741
518.00,0.0741
517.00,0.0740
516.00,0.0737
515.00,0.0734
514.00,0.0733
513.00,0.0731
512.00,0.0727
511.00,0.0725
510.00,0.0728
509.00,0.0731
508.00,0.0733
507.00,0.0734
506.00,0.0737
505.00,0.0738
504.00,0.0737
503.00,0.0734
502.00,0.0734
501.00,0.0733
500.00,0.0729
499.00,0.0726
498.00,0.0727
497.00,0.0728
496.00,0.0728
495.00,0.0728
494.00,0.0732
493.00,0.0737
492.00,0.0738
491.00,0.0737
490.00,0.0738
489.00,0.0738
488.00,0.0734
487.00,0.0731
486.00,0.0731
485.00,0.0731
484.00,0.0730
483.00,0.0728
482.00,0.0730
481.00,0.0731
480.00,0.0729
479.00,0.0727
478.00,0.0729
477.00,0.0731
476.00,0.0732
475.00,0.0733
474.00,0.0737
473.00,0.0740
472.00,0.0737
471.00,0.0732
470.00,0.0730
469.00,0.0727
468.00,0.0724
467.00,0.0722
466.00,0.0724
465.00,0.0722
464.00,0.0716
463.00,0.0712
462.00,0.0712
461.00,0.0713
460.00,0.0710
459.00,0.0709
458.00,0.0714
457.00,0.0718
456.00,0.0716
455.00,0.0713
454.00,0.0714
453.00,0.0714
452.00,0.0711
451.00,0.0707
450.00,0.0707
449.00,0.0706
448.00,0.0701
447.00,0.0697
446.00,0.0698
445.00,0.0698
444.00,0.0694
443.00,0.0691
442.00,0.0693
441.00,0.0696
440.00,0.0694
439.00,0.0690
438.00,0.0689
437.00,0.0687
436.00,0.0681
435.00,0.0680
434.00,0.0685
433.00,0.0688
432.00,0.0684
431.00,0.0679
430.00,0.0681
429.00,0.0683
428.00,0.0678
427.00,0.0673
426.00,0.0671
425.00,0.0669
424.00,0.0663
423.00,0.0662
422.00,0.0668
421.00,0.0672
420.00,0.0668
419.00,0.0666
418.00,0.0673
417.00,0.0675
416.00,0.0663
415.00,0.0651
414.00,0.0651
413.00,0.0656
412.00,0.0661
411.00,0.0670
410.00,0.0687
409.00,0.0692
408.00,0.0677
407.00,0.0659
406.00,0.0654
405.00,0.0653
404.00,0.0646
403.00,0.0647
402.00,0.0663
401.00,0.0673
400.00,0.0660
