Created as New Dataset,Sample 701 By YargerLab Date Wednesday, June 18 2025
cm-1,A
4000.00,0.0083
3999.00,0.0083
3998.00,0.0083
3997.00,0.0083
3996.00,0.0083
3995.00,0.0084
3994.00,0.0084
3993.00,0.0084
3992.00,0.0084
3991.00,0.0083
3990.00,0.0083
3989.00,0.0083
3988.00,0.0083
3987.00,0.0083
3986.00,0.0083
3985.00,0.0084
3984.00,0.0084
3983.00,0.0084
3982.00,0.0084
3981.00,0.0084
3980.00,0.0084
3979.00,0.0084
3978.00,0.0084
3977.00,0.0084
3976.00,0.0084
3975.00,0.0084
3974.00,0.0084
3973.00,0.0084
3972.00,0.0084
3971.00,0.0084
3970.00,0.0084
3969.00,0.0084
3968.00,0.0084
3967.00,0.0084
3966.00,0.0084
3965.00,0.0084
3964.00,0.0084
3963.00,0.0084
3962.00,0.0084
3961.00,0.0084
3960.00,0.0084
3959.00,0.0085
3958.00,0.0085
3957.00,0.0085
3956.00,0.0084
3955.00,0.0084
3954.00,0.0084
3953.00,0.0084
3952.00,0.0085
3951.00,0.0085
3950.00,0.0085
3949.00,0.0085
3948.00,0.0084
3947.00,0.0085
3946.00,0.0085
3945.00,0.0085
3944.00,0.0085
3943.00,0.0085
3942.00,0.0085
3941.00,0.0085
3940.00,0.0085
3939.00,0.0084
3938.00,0.0084
3937.00,0.0084
3936.00,0.0084
3935.00,0.0084
3934.00,0.0085
3933.00,0.0085
3932.00,0.0085
3931.00,0.0085
3930.00,0.0085
3929.00,0.0085
3928.00,0.0085
3927.00,0.0085
3926.00,0.0085
3925.00,0.0085
3924.00,0.0085
3923.00,0.0085
3922.00,0.0085
3921.00,0.0085
3920.00,0.0085
3919.00,0.0085
3918.00,0.0085
3917.00,0.0085
3916.00,0.0085
3915.00,0.0085
3914.00,0.0084
3913.00,0.0084
3912.00,0.0084
3911.00,0.0084
3910.00,0.0084
3909.00,0.0084
3908.00,0.0084
3907.00,0.0084
3906.00,0.0084
3905.00,0.0084
3904.00,0.0084
3903.00,0.0085
3902.00,0.0085
3901.00,0.0085
3900.00,0.0084
3899.00,0.0084
3898.00,0.0084
3897.00,0.0084
3896.00,0.0083
3895.00,0.0083
3894.00,0.0083
3893.00,0.0083
3892.00,0.0083
3891.00,0.0083
3890.00,0.0083
3889.00,0.0083
3888.00,0.0083
3887.00,0.0083
3886.00,0.0083
3885.00,0.0083
3884.00,0.0083
3883.00,0.0083
3882.00,0.0083
3881.00,0.0083
3880.00,0.0083
3879.00,0.0083
3878.00,0.0083
3877.00,0.0083
3876.00,0.0083
3875.00,0.0083
3874.00,0.0083
3873.00,0.0083
3872.00,0.0084
3871.00,0.0084
3870.00,0.0084
3869.00,0.0084
3868.00,0.0083
3867.00,0.0083
3866.00,0.0083
3865.00,0.0082
3864.00,0.0082
3863.00,0.0082
3862.00,0.0083
3861.00,0.0083
3860.00,0.0083
3859.00,0.0083
3858.00,0.0084
3857.00,0.0084
3856.00,0.0084
3855.00,0.0084
3854.00,0.0084
3853.00,0.0084
3852.00,0.0084
3851.00,0.0083
3850.00,0.0082
3849.00,0.0082
3848.00,0.0081
3847.00,0.0081
3846.00,0.0082
3845.00,0.0082
3844.00,0.0082
3843.00,0.0082
3842.00,0.0082
3841.00,0.0082
3840.00,0.0082
3839.00,0.0082
3838.00,0.0082
3837.00,0.0082
3836.00,0.0082
3835.00,0.0082
3834.00,0.0082
3833.00,0.0082
3832.00,0.0082
3831.00,0.0082
3830.00,0.0082
3829.00,0.0082
3828.00,0.0081
3827.00,0.0081
3826.00,0.0081
3825.00,0.0081
3824.00,0.0082
3823.00,0.0082
3822.00,0.0082
3821.00,0.0082
3820.00,0.0082
3819.00,0.0082
3818.00,0.0082
3817.00,0.0082
3816.00,0.0082
3815.00,0.0082
3814.00,0.0082
3813.00,0.0082
3812.00,0.0081
3811.00,0.0081
3810.00,0.0081
3809.00,0.0082
3808.00,0.0082
3807.00,0.0082
3806.00,0.0082
3805.00,0.0082
3804.00,0.0082
3803.00,0.0081
3802.00,0.0081
3801.00,0.0080
3800.00,0.0080
3799.00,0.0080
3798.00,0.0080
3797.00,0.0080
3796.00,0.0081
3795.00,0.0081
3794.00,0.0081
3793.00,0.0081
3792.00,0.0081
3791.00,0.0081
3790.00,0.0081
3789.00,0.0081
3788.00,0.0081
3787.00,0.0081
3786.00,0.0081
3785.00,0.0081
3784.00,0.0081
3783.00,0.0081
3782.00,0.0081
3781.00,0.0081
3780.00,0.0082
3779.00,0.0082
3778.00,0.0082
3777.00,0.0081
3776.00,0.0081
3775.00,0.0081
3774.00,0.0081
3773.00,0.0081
3772.00,0.0081
3771.00,0.0081
3770.00,0.0081
3769.00,0.0081
3768.00,0.0081
3767.00,0.0081
3766.00,0.0081
3765.00,0.0081
3764.00,0.0081
3763.00,0.0081
3762.00,0.0081
3761.00,0.0081
3760.00,0.0080
3759.00,0.0080
3758.00,0.0080
3757.00,0.0081
3756.00,0.0081
3755.00,0.0081
3754.00,0.0082
3753.00,0.0082
3752.00,0.0081
3751.00,0.0081
3750.00,0.0080
3749.00,0.0080
3748.00,0.0080
3747.00,0.0080
3746.00,0.0080
3745.00,0.0080
3744.00,0.0080
3743.00,0.0080
3742.00,0.0079
3741.00,0.0079
3740.00,0.0079
3739.00,0.0079
3738.00,0.0079
3737.00,0.0078
3736.00,0.0078
3735.00,0.0078
3734.00,0.0078
3733.00,0.0078
3732.00,0.0078
3731.00,0.0078
3730.00,0.0078
3729.00,0.0078
3728.00,0.0078
3727.00,0.0078
3726.00,0.0078
3725.00,0.0077
3724.00,0.0077
3723.00,0.0077
3722.00,0.0077
3721.00,0.0077
3720.00,0.0077
3719.00,0.0077
3718.00,0.0078
3717.00,0.0078
3716.00,0.0078
3715.00,0.0078
3714.00,0.0078
3713.00,0.0078
3712.00,0.0078
3711.00,0.0078
3710.00,0.0078
3709.00,0.0077
3708.00,0.0077
3707.00,0.0077
3706.00,0.0076
3705.00,0.0076
3704.00,0.0076
3703.00,0.0076
3702.00,0.0076
3701.00,0.0077
3700.00,0.0077
3699.00,0.0077
3698.00,0.0077
3697.00,0.0077
3696.00,0.0076
3695.00,0.0077
3694.00,0.0077
3693.00,0.0076
3692.00,0.0076
3691.00,0.0076
3690.00,0.0076
3689.00,0.0075
3688.00,0.0075
3687.00,0.0075
3686.00,0.0075
3685.00,0.0074
3684.00,0.0074
3683.00,0.0074
3682.00,0.0074
3681.00,0.0074
3680.00,0.0073
3679.00,0.0073
3678.00,0.0072
3677.00,0.0072
3676.00,0.0071
3675.00,0.0071
3674.00,0.0071
3673.00,0.0070
3672.00,0.0070
3671.00,0.0070
3670.00,0.0070
3669.00,0.0070
3668.00,0.0069
3667.00,0.0069
3666.00,0.0069
3665.00,0.0068
3664.00,0.0068
3663.00,0.0068
3662.00,0.0068
3661.00,0.0067
3660.00,0.0067
3659.00,0.0067
3658.00,0.0067
3657.00,0.0067
3656.00,0.0067
3655.00,0.0067
3654.00,0.0068
3653.00,0.0067
3652.00,0.0067
3651.00,0.0067
3650.00,0.0068
3649.00,0.0068
3648.00,0.0069
3647.00,0.0069
3646.00,0.0069
3645.00,0.0069
3644.00,0.0069
3643.00,0.0069
3642.00,0.0069
3641.00,0.0069
3640.00,0.0069
3639.00,0.0069
3638.00,0.0069
3637.00,0.0069
3636.00,0.0069
3635.00,0.0070
3634.00,0.0071
3633.00,0.0071
3632.00,0.0072
3631.00,0.0072
3630.00,0.0073
3629.00,0.0073
3628.00,0.0073
3627.00,0.0073
3626.00,0.0073
3625.00,0.0073
3624.00,0.0073
3623.00,0.0073
3622.00,0.0073
3621.00,0.0073
3620.00,0.0073
3619.00,0.0074
3618.00,0.0074
3617.00,0.0074
3616.00,0.0074
3615.00,0.0074
3614.00,0.0075
3613.00,0.0075
3612.00,0.0075
3611.00,0.0075
3610.00,0.0075
3609.00,0.0074
3608.00,0.0074
3607.00,0.0074
3606.00,0.0074
3605.00,0.0074
3604.00,0.0075
3603.00,0.0075
3602.00,0.0075
3601.00,0.0075
3600.00,0.0075
3599.00,0.0075
3598.00,0.0075
3597.00,0.0075
3596.00,0.0075
3595.00,0.0075
3594.00,0.0075
3593.00,0.0075
3592.00,0.0076
3591.00,0.0076
3590.00,0.0076
3589.00,0.0076
3588.00,0.0076
3587.00,0.0076
3586.00,0.0076
3585.00,0.0076
3584.00,0.0076
3583.00,0.0076
3582.00,0.0077
3581.00,0.0077
3580.00,0.0077
3579.00,0.0077
3578.00,0.0078
3577.00,0.0078
3576.00,0.0078
3575.00,0.0078
3574.00,0.0079
3573.00,0.0079
3572.00,0.0080
3571.00,0.0080
3570.00,0.0080
3569.00,0.0080
3568.00,0.0081
3567.00,0.0081
3566.00,0.0081
3565.00,0.0081
3564.00,0.0081
3563.00,0.0082
3562.00,0.0082
3561.00,0.0083
3560.00,0.0084
3559.00,0.0084
3558.00,0.0085
3557.00,0.0086
3556.00,0.0087
3555.00,0.0087
3554.00,0.0088
3553.00,0.0089
3552.00,0.0090
3551.00,0.0091
3550.00,0.0093
3549.00,0.0094
3548.00,0.0096
3547.00,0.0097
3546.00,0.0099
3545.00,0.0101
3544.00,0.0104
3543.00,0.0106
3542.00,0.0109
3541.00,0.0113
3540.00,0.0116
3539.00,0.0120
3538.00,0.0124
3537.00,0.0129
3536.00,0.0135
3535.00,0.0142
3534.00,0.0150
3533.00,0.0159
3532.00,0.0170
3531.00,0.0183
3530.00,0.0197
3529.00,0.0214
3528.00,0.0234
3527.00,0.0254
3526.00,0.0275
3525.00,0.0297
3524.00,0.0316
3523.00,0.0334
3522.00,0.0347
3521.00,0.0357
3520.00,0.0362
3519.00,0.0363
3518.00,0.0360
3517.00,0.0353
3516.00,0.0343
3515.00,0.0332
3514.00,0.0319
3513.00,0.0305
3512.00,0.0290
3511.00,0.0276
3510.00,0.0263
3509.00,0.0250
3508.00,0.0239
3507.00,0.0230
3506.00,0.0222
3505.00,0.0215
3504.00,0.0209
3503.00,0.0204
3502.00,0.0200
3501.00,0.0196
3500.00,0.0194
3499.00,0.0192
3498.00,0.0191
3497.00,0.0190
3496.00,0.0189
3495.00,0.0188
3494.00,0.0188
3493.00,0.0187
3492.00,0.0188
3491.00,0.0188
3490.00,0.0189
3489.00,0.0191
3488.00,0.0192
3487.00,0.0193
3486.00,0.0194
3485.00,0.0196
3484.00,0.0197
3483.00,0.0199
3482.00,0.0201
3481.00,0.0203
3480.00,0.0205
3479.00,0.0208
3478.00,0.0211
3477.00,0.0214
3476.00,0.0217
3475.00,0.0220
3474.00,0.0223
3473.00,0.0226
3472.00,0.0229
3471.00,0.0233
3470.00,0.0236
3469.00,0.0240
3468.00,0.0244
3467.00,0.0248
3466.00,0.0252
3465.00,0.0256
3464.00,0.0261
3463.00,0.0265
3462.00,0.0270
3461.00,0.0275
3460.00,0.0279
3459.00,0.0283
3458.00,0.0287
3457.00,0.0292
3456.00,0.0296
3455.00,0.0301
3454.00,0.0305
3453.00,0.0309
3452.00,0.0314
3451.00,0.0318
3450.00,0.0322
3449.00,0.0327
3448.00,0.0331
3447.00,0.0336
3446.00,0.0340
3445.00,0.0344
3444.00,0.0348
3443.00,0.0352
3442.00,0.0356
3441.00,0.0360
3440.00,0.0364
3439.00,0.0368
3438.00,0.0372
3437.00,0.0376
3436.00,0.0380
3435.00,0.0384
3434.00,0.0387
3433.00,0.0391
3432.00,0.0395
3431.00,0.0398
3430.00,0.0402
3429.00,0.0406
3428.00,0.0409
3427.00,0.0413
3426.00,0.0417
3425.00,0.0422
3424.00,0.0426
3423.00,0.0431
3422.00,0.0437
3421.00,0.0443
3420.00,0.0449
3419.00,0.0455
3418.00,0.0461
3417.00,0.0468
3416.00,0.0476
3415.00,0.0483
3414.00,0.0490
3413.00,0.0496
3412.00,0.0502
3411.00,0.0507
3410.00,0.0511
3409.00,0.0513
3408.00,0.0514
3407.00,0.0514
3406.00,0.0512
3405.00,0.0509
3404.00,0.0504
3403.00,0.0497
3402.00,0.0489
3401.00,0.0479
3400.00,0.0468
3399.00,0.0456
3398.00,0.0443
3397.00,0.0430
3396.00,0.0417
3395.00,0.0404
3394.00,0.0391
3393.00,0.0378
3392.00,0.0366
3391.00,0.0354
3390.00,0.0342
3389.00,0.0332
3388.00,0.0322
3387.00,0.0313
3386.00,0.0304
3385.00,0.0297
3384.00,0.0289
3383.00,0.0282
3382.00,0.0276
3381.00,0.0269
3380.00,0.0263
3379.00,0.0258
3378.00,0.0252
3377.00,0.0247
3376.00,0.0242
3375.00,0.0238
3374.00,0.0233
3373.00,0.0229
3372.00,0.0225
3371.00,0.0222
3370.00,0.0218
3369.00,0.0214
3368.00,0.0211
3367.00,0.0207
3366.00,0.0203
3365.00,0.0200
3364.00,0.0197
3363.00,0.0194
3362.00,0.0191
3361.00,0.0188
3360.00,0.0185
3359.00,0.0183
3358.00,0.0180
3357.00,0.0178
3356.00,0.0176
3355.00,0.0173
3354.00,0.0171
3353.00,0.0169
3352.00,0.0167
3351.00,0.0165
3350.00,0.0164
3349.00,0.0162
3348.00,0.0160
3347.00,0.0158
3346.00,0.0156
3345.00,0.0155
3344.00,0.0153
3343.00,0.0152
3342.00,0.0150
3341.00,0.0149
3340.00,0.0148
3339.00,0.0146
3338.00,0.0145
3337.00,0.0144
3336.00,0.0143
3335.00,0.0142
3334.00,0.0140
3333.00,0.0139
3332.00,0.0138
3331.00,0.0137
3330.00,0.0136
3329.00,0.0135
3328.00,0.0134
3327.00,0.0133
3326.00,0.0132
3325.00,0.0131
3324.00,0.0130
3323.00,0.0129
3322.00,0.0128
3321.00,0.0128
3320.00,0.0127
3319.00,0.0126
3318.00,0.0126
3317.00,0.0125
3316.00,0.0125
3315.00,0.0124
3314.00,0.0123
3313.00,0.0123
3312.00,0.0122
3311.00,0.0121
3310.00,0.0121
3309.00,0.0120
3308.00,0.0120
3307.00,0.0119
3306.00,0.0119
3305.00,0.0118
3304.00,0.0117
3303.00,0.0116
3302.00,0.0116
3301.00,0.0115
3300.00,0.0114
3299.00,0.0114
3298.00,0.0113
3297.00,0.0113
3296.00,0.0113
3295.00,0.0112
3294.00,0.0111
3293.00,0.0111
3292.00,0.0110
3291.00,0.0110
3290.00,0.0110
3289.00,0.0109
3288.00,0.0109
3287.00,0.0108
3286.00,0.0108
3285.00,0.0107
3284.00,0.0107
3283.00,0.0106
3282.00,0.0106
3281.00,0.0105
3280.00,0.0105
3279.00,0.0105
3278.00,0.0104
3277.00,0.0104
3276.00,0.0104
3275.00,0.0103
3274.00,0.0103
3273.00,0.0103
3272.00,0.0103
3271.00,0.0103
3270.00,0.0102
3269.00,0.0102
3268.00,0.0102
3267.00,0.0102
3266.00,0.0102
3265.00,0.0102
3264.00,0.0102
3263.00,0.0101
3262.00,0.0101
3261.00,0.0101
3260.00,0.0101
3259.00,0.0100
3258.00,0.0100
3257.00,0.0099
3256.00,0.0099
3255.00,0.0099
3254.00,0.0099
3253.00,0.0099
3252.00,0.0099
3251.00,0.0099
3250.00,0.0098
3249.00,0.0098
3248.00,0.0098
3247.00,0.0098
3246.00,0.0098
3245.00,0.0098
3244.00,0.0098
3243.00,0.0098
3242.00,0.0098
3241.00,0.0097
3240.00,0.0097
3239.00,0.0097
3238.00,0.0097
3237.00,0.0096
3236.00,0.0096
3235.00,0.0096
3234.00,0.0096
3233.00,0.0095
3232.00,0.0095
3231.00,0.0095
3230.00,0.0095
3229.00,0.0095
3228.00,0.0095
3227.00,0.0095
3226.00,0.0095
3225.00,0.0095
3224.00,0.0095
3223.00,0.0094
3222.00,0.0094
3221.00,0.0094
3220.00,0.0094
3219.00,0.0093
3218.00,0.0093
3217.00,0.0093
3216.00,0.0093
3215.00,0.0093
3214.00,0.0093
3213.00,0.0093
3212.00,0.0093
3211.00,0.0093
3210.00,0.0094
3209.00,0.0094
3208.00,0.0094
3207.00,0.0094
3206.00,0.0093
3205.00,0.0093
3204.00,0.0093
3203.00,0.0093
3202.00,0.0092
3201.00,0.0092
3200.00,0.0092
3199.00,0.0092
3198.00,0.0092
3197.00,0.0092
3196.00,0.0092
3195.00,0.0092
3194.00,0.0092
3193.00,0.0092
3192.00,0.0092
3191.00,0.0092
3190.00,0.0092
3189.00,0.0092
3188.00,0.0092
3187.00,0.0092
3186.00,0.0092
3185.00,0.0092
3184.00,0.0092
3183.00,0.0092
3182.00,0.0092
3181.00,0.0092
3180.00,0.0092
3179.00,0.0092
3178.00,0.0092
3177.00,0.0092
3176.00,0.0092
3175.00,0.0092
3174.00,0.0092
3173.00,0.0092
3172.00,0.0092
3171.00,0.0093
3170.00,0.0093
3169.00,0.0093
3168.00,0.0093
3167.00,0.0093
3166.00,0.0093
3165.00,0.0093
3164.00,0.0093
3163.00,0.0093
3162.00,0.0093
3161.00,0.0093
3160.00,0.0093
3159.00,0.0093
3158.00,0.0093
3157.00,0.0093
3156.00,0.0093
3155.00,0.0092
3154.00,0.0092
3153.00,0.0091
3152.00,0.0091
3151.00,0.0091
3150.00,0.0091
3149.00,0.0092
3148.00,0.0092
3147.00,0.0091
3146.00,0.0091
3145.00,0.0092
3144.00,0.0092
3143.00,0.0091
3142.00,0.0091
3141.00,0.0091
3140.00,0.0091
3139.00,0.0091
3138.00,0.0091
3137.00,0.0091
3136.00,0.0091
3135.00,0.0091
3134.00,0.0091
3133.00,0.0091
3132.00,0.0091
3131.00,0.0091
3130.00,0.0090
3129.00,0.0090
3128.00,0.0090
3127.00,0.0090
3126.00,0.0090
3125.00,0.0090
3124.00,0.0090
3123.00,0.0090
3122.00,0.0090
3121.00,0.0090
3120.00,0.0090
3119.00,0.0091
3118.00,0.0091
3117.00,0.0090
3116.00,0.0090
3115.00,0.0090
3114.00,0.0090
3113.00,0.0090
3112.00,0.0090
3111.00,0.0090
3110.00,0.0090
3109.00,0.0090
3108.00,0.0090
3107.00,0.0090
3106.00,0.0090
3105.00,0.0090
3104.00,0.0090
3103.00,0.0090
3102.00,0.0090
3101.00,0.0090
3100.00,0.0091
3099.00,0.0091
3098.00,0.0091
3097.00,0.0091
3096.00,0.0091
3095.00,0.0092
3094.00,0.0092
3093.00,0.0092
3092.00,0.0092
3091.00,0.0093
3090.00,0.0093
3089.00,0.0093
3088.00,0.0094
3087.00,0.0094
3086.00,0.0095
3085.00,0.0097
3084.00,0.0099
3083.00,0.0101
3082.00,0.0104
3081.00,0.0108
3080.00,0.0114
3079.00,0.0121
3078.00,0.0130
3077.00,0.0138
3076.00,0.0146
3075.00,0.0150
3074.00,0.0152
3073.00,0.0149
3072.00,0.0144
3071.00,0.0137
3070.00,0.0129
3069.00,0.0122
3068.00,0.0116
3067.00,0.0112
3066.00,0.0108
3065.00,0.0106
3064.00,0.0104
3063.00,0.0102
3062.00,0.0101
3061.00,0.0100
3060.00,0.0099
3059.00,0.0099
3058.00,0.0098
3057.00,0.0097
3056.00,0.0097
3055.00,0.0096
3054.00,0.0096
3053.00,0.0096
3052.00,0.0096
3051.00,0.0096
3050.00,0.0096
3049.00,0.0097
3048.00,0.0097
3047.00,0.0098
3046.00,0.0098
3045.00,0.0099
3044.00,0.0100
3043.00,0.0101
3042.00,0.0101
3041.00,0.0102
3040.00,0.0103
3039.00,0.0104
3038.00,0.0105
3037.00,0.0106
3036.00,0.0107
3035.00,0.0108
3034.00,0.0109
3033.00,0.0110
3032.00,0.0111
3031.00,0.0111
3030.00,0.0110
3029.00,0.0109
3028.00,0.0107
3027.00,0.0106
3026.00,0.0104
3025.00,0.0103
3024.00,0.0102
3023.00,0.0101
3022.00,0.0100
3021.00,0.0099
3020.00,0.0099
3019.00,0.0098
3018.00,0.0097
3017.00,0.0097
3016.00,0.0096
3015.00,0.0096
3014.00,0.0095
3013.00,0.0094
3012.00,0.0093
3011.00,0.0092
3010.00,0.0091
3009.00,0.0090
3008.00,0.0089
3007.00,0.0087
3006.00,0.0085
3005.00,0.0083
3004.00,0.0081
3003.00,0.0079
3002.00,0.0078
3001.00,0.0076
3000.00,0.0075
2999.00,0.0074
2998.00,0.0073
2997.00,0.0072
2996.00,0.0072
2995.00,0.0072
2994.00,0.0072
2993.00,0.0073
2992.00,0.0074
2991.00,0.0075
2990.00,0.0076
2989.00,0.0077
2988.00,0.0077
2987.00,0.0076
2986.00,0.0074
2985.00,0.0070
2984.00,0.0064
2983.00,0.0059
2982.00,0.0056
2981.00,0.0059
2980.00,0.0065
2979.00,0.0075
2978.00,0.0087
2977.00,0.0100
2976.00,0.0113
2975.00,0.0126
2974.00,0.0140
2973.00,0.0155
2972.00,0.0170
2971.00,0.0187
2970.00,0.0206
2969.00,0.0224
2968.00,0.0241
2967.00,0.0255
2966.00,0.0265
2965.00,0.0271
2964.00,0.0274
2963.00,0.0276
2962.00,0.0276
2961.00,0.0274
2960.00,0.0272
2959.00,0.0268
2958.00,0.0262
2957.00,0.0256
2956.00,0.0248
2955.00,0.0241
2954.00,0.0234
2953.00,0.0228
2952.00,0.0224
2951.00,0.0222
2950.00,0.0222
2949.00,0.0225
2948.00,0.0231
2947.00,0.0240
2946.00,0.0253
2945.00,0.0268
2944.00,0.0283
2943.00,0.0298
2942.00,0.0312
2941.00,0.0325
2940.00,0.0336
2939.00,0.0346
2938.00,0.0358
2937.00,0.0370
2936.00,0.0384
2935.00,0.0398
2934.00,0.0413
2933.00,0.0429
2932.00,0.0446
2931.00,0.0463
2930.00,0.0481
2929.00,0.0498
2928.00,0.0514
2927.00,0.0527
2926.00,0.0537
2925.00,0.0544
2924.00,0.0546
2923.00,0.0545
2922.00,0.0541
2921.00,0.0537
2920.00,0.0532
2919.00,0.0528
2918.00,0.0524
2917.00,0.0520
2916.00,0.0516
2915.00,0.0510
2914.00,0.0502
2913.00,0.0491
2912.00,0.0479
2911.00,0.0464
2910.00,0.0449
2909.00,0.0433
2908.00,0.0418
2907.00,0.0403
2906.00,0.0389
2905.00,0.0377
2904.00,0.0366
2903.00,0.0356
2902.00,0.0348
2901.00,0.0340
2900.00,0.0333
2899.00,0.0325
2898.00,0.0316
2897.00,0.0307
2896.00,0.0297
2895.00,0.0287
2894.00,0.0278
2893.00,0.0269
2892.00,0.0262
2891.00,0.0256
2890.00,0.0251
2889.00,0.0247
2888.00,0.0244
2887.00,0.0242
2886.00,0.0241
2885.00,0.0240
2884.00,0.0239
2883.00,0.0240
2882.00,0.0241
2881.00,0.0242
2880.00,0.0245
2879.00,0.0248
2878.00,0.0252
2877.00,0.0257
2876.00,0.0262
2875.00,0.0267
2874.00,0.0272
2873.00,0.0276
2872.00,0.0279
2871.00,0.0280
2870.00,0.0279
2869.00,0.0277
2868.00,0.0275
2867.00,0.0273
2866.00,0.0273
2865.00,0.0276
2864.00,0.0282
2863.00,0.0292
2862.00,0.0307
2861.00,0.0327
2860.00,0.0350
2859.00,0.0375
2858.00,0.0399
2857.00,0.0419
2856.00,0.0431
2855.00,0.0434
2854.00,0.0426
2853.00,0.0410
2852.00,0.0388
2851.00,0.0364
2850.00,0.0339
2849.00,0.0315
2848.00,0.0293
2847.00,0.0274
2846.00,0.0256
2845.00,0.0241
2844.00,0.0228
2843.00,0.0217
2842.00,0.0209
2841.00,0.0202
2840.00,0.0197
2839.00,0.0193
2838.00,0.0192
2837.00,0.0193
2836.00,0.0196
2835.00,0.0203
2834.00,0.0212
2833.00,0.0224
2832.00,0.0238
2831.00,0.0251
2830.00,0.0261
2829.00,0.0264
2828.00,0.0261
2827.00,0.0250
2826.00,0.0236
2825.00,0.0219
2824.00,0.0203
2823.00,0.0189
2822.00,0.0178
2821.00,0.0169
2820.00,0.0161
2819.00,0.0156
2818.00,0.0151
2817.00,0.0148
2816.00,0.0145
2815.00,0.0142
2814.00,0.0140
2813.00,0.0137
2812.00,0.0135
2811.00,0.0134
2810.00,0.0132
2809.00,0.0131
2808.00,0.0130
2807.00,0.0129
2806.00,0.0128
2805.00,0.0127
2804.00,0.0125
2803.00,0.0124
2802.00,0.0123
2801.00,0.0123
2800.00,0.0122
2799.00,0.0121
2798.00,0.0120
2797.00,0.0120
2796.00,0.0119
2795.00,0.0118
2794.00,0.0117
2793.00,0.0117
2792.00,0.0116
2791.00,0.0116
2790.00,0.0116
2789.00,0.0115
2788.00,0.0115
2787.00,0.0114
2786.00,0.0113
2785.00,0.0113
2784.00,0.0112
2783.00,0.0112
2782.00,0.0111
2781.00,0.0111
2780.00,0.0111
2779.00,0.0110
2778.00,0.0110
2777.00,0.0109
2776.00,0.0109
2775.00,0.0109
2774.00,0.0108
2773.00,0.0108
2772.00,0.0108
2771.00,0.0107
2770.00,0.0107
2769.00,0.0107
2768.00,0.0106
2767.00,0.0106
2766.00,0.0106
2765.00,0.0105
2764.00,0.0105
2763.00,0.0105
2762.00,0.0105
2761.00,0.0105
2760.00,0.0105
2759.00,0.0104
2758.00,0.0104
2757.00,0.0104
2756.00,0.0104
2755.00,0.0104
2754.00,0.0104
2753.00,0.0104
2752.00,0.0104
2751.00,0.0104
2750.00,0.0104
2749.00,0.0104
2748.00,0.0104
2747.00,0.0104
2746.00,0.0104
2745.00,0.0104
2744.00,0.0104
2743.00,0.0104
2742.00,0.0105
2741.00,0.0105
2740.00,0.0106
2739.00,0.0106
2738.00,0.0107
2737.00,0.0107
2736.00,0.0108
2735.00,0.0108
2734.00,0.0109
2733.00,0.0110
2732.00,0.0112
2731.00,0.0113
2730.00,0.0114
2729.00,0.0115
2728.00,0.0115
2727.00,0.0114
2726.00,0.0113
2725.00,0.0112
2724.00,0.0111
2723.00,0.0110
2722.00,0.0109
2721.00,0.0108
2720.00,0.0107
2719.00,0.0107
2718.00,0.0106
2717.00,0.0106
2716.00,0.0105
2715.00,0.0105
2714.00,0.0104
2713.00,0.0104
2712.00,0.0103
2711.00,0.0103
2710.00,0.0103
2709.00,0.0102
2708.00,0.0102
2707.00,0.0102
2706.00,0.0101
2705.00,0.0101
2704.00,0.0101
2703.00,0.0101
2702.00,0.0101
2701.00,0.0101
2700.00,0.0100
2699.00,0.0100
2698.00,0.0100
2697.00,0.0100
2696.00,0.0100
2695.00,0.0100
2694.00,0.0100
2693.00,0.0100
2692.00,0.0100
2691.00,0.0100
2690.00,0.0100
2689.00,0.0100
2688.00,0.0100
2687.00,0.0100
2686.00,0.0100
2685.00,0.0101
2684.00,0.0101
2683.00,0.0101
2682.00,0.0101
2681.00,0.0101
2680.00,0.0102
2679.00,0.0102
2678.00,0.0102
2677.00,0.0102
2676.00,0.0103
2675.00,0.0103
2674.00,0.0103
2673.00,0.0103
2672.00,0.0103
2671.00,0.0103
2670.00,0.0103
2669.00,0.0103
2668.00,0.0104
2667.00,0.0104
2666.00,0.0104
2665.00,0.0105
2664.00,0.0105
2663.00,0.0105
2662.00,0.0105
2661.00,0.0105
2660.00,0.0106
2659.00,0.0106
2658.00,0.0106
2657.00,0.0106
2656.00,0.0106
2655.00,0.0106
2654.00,0.0106
2653.00,0.0105
2652.00,0.0105
2651.00,0.0105
2650.00,0.0105
2649.00,0.0105
2648.00,0.0104
2647.00,0.0104
2646.00,0.0104
2645.00,0.0103
2644.00,0.0103
2643.00,0.0103
2642.00,0.0103
2641.00,0.0103
2640.00,0.0102
2639.00,0.0102
2638.00,0.0102
2637.00,0.0102
2636.00,0.0102
2635.00,0.0102
2634.00,0.0102
2633.00,0.0102
2632.00,0.0102
2631.00,0.0102
2630.00,0.0102
2629.00,0.0102
2628.00,0.0102
2627.00,0.0102
2626.00,0.0102
2625.00,0.0102
2624.00,0.0102
2623.00,0.0102
2622.00,0.0101
2621.00,0.0101
2620.00,0.0101
2619.00,0.0101
2618.00,0.0101
2617.00,0.0101
2616.00,0.0101
2615.00,0.0101
2614.00,0.0101
2613.00,0.0101
2612.00,0.0101
2611.00,0.0101
2610.00,0.0100
2609.00,0.0100
2608.00,0.0100
2607.00,0.0101
2606.00,0.0101
2605.00,0.0101
2604.00,0.0100
2603.00,0.0100
2602.00,0.0100
2601.00,0.0100
2600.00,0.0100
2599.00,0.0100
2598.00,0.0100
2597.00,0.0100
2596.00,0.0099
2595.00,0.0099
2594.00,0.0098
2593.00,0.0098
2592.00,0.0098
2591.00,0.0098
2590.00,0.0098
2589.00,0.0098
2588.00,0.0098
2587.00,0.0098
2586.00,0.0098
2585.00,0.0098
2584.00,0.0098
2583.00,0.0098
2582.00,0.0098
2581.00,0.0099
2580.00,0.0099
2579.00,0.0099
2578.00,0.0099
2577.00,0.0098
2576.00,0.0098
2575.00,0.0098
2574.00,0.0098
2573.00,0.0098
2572.00,0.0098
2571.00,0.0098
2570.00,0.0098
2569.00,0.0098
2568.00,0.0098
2567.00,0.0098
2566.00,0.0098
2565.00,0.0098
2564.00,0.0098
2563.00,0.0098
2562.00,0.0098
2561.00,0.0098
2560.00,0.0098
2559.00,0.0098
2558.00,0.0097
2557.00,0.0097
2556.00,0.0097
2555.00,0.0097
2554.00,0.0097
2553.00,0.0097
2552.00,0.0097
2551.00,0.0097
2550.00,0.0097
2549.00,0.0096
2548.00,0.0096
2547.00,0.0096
2546.00,0.0096
2545.00,0.0096
2544.00,0.0096
2543.00,0.0096
2542.00,0.0096
2541.00,0.0097
2540.00,0.0097
2539.00,0.0097
2538.00,0.0097
2537.00,0.0097
2536.00,0.0096
2535.00,0.0096
2534.00,0.0096
2533.00,0.0096
2532.00,0.0096
2531.00,0.0096
2530.00,0.0096
2529.00,0.0096
2528.00,0.0096
2527.00,0.0095
2526.00,0.0095
2525.00,0.0095
2524.00,0.0095
2523.00,0.0095
2522.00,0.0095
2521.00,0.0095
2520.00,0.0095
2519.00,0.0095
2518.00,0.0095
2517.00,0.0095
2516.00,0.0095
2515.00,0.0095
2514.00,0.0095
2513.00,0.0095
2512.00,0.0095
2511.00,0.0095
2510.00,0.0095
2509.00,0.0095
2508.00,0.0095
2507.00,0.0095
2506.00,0.0095
2505.00,0.0095
2504.00,0.0095
2503.00,0.0095
2502.00,0.0095
2501.00,0.0095
2500.00,0.0095
2499.00,0.0096
2498.00,0.0096
2497.00,0.0096
2496.00,0.0096
2495.00,0.0095
2494.00,0.0095
2493.00,0.0095
2492.00,0.0096
2491.00,0.0096
2490.00,0.0095
2489.00,0.0095
2488.00,0.0095
2487.00,0.0095
2486.00,0.0095
2485.00,0.0095
2484.00,0.0095
2483.00,0.0095
2482.00,0.0095
2481.00,0.0095
2480.00,0.0095
2479.00,0.0095
2478.00,0.0095
2477.00,0.0095
2476.00,0.0096
2475.00,0.0096
2474.00,0.0096
2473.00,0.0096
2472.00,0.0096
2471.00,0.0096
2470.00,0.0096
2469.00,0.0096
2468.00,0.0095
2467.00,0.0095
2466.00,0.0095
2465.00,0.0095
2464.00,0.0095
2463.00,0.0095
2462.00,0.0095
2461.00,0.0096
2460.00,0.0096
2459.00,0.0097
2458.00,0.0097
2457.00,0.0098
2456.00,0.0098
2455.00,0.0098
2454.00,0.0097
2453.00,0.0097
2452.00,0.0097
2451.00,0.0097
2450.00,0.0097
2449.00,0.0097
2448.00,0.0096
2447.00,0.0096
2446.00,0.0096
2445.00,0.0096
2444.00,0.0096
2443.00,0.0096
2442.00,0.0095
2441.00,0.0095
2440.00,0.0094
2439.00,0.0094
2438.00,0.0093
2437.00,0.0093
2436.00,0.0093
2435.00,0.0092
2434.00,0.0092
2433.00,0.0092
2432.00,0.0092
2431.00,0.0092
2430.00,0.0091
2429.00,0.0091
2428.00,0.0091
2427.00,0.0090
2426.00,0.0090
2425.00,0.0090
2424.00,0.0090
2423.00,0.0090
2422.00,0.0090
2421.00,0.0090
2420.00,0.0089
2419.00,0.0089
2418.00,0.0089
2417.00,0.0089
2416.00,0.0089
2415.00,0.0089
2414.00,0.0089
2413.00,0.0089
2412.00,0.0089
2411.00,0.0089
2410.00,0.0089
2409.00,0.0088
2408.00,0.0088
2407.00,0.0087
2406.00,0.0087
2405.00,0.0087
2404.00,0.0087
2403.00,0.0087
2402.00,0.0087
2401.00,0.0087
2400.00,0.0087
2399.00,0.0087
2398.00,0.0087
2397.00,0.0087
2396.00,0.0087
2395.00,0.0087
2394.00,0.0087
2393.00,0.0087
2392.00,0.0087
2391.00,0.0087
2390.00,0.0087
2389.00,0.0087
2388.00,0.0087
2387.00,0.0087
2386.00,0.0086
2385.00,0.0085
2384.00,0.0085
2383.00,0.0084
2382.00,0.0083
2381.00,0.0083
2380.00,0.0082
2379.00,0.0082
2378.00,0.0082
2377.00,0.0081
2376.00,0.0081
2375.00,0.0082
2374.00,0.0082
2373.00,0.0082
2372.00,0.0082
2371.00,0.0082
2370.00,0.0082
2369.00,0.0081
2368.00,0.0081
2367.00,0.0080
2366.00,0.0081
2365.00,0.0081
2364.00,0.0081
2363.00,0.0082
2362.00,0.0082
2361.00,0.0082
2360.00,0.0082
2359.00,0.0081
2358.00,0.0081
2357.00,0.0082
2356.00,0.0082
2355.00,0.0083
2354.00,0.0083
2353.00,0.0082
2352.00,0.0082
2351.00,0.0081
2350.00,0.0082
2349.00,0.0082
2348.00,0.0083
2347.00,0.0084
2346.00,0.0084
2345.00,0.0084
2344.00,0.0083
2343.00,0.0083
2342.00,0.0083
2341.00,0.0084
2340.00,0.0084
2339.00,0.0085
2338.00,0.0085
2337.00,0.0085
2336.00,0.0085
2335.00,0.0085
2334.00,0.0085
2333.00,0.0085
2332.00,0.0085
2331.00,0.0085
2330.00,0.0086
2329.00,0.0087
2328.00,0.0090
2327.00,0.0094
2326.00,0.0097
2325.00,0.0098
2324.00,0.0097
2323.00,0.0095
2322.00,0.0093
2321.00,0.0091
2320.00,0.0090
2319.00,0.0090
2318.00,0.0090
2317.00,0.0089
2316.00,0.0089
2315.00,0.0088
2314.00,0.0088
2313.00,0.0087
2312.00,0.0086
2311.00,0.0086
2310.00,0.0085
2309.00,0.0085
2308.00,0.0085
2307.00,0.0085
2306.00,0.0085
2305.00,0.0085
2304.00,0.0086
2303.00,0.0087
2302.00,0.0087
2301.00,0.0087
2300.00,0.0088
2299.00,0.0088
2298.00,0.0089
2297.00,0.0089
2296.00,0.0090
2295.00,0.0090
2294.00,0.0091
2293.00,0.0092
2292.00,0.0093
2291.00,0.0094
2290.00,0.0095
2289.00,0.0096
2288.00,0.0096
2287.00,0.0096
2286.00,0.0096
2285.00,0.0095
2284.00,0.0095
2283.00,0.0094
2282.00,0.0094
2281.00,0.0093
2280.00,0.0093
2279.00,0.0092
2278.00,0.0092
2277.00,0.0092
2276.00,0.0091
2275.00,0.0091
2274.00,0.0091
2273.00,0.0091
2272.00,0.0091
2271.00,0.0090
2270.00,0.0090
2269.00,0.0089
2268.00,0.0089
2267.00,0.0088
2266.00,0.0088
2265.00,0.0088
2264.00,0.0088
2263.00,0.0088
2262.00,0.0088
2261.00,0.0089
2260.00,0.0089
2259.00,0.0089
2258.00,0.0089
2257.00,0.0088
2256.00,0.0087
2255.00,0.0086
2254.00,0.0086
2253.00,0.0086
2252.00,0.0086
2251.00,0.0087
2250.00,0.0087
2249.00,0.0088
2248.00,0.0089
2247.00,0.0090
2246.00,0.0090
2245.00,0.0089
2244.00,0.0089
2243.00,0.0088
2242.00,0.0088
2241.00,0.0089
2240.00,0.0090
2239.00,0.0090
2238.00,0.0090
2237.00,0.0089
2236.00,0.0089
2235.00,0.0088
2234.00,0.0087
2233.00,0.0087
2232.00,0.0087
2231.00,0.0088
2230.00,0.0088
2229.00,0.0089
2228.00,0.0089
2227.00,0.0089
2226.00,0.0089
2225.00,0.0089
2224.00,0.0088
2223.00,0.0088
2222.00,0.0087
2221.00,0.0087
2220.00,0.0087
2219.00,0.0086
2218.00,0.0086
2217.00,0.0086
2216.00,0.0086
2215.00,0.0086
2214.00,0.0086
2213.00,0.0086
2212.00,0.0086
2211.00,0.0086
2210.00,0.0086
2209.00,0.0086
2208.00,0.0086
2207.00,0.0086
2206.00,0.0086
2205.00,0.0086
2204.00,0.0087
2203.00,0.0088
2202.00,0.0088
2201.00,0.0087
2200.00,0.0086
2199.00,0.0085
2198.00,0.0085
2197.00,0.0085
2196.00,0.0086
2195.00,0.0087
2194.00,0.0087
2193.00,0.0088
2192.00,0.0088
2191.00,0.0088
2190.00,0.0088
2189.00,0.0088
2188.00,0.0089
2187.00,0.0089
2186.00,0.0089
2185.00,0.0089
2184.00,0.0088
2183.00,0.0086
2182.00,0.0085
2181.00,0.0085
2180.00,0.0086
2179.00,0.0086
2178.00,0.0084
2177.00,0.0082
2176.00,0.0081
2175.00,0.0082
2174.00,0.0083
2173.00,0.0085
2172.00,0.0087
2171.00,0.0088
2170.00,0.0090
2169.00,0.0092
2168.00,0.0094
2167.00,0.0095
2166.00,0.0095
2165.00,0.0096
2164.00,0.0098
2163.00,0.0098
2162.00,0.0093
2161.00,0.0082
2160.00,0.0068
2159.00,0.0057
2158.00,0.0052
2157.00,0.0053
2156.00,0.0056
2155.00,0.0058
2154.00,0.0061
2153.00,0.0063
2152.00,0.0066
2151.00,0.0069
2150.00,0.0071
2149.00,0.0071
2148.00,0.0070
2147.00,0.0069
2146.00,0.0069
2145.00,0.0069
2144.00,0.0069
2143.00,0.0069
2142.00,0.0069
2141.00,0.0069
2140.00,0.0069
2139.00,0.0069
2138.00,0.0068
2137.00,0.0067
2136.00,0.0065
2135.00,0.0063
2134.00,0.0063
2133.00,0.0063
2132.00,0.0065
2131.00,0.0066
2130.00,0.0067
2129.00,0.0069
2128.00,0.0069
2127.00,0.0070
2126.00,0.0071
2125.00,0.0072
2124.00,0.0074
2123.00,0.0075
2122.00,0.0076
2121.00,0.0077
2120.00,0.0078
2119.00,0.0079
2118.00,0.0080
2117.00,0.0081
2116.00,0.0081
2115.00,0.0081
2114.00,0.0081
2113.00,0.0081
2112.00,0.0081
2111.00,0.0081
2110.00,0.0080
2109.00,0.0079
2108.00,0.0079
2107.00,0.0079
2106.00,0.0080
2105.00,0.0081
2104.00,0.0081
2103.00,0.0080
2102.00,0.0079
2101.00,0.0078
2100.00,0.0078
2099.00,0.0078
2098.00,0.0077
2097.00,0.0076
2096.00,0.0075
2095.00,0.0075
2094.00,0.0075
2093.00,0.0076
2092.00,0.0077
2091.00,0.0079
2090.00,0.0080
2089.00,0.0080
2088.00,0.0080
2087.00,0.0080
2086.00,0.0080
2085.00,0.0081
2084.00,0.0081
2083.00,0.0081
2082.00,0.0082
2081.00,0.0082
2080.00,0.0082
2079.00,0.0082
2078.00,0.0082
2077.00,0.0081
2076.00,0.0080
2075.00,0.0080
2074.00,0.0080
2073.00,0.0080
2072.00,0.0080
2071.00,0.0080
2070.00,0.0080
2069.00,0.0079
2068.00,0.0078
2067.00,0.0078
2066.00,0.0077
2065.00,0.0076
2064.00,0.0075
2063.00,0.0075
2062.00,0.0074
2061.00,0.0075
2060.00,0.0075
2059.00,0.0076
2058.00,0.0077
2057.00,0.0078
2056.00,0.0079
2055.00,0.0080
2054.00,0.0082
2053.00,0.0086
2052.00,0.0089
2051.00,0.0089
2050.00,0.0087
2049.00,0.0084
2048.00,0.0082
2047.00,0.0082
2046.00,0.0081
2045.00,0.0080
2044.00,0.0079
2043.00,0.0079
2042.00,0.0078
2041.00,0.0078
2040.00,0.0077
2039.00,0.0077
2038.00,0.0076
2037.00,0.0075
2036.00,0.0074
2035.00,0.0072
2034.00,0.0071
2033.00,0.0071
2032.00,0.0072
2031.00,0.0073
2030.00,0.0074
2029.00,0.0074
2028.00,0.0074
2027.00,0.0073
2026.00,0.0072
2025.00,0.0072
2024.00,0.0071
2023.00,0.0070
2022.00,0.0069
2021.00,0.0068
2020.00,0.0069
2019.00,0.0070
2018.00,0.0070
2017.00,0.0070
2016.00,0.0071
2015.00,0.0072
2014.00,0.0073
2013.00,0.0074
2012.00,0.0074
2011.00,0.0074
2010.00,0.0073
2009.00,0.0071
2008.00,0.0068
2007.00,0.0066
2006.00,0.0064
2005.00,0.0063
2004.00,0.0064
2003.00,0.0065
2002.00,0.0067
2001.00,0.0070
2000.00,0.0073
1999.00,0.0074
1998.00,0.0075
1997.00,0.0075
1996.00,0.0075
1995.00,0.0075
1994.00,0.0075
1993.00,0.0077
1992.00,0.0078
1991.00,0.0078
1990.00,0.0077
1989.00,0.0077
1988.00,0.0078
1987.00,0.0080
1986.00,0.0082
1985.00,0.0085
1984.00,0.0087
1983.00,0.0088
1982.00,0.0088
1981.00,0.0088
1980.00,0.0085
1979.00,0.0080
1978.00,0.0075
1977.00,0.0072
1976.00,0.0071
1975.00,0.0070
1974.00,0.0069
1973.00,0.0067
1972.00,0.0067
1971.00,0.0066
1970.00,0.0066
1969.00,0.0066
1968.00,0.0066
1967.00,0.0066
1966.00,0.0066
1965.00,0.0066
1964.00,0.0066
1963.00,0.0066
1962.00,0.0065
1961.00,0.0064
1960.00,0.0064
1959.00,0.0065
1958.00,0.0066
1957.00,0.0067
1956.00,0.0069
1955.00,0.0069
1954.00,0.0069
1953.00,0.0069
1952.00,0.0069
1951.00,0.0069
1950.00,0.0070
1949.00,0.0071
1948.00,0.0072
1947.00,0.0073
1946.00,0.0073
1945.00,0.0072
1944.00,0.0072
1943.00,0.0071
1942.00,0.0071
1941.00,0.0071
1940.00,0.0071
1939.00,0.0071
1938.00,0.0071
1937.00,0.0072
1936.00,0.0072
1935.00,0.0072
1934.00,0.0071
1933.00,0.0071
1932.00,0.0071
1931.00,0.0072
1930.00,0.0072
1929.00,0.0072
1928.00,0.0073
1927.00,0.0073
1926.00,0.0073
1925.00,0.0072
1924.00,0.0072
1923.00,0.0072
1922.00,0.0072
1921.00,0.0073
1920.00,0.0073
1919.00,0.0074
1918.00,0.0074
1917.00,0.0074
1916.00,0.0074
1915.00,0.0074
1914.00,0.0074
1913.00,0.0074
1912.00,0.0075
1911.00,0.0075
1910.00,0.0075
1909.00,0.0074
1908.00,0.0074
1907.00,0.0074
1906.00,0.0074
1905.00,0.0075
1904.00,0.0075
1903.00,0.0075
1902.00,0.0075
1901.00,0.0075
1900.00,0.0076
1899.00,0.0076
1898.00,0.0076
1897.00,0.0076
1896.00,0.0076
1895.00,0.0076
1894.00,0.0076
1893.00,0.0076
1892.00,0.0076
1891.00,0.0076
1890.00,0.0076
1889.00,0.0077
1888.00,0.0077
1887.00,0.0077
1886.00,0.0077
1885.00,0.0077
1884.00,0.0077
1883.00,0.0077
1882.00,0.0077
1881.00,0.0077
1880.00,0.0077
1879.00,0.0077
1878.00,0.0077
1877.00,0.0077
1876.00,0.0077
1875.00,0.0077
1874.00,0.0077
1873.00,0.0077
1872.00,0.0077
1871.00,0.0077
1870.00,0.0076
1869.00,0.0076
1868.00,0.0076
1867.00,0.0077
1866.00,0.0077
1865.00,0.0077
1864.00,0.0077
1863.00,0.0077
1862.00,0.0077
1861.00,0.0077
1860.00,0.0077
1859.00,0.0077
1858.00,0.0077
1857.00,0.0077
1856.00,0.0077
1855.00,0.0077
1854.00,0.0076
1853.00,0.0076
1852.00,0.0076
1851.00,0.0076
1850.00,0.0076
1849.00,0.0076
1848.00,0.0076
1847.00,0.0076
1846.00,0.0077
1845.00,0.0077
1844.00,0.0077
1843.00,0.0077
1842.00,0.0076
1841.00,0.0076
1840.00,0.0077
1839.00,0.0077
1838.00,0.0077
1837.00,0.0077
1836.00,0.0077
1835.00,0.0078
1834.00,0.0078
1833.00,0.0078
1832.00,0.0078
1831.00,0.0078
1830.00,0.0078
1829.00,0.0079
1828.00,0.0079
1827.00,0.0079
1826.00,0.0079
1825.00,0.0079
1824.00,0.0079
1823.00,0.0079
1822.00,0.0079
1821.00,0.0079
1820.00,0.0078
1819.00,0.0078
1818.00,0.0077
1817.00,0.0078
1816.00,0.0078
1815.00,0.0079
1814.00,0.0079
1813.00,0.0080
1812.00,0.0080
1811.00,0.0081
1810.00,0.0082
1809.00,0.0083
1808.00,0.0083
1807.00,0.0084
1806.00,0.0084
1805.00,0.0085
1804.00,0.0085
1803.00,0.0085
1802.00,0.0085
1801.00,0.0086
1800.00,0.0086
1799.00,0.0086
1798.00,0.0086
1797.00,0.0085
1796.00,0.0085
1795.00,0.0085
1794.00,0.0084
1793.00,0.0083
1792.00,0.0083
1791.00,0.0083
1790.00,0.0083
1789.00,0.0083
1788.00,0.0083
1787.00,0.0083
1786.00,0.0083
1785.00,0.0083
1784.00,0.0083
1783.00,0.0083
1782.00,0.0083
1781.00,0.0083
1780.00,0.0083
1779.00,0.0084
1778.00,0.0085
1777.00,0.0085
1776.00,0.0086
1775.00,0.0086
1774.00,0.0087
1773.00,0.0088
1772.00,0.0089
1771.00,0.0089
1770.00,0.0089
1769.00,0.0088
1768.00,0.0087
1767.00,0.0086
1766.00,0.0086
1765.00,0.0085
1764.00,0.0085
1763.00,0.0084
1762.00,0.0084
1761.00,0.0084
1760.00,0.0084
1759.00,0.0083
1758.00,0.0083
1757.00,0.0083
1756.00,0.0083
1755.00,0.0082
1754.00,0.0082
1753.00,0.0082
1752.00,0.0082
1751.00,0.0082
1750.00,0.0081
1749.00,0.0082
1748.00,0.0082
1747.00,0.0082
1746.00,0.0082
1745.00,0.0082
1744.00,0.0082
1743.00,0.0082
1742.00,0.0082
1741.00,0.0082
1740.00,0.0083
1739.00,0.0083
1738.00,0.0084
1737.00,0.0084
1736.00,0.0084
1735.00,0.0084
1734.00,0.0084
1733.00,0.0084
1732.00,0.0084
1731.00,0.0084
1730.00,0.0084
1729.00,0.0084
1728.00,0.0085
1727.00,0.0085
1726.00,0.0085
1725.00,0.0085
1724.00,0.0086
1723.00,0.0086
1722.00,0.0086
1721.00,0.0086
1720.00,0.0085
1719.00,0.0085
1718.00,0.0085
1717.00,0.0085
1716.00,0.0086
1715.00,0.0086
1714.00,0.0087
1713.00,0.0087
1712.00,0.0088
1711.00,0.0088
1710.00,0.0088
1709.00,0.0088
1708.00,0.0089
1707.00,0.0089
1706.00,0.0089
1705.00,0.0089
1704.00,0.0090
1703.00,0.0091
1702.00,0.0091
1701.00,0.0090
1700.00,0.0091
1699.00,0.0091
1698.00,0.0091
1697.00,0.0091
1696.00,0.0091
1695.00,0.0092
1694.00,0.0091
1693.00,0.0091
1692.00,0.0091
1691.00,0.0091
1690.00,0.0091
1689.00,0.0091
1688.00,0.0091
1687.00,0.0091
1686.00,0.0090
1685.00,0.0089
1684.00,0.0089
1683.00,0.0089
1682.00,0.0089
1681.00,0.0089
1680.00,0.0090
1679.00,0.0091
1678.00,0.0091
1677.00,0.0091
1676.00,0.0092
1675.00,0.0092
1674.00,0.0092
1673.00,0.0093
1672.00,0.0094
1671.00,0.0094
1670.00,0.0095
1669.00,0.0097
1668.00,0.0099
1667.00,0.0101
1666.00,0.0103
1665.00,0.0105
1664.00,0.0107
1663.00,0.0109
1662.00,0.0110
1661.00,0.0111
1660.00,0.0111
1659.00,0.0111
1658.00,0.0111
1657.00,0.0111
1656.00,0.0112
1655.00,0.0114
1654.00,0.0117
1653.00,0.0123
1652.00,0.0131
1651.00,0.0139
1650.00,0.0147
1649.00,0.0159
1648.00,0.0179
1647.00,0.0210
1646.00,0.0247
1645.00,0.0278
1644.00,0.0297
1643.00,0.0304
1642.00,0.0300
1641.00,0.0290
1640.00,0.0280
1639.00,0.0274
1638.00,0.0277
1637.00,0.0290
1636.00,0.0316
1635.00,0.0349
1634.00,0.0380
1633.00,0.0406
1632.00,0.0427
1631.00,0.0445
1630.00,0.0459
1629.00,0.0470
1628.00,0.0483
1627.00,0.0501
1626.00,0.0523
1625.00,0.0547
1624.00,0.0570
1623.00,0.0582
1622.00,0.0576
1621.00,0.0555
1620.00,0.0525
1619.00,0.0488
1618.00,0.0442
1617.00,0.0391
1616.00,0.0345
1615.00,0.0310
1614.00,0.0286
1613.00,0.0268
1612.00,0.0252
1611.00,0.0237
1610.00,0.0224
1609.00,0.0213
1608.00,0.0203
1607.00,0.0196
1606.00,0.0189
1605.00,0.0185
1604.00,0.0181
1603.00,0.0179
1602.00,0.0178
1601.00,0.0178
1600.00,0.0180
1599.00,0.0183
1598.00,0.0187
1597.00,0.0194
1596.00,0.0203
1595.00,0.0215
1594.00,0.0232
1593.00,0.0255
1592.00,0.0285
1591.00,0.0323
1590.00,0.0368
1589.00,0.0419
1588.00,0.0472
1587.00,0.0524
1586.00,0.0571
1585.00,0.0614
1584.00,0.0651
1583.00,0.0681
1582.00,0.0699
1581.00,0.0703
1580.00,0.0693
1579.00,0.0670
1578.00,0.0633
1577.00,0.0581
1576.00,0.0520
1575.00,0.0465
1574.00,0.0424
1573.00,0.0394
1572.00,0.0367
1571.00,0.0339
1570.00,0.0309
1569.00,0.0281
1568.00,0.0258
1567.00,0.0240
1566.00,0.0225
1565.00,0.0212
1564.00,0.0199
1563.00,0.0190
1562.00,0.0183
1561.00,0.0177
1560.00,0.0170
1559.00,0.0162
1558.00,0.0157
1557.00,0.0153
1556.00,0.0151
1555.00,0.0149
1554.00,0.0146
1553.00,0.0144
1552.00,0.0142
1551.00,0.0140
1550.00,0.0137
1549.00,0.0135
1548.00,0.0133
1547.00,0.0132
1546.00,0.0130
1545.00,0.0129
1544.00,0.0127
1543.00,0.0126
1542.00,0.0125
1541.00,0.0125
1540.00,0.0125
1539.00,0.0125
1538.00,0.0124
1537.00,0.0124
1536.00,0.0124
1535.00,0.0124
1534.00,0.0124
1533.00,0.0124
1532.00,0.0124
1531.00,0.0124
1530.00,0.0124
1529.00,0.0125
1528.00,0.0125
1527.00,0.0127
1526.00,0.0128
1525.00,0.0130
1524.00,0.0133
1523.00,0.0138
1522.00,0.0146
1521.00,0.0156
1520.00,0.0168
1519.00,0.0179
1518.00,0.0191
1517.00,0.0203
1516.00,0.0213
1515.00,0.0221
1514.00,0.0224
1513.00,0.0223
1512.00,0.0218
1511.00,0.0209
1510.00,0.0201
1509.00,0.0192
1508.00,0.0183
1507.00,0.0173
1506.00,0.0166
1505.00,0.0161
1504.00,0.0159
1503.00,0.0157
1502.00,0.0156
1501.00,0.0153
1500.00,0.0151
1499.00,0.0147
1498.00,0.0143
1497.00,0.0139
1496.00,0.0135
1495.00,0.0131
1494.00,0.0128
1493.00,0.0126
1492.00,0.0123
1491.00,0.0120
1490.00,0.0118
1489.00,0.0116
1488.00,0.0115
1487.00,0.0114
1486.00,0.0113
1485.00,0.0113
1484.00,0.0113
1483.00,0.0113
1482.00,0.0113
1481.00,0.0114
1480.00,0.0114
1479.00,0.0115
1478.00,0.0116
1477.00,0.0118
1476.00,0.0119
1475.00,0.0121
1474.00,0.0125
1473.00,0.0133
1472.00,0.0146
1471.00,0.0164
1470.00,0.0184
1469.00,0.0207
1468.00,0.0229
1467.00,0.0248
1466.00,0.0262
1465.00,0.0270
1464.00,0.0276
1463.00,0.0283
1462.00,0.0292
1461.00,0.0301
1460.00,0.0311
1459.00,0.0318
1458.00,0.0326
1457.00,0.0336
1456.00,0.0349
1455.00,0.0366
1454.00,0.0388
1453.00,0.0418
1452.00,0.0455
1451.00,0.0497
1450.00,0.0546
1449.00,0.0600
1448.00,0.0659
1447.00,0.0715
1446.00,0.0762
1445.00,0.0798
1444.00,0.0821
1443.00,0.0832
1442.00,0.0833
1441.00,0.0829
1440.00,0.0821
1439.00,0.0810
1438.00,0.0794
1437.00,0.0771
1436.00,0.0743
1435.00,0.0715
1434.00,0.0691
1433.00,0.0667
1432.00,0.0640
1431.00,0.0606
1430.00,0.0565
1429.00,0.0518
1428.00,0.0470
1427.00,0.0422
1426.00,0.0378
1425.00,0.0338
1424.00,0.0302
1423.00,0.0273
1422.00,0.0253
1421.00,0.0236
1420.00,0.0221
1419.00,0.0207
1418.00,0.0196
1417.00,0.0187
1416.00,0.0180
1415.00,0.0174
1414.00,0.0170
1413.00,0.0165
1412.00,0.0160
1411.00,0.0157
1410.00,0.0153
1409.00,0.0150
1408.00,0.0147
1407.00,0.0144
1406.00,0.0142
1405.00,0.0140
1404.00,0.0137
1403.00,0.0135
1402.00,0.0132
1401.00,0.0129
1400.00,0.0126
1399.00,0.0123
1398.00,0.0121
1397.00,0.0119
1396.00,0.0116
1395.00,0.0114
1394.00,0.0112
1393.00,0.0110
1392.00,0.0109
1391.00,0.0109
1390.00,0.0109
1389.00,0.0110
1388.00,0.0111
1387.00,0.0113
1386.00,0.0117
1385.00,0.0122
1384.00,0.0130
1383.00,0.0142
1382.00,0.0158
1381.00,0.0180
1380.00,0.0210
1379.00,0.0246
1378.00,0.0286
1377.00,0.0324
1376.00,0.0354
1375.00,0.0370
1374.00,0.0369
1373.00,0.0355
1372.00,0.0335
1371.00,0.0315
1370.00,0.0297
1369.00,0.0279
1368.00,0.0265
1367.00,0.0252
1366.00,0.0242
1365.00,0.0232
1364.00,0.0222
1363.00,0.0212
1362.00,0.0204
1361.00,0.0198
1360.00,0.0193
1359.00,0.0190
1358.00,0.0188
1357.00,0.0186
1356.00,0.0186
1355.00,0.0186
1354.00,0.0187
1353.00,0.0188
1352.00,0.0189
1351.00,0.0191
1350.00,0.0194
1349.00,0.0197
1348.00,0.0201
1347.00,0.0206
1346.00,0.0212
1345.00,0.0218
1344.00,0.0223
1343.00,0.0227
1342.00,0.0230
1341.00,0.0230
1340.00,0.0227
1339.00,0.0220
1338.00,0.0213
1337.00,0.0207
1336.00,0.0203
1335.00,0.0202
1334.00,0.0205
1333.00,0.0209
1332.00,0.0216
1331.00,0.0224
1330.00,0.0232
1329.00,0.0241
1328.00,0.0248
1327.00,0.0256
1326.00,0.0264
1325.00,0.0271
1324.00,0.0275
1323.00,0.0275
1322.00,0.0270
1321.00,0.0261
1320.00,0.0252
1319.00,0.0247
1318.00,0.0248
1317.00,0.0258
1316.00,0.0275
1315.00,0.0299
1314.00,0.0326
1313.00,0.0353
1312.00,0.0372
1311.00,0.0382
1310.00,0.0382
1309.00,0.0375
1308.00,0.0365
1307.00,0.0358
1306.00,0.0357
1305.00,0.0361
1304.00,0.0369
1303.00,0.0379
1302.00,0.0386
1301.00,0.0390
1300.00,0.0390
1299.00,0.0387
1298.00,0.0382
1297.00,0.0375
1296.00,0.0367
1295.00,0.0357
1294.00,0.0347
1293.00,0.0336
1292.00,0.0326
1291.00,0.0317
1290.00,0.0309
1289.00,0.0304
1288.00,0.0302
1287.00,0.0305
1286.00,0.0313
1285.00,0.0325
1284.00,0.0339
1283.00,0.0354
1282.00,0.0368
1281.00,0.0380
1280.00,0.0388
1279.00,0.0394
1278.00,0.0394
1277.00,0.0391
1276.00,0.0384
1275.00,0.0372
1274.00,0.0358
1273.00,0.0340
1272.00,0.0320
1271.00,0.0297
1270.00,0.0275
1269.00,0.0253
1268.00,0.0234
1267.00,0.0216
1266.00,0.0202
1265.00,0.0190
1264.00,0.0180
1263.00,0.0172
1262.00,0.0166
1261.00,0.0160
1260.00,0.0155
1259.00,0.0151
1258.00,0.0148
1257.00,0.0145
1256.00,0.0143
1255.00,0.0143
1254.00,0.0144
1253.00,0.0147
1252.00,0.0153
1251.00,0.0161
1250.00,0.0170
1249.00,0.0178
1248.00,0.0185
1247.00,0.0190
1246.00,0.0195
1245.00,0.0203
1244.00,0.0215
1243.00,0.0235
1242.00,0.0263
1241.00,0.0298
1240.00,0.0338
1239.00,0.0378
1238.00,0.0412
1237.00,0.0435
1236.00,0.0447
1235.00,0.0449
1234.00,0.0444
1233.00,0.0434
1232.00,0.0420
1231.00,0.0405
1230.00,0.0394
1229.00,0.0391
1228.00,0.0401
1227.00,0.0422
1226.00,0.0453
1225.00,0.0489
1224.00,0.0527
1223.00,0.0567
1222.00,0.0611
1221.00,0.0662
1220.00,0.0723
1219.00,0.0793
1218.00,0.0869
1217.00,0.0943
1216.00,0.1005
1215.00,0.1046
1214.00,0.1060
1213.00,0.1047
1212.00,0.1012
1211.00,0.0961
1210.00,0.0902
1209.00,0.0841
1208.00,0.0784
1207.00,0.0732
1206.00,0.0686
1205.00,0.0643
1204.00,0.0601
1203.00,0.0558
1202.00,0.0515
1201.00,0.0474
1200.00,0.0435
1199.00,0.0400
1198.00,0.0370
1197.00,0.0345
1196.00,0.0326
1195.00,0.0311
1194.00,0.0302
1193.00,0.0296
1192.00,0.0294
1191.00,0.0296
1190.00,0.0299
1189.00,0.0304
1188.00,0.0310
1187.00,0.0317
1186.00,0.0324
1185.00,0.0332
1184.00,0.0339
1183.00,0.0345
1182.00,0.0350
1181.00,0.0354
1180.00,0.0356
1179.00,0.0359
1178.00,0.0361
1177.00,0.0362
1176.00,0.0365
1175.00,0.0372
1174.00,0.0385
1173.00,0.0400
1172.00,0.0409
1171.00,0.0403
1170.00,0.0379
1169.00,0.0344
1168.00,0.0306
1167.00,0.0272
1166.00,0.0245
1165.00,0.0223
1164.00,0.0207
1163.00,0.0195
1162.00,0.0186
1161.00,0.0180
1160.00,0.0177
1159.00,0.0176
1158.00,0.0178
1157.00,0.0185
1156.00,0.0199
1155.00,0.0222
1154.00,0.0259
1153.00,0.0307
1152.00,0.0359
1151.00,0.0399
1150.00,0.0413
1149.00,0.0394
1148.00,0.0351
1147.00,0.0300
1146.00,0.0255
1145.00,0.0221
1144.00,0.0199
1143.00,0.0185
1142.00,0.0176
1141.00,0.0171
1140.00,0.0169
1139.00,0.0170
1138.00,0.0173
1137.00,0.0178
1136.00,0.0182
1135.00,0.0184
1134.00,0.0184
1133.00,0.0182
1132.00,0.0176
1131.00,0.0170
1130.00,0.0163
1129.00,0.0157
1128.00,0.0151
1127.00,0.0146
1126.00,0.0143
1125.00,0.0141
1124.00,0.0139
1123.00,0.0138
1122.00,0.0138
1121.00,0.0137
1120.00,0.0138
1119.00,0.0138
1118.00,0.0139
1117.00,0.0141
1116.00,0.0143
1115.00,0.0145
1114.00,0.0147
1113.00,0.0149
1112.00,0.0151
1111.00,0.0153
1110.00,0.0156
1109.00,0.0160
1108.00,0.0165
1107.00,0.0171
1106.00,0.0178
1105.00,0.0185
1104.00,0.0193
1103.00,0.0201
1102.00,0.0211
1101.00,0.0222
1100.00,0.0232
1099.00,0.0239
1098.00,0.0238
1097.00,0.0231
1096.00,0.0218
1095.00,0.0204
1094.00,0.0191
1093.00,0.0181
1092.00,0.0173
1091.00,0.0167
1090.00,0.0162
1089.00,0.0158
1088.00,0.0156
1087.00,0.0156
1086.00,0.0159
1085.00,0.0165
1084.00,0.0175
1083.00,0.0188
1082.00,0.0203
1081.00,0.0218
1080.00,0.0229
1079.00,0.0233
1078.00,0.0229
1077.00,0.0220
1076.00,0.0207
1075.00,0.0194
1074.00,0.0183
1073.00,0.0175
1072.00,0.0168
1071.00,0.0163
1070.00,0.0160
1069.00,0.0158
1068.00,0.0156
1067.00,0.0156
1066.00,0.0156
1065.00,0.0158
1064.00,0.0160
1063.00,0.0164
1062.00,0.0170
1061.00,0.0177
1060.00,0.0187
1059.00,0.0203
1058.00,0.0226
1057.00,0.0259
1056.00,0.0304
1055.00,0.0356
1054.00,0.0408
1053.00,0.0452
1052.00,0.0480
1051.00,0.0492
1050.00,0.0487
1049.00,0.0468
1048.00,0.0436
1047.00,0.0396
1046.00,0.0357
1045.00,0.0327
1044.00,0.0307
1043.00,0.0297
1042.00,0.0295
1041.00,0.0300
1040.00,0.0308
1039.00,0.0320
1038.00,0.0338
1037.00,0.0365
1036.00,0.0401
1035.00,0.0446
1034.00,0.0493
1033.00,0.0534
1032.00,0.0558
1031.00,0.0559
1030.00,0.0541
1029.00,0.0511
1028.00,0.0480
1027.00,0.0456
1026.00,0.0444
1025.00,0.0449
1024.00,0.0472
1023.00,0.0511
1022.00,0.0563
1021.00,0.0620
1020.00,0.0669
1019.00,0.0698
1018.00,0.0700
1017.00,0.0676
1016.00,0.0637
1015.00,0.0590
1014.00,0.0543
1013.00,0.0501
1012.00,0.0465
1011.00,0.0439
1010.00,0.0423
1009.00,0.0416
1008.00,0.0417
1007.00,0.0424
1006.00,0.0439
1005.00,0.0459
1004.00,0.0481
1003.00,0.0499
1002.00,0.0508
1001.00,0.0505
1000.00,0.0489
999.00,0.0461
998.00,0.0424
997.00,0.0385
996.00,0.0350
995.00,0.0322
994.00,0.0302
993.00,0.0289
992.00,0.0282
991.00,0.0281
990.00,0.0284
989.00,0.0291
988.00,0.0299
987.00,0.0307
986.00,0.0313
985.00,0.0316
984.00,0.0313
983.00,0.0304
982.00,0.0291
981.00,0.0276
980.00,0.0262
979.00,0.0252
978.00,0.0245
977.00,0.0239
976.00,0.0233
975.00,0.0228
974.00,0.0223
973.00,0.0219
972.00,0.0218
971.00,0.0220
970.00,0.0225
969.00,0.0233
968.00,0.0241
967.00,0.0252
966.00,0.0264
965.00,0.0279
964.00,0.0297
963.00,0.0315
962.00,0.0330
961.00,0.0336
960.00,0.0330
959.00,0.0313
958.00,0.0288
957.00,0.0260
956.00,0.0235
955.00,0.0215
954.00,0.0199
953.00,0.0187
952.00,0.0178
951.00,0.0172
950.00,0.0167
949.00,0.0164
948.00,0.0161
947.00,0.0159
946.00,0.0157
945.00,0.0155
944.00,0.0153
943.00,0.0151
942.00,0.0150
941.00,0.0150
940.00,0.0149
939.00,0.0149
938.00,0.0149
937.00,0.0150
936.00,0.0151
935.00,0.0152
934.00,0.0155
933.00,0.0159
932.00,0.0163
931.00,0.0168
930.00,0.0173
929.00,0.0176
928.00,0.0178
927.00,0.0178
926.00,0.0179
925.00,0.0179
924.00,0.0179
923.00,0.0178
922.00,0.0178
921.00,0.0179
920.00,0.0182
919.00,0.0186
918.00,0.0193
917.00,0.0200
916.00,0.0206
915.00,0.0209
914.00,0.0210
913.00,0.0208
912.00,0.0206
911.00,0.0205
910.00,0.0207
909.00,0.0213
908.00,0.0222
907.00,0.0236
906.00,0.0254
905.00,0.0276
904.00,0.0300
903.00,0.0329
902.00,0.0364
901.00,0.0410
900.00,0.0468
899.00,0.0538
898.00,0.0608
897.00,0.0662
896.00,0.0684
895.00,0.0671
894.00,0.0629
893.00,0.0574
892.00,0.0520
891.00,0.0475
890.00,0.0446
889.00,0.0439
888.00,0.0458
887.00,0.0505
886.00,0.0578
885.00,0.0663
884.00,0.0736
883.00,0.0771
882.00,0.0755
881.00,0.0694
880.00,0.0612
879.00,0.0529
878.00,0.0460
877.00,0.0409
876.00,0.0374
875.00,0.0354
874.00,0.0344
873.00,0.0346
872.00,0.0355
871.00,0.0369
870.00,0.0379
869.00,0.0382
868.00,0.0376
867.00,0.0369
866.00,0.0368
865.00,0.0379
864.00,0.0402
863.00,0.0429
862.00,0.0453
861.00,0.0466
860.00,0.0467
859.00,0.0462
858.00,0.0459
857.00,0.0461
856.00,0.0470
855.00,0.0482
854.00,0.0495
853.00,0.0507
852.00,0.0516
851.00,0.0522
850.00,0.0520
849.00,0.0509
848.00,0.0491
847.00,0.0470
846.00,0.0453
845.00,0.0440
844.00,0.0432
843.00,0.0425
842.00,0.0417
841.00,0.0408
840.00,0.0399
839.00,0.0393
838.00,0.0391
837.00,0.0394
836.00,0.0400
835.00,0.0411
834.00,0.0424
833.00,0.0440
832.00,0.0458
831.00,0.0475
830.00,0.0490
829.00,0.0503
828.00,0.0511
827.00,0.0511
826.00,0.0501
825.00,0.0481
824.00,0.0455
823.00,0.0424
822.00,0.0393
821.00,0.0363
820.00,0.0335
819.00,0.0310
818.00,0.0289
817.00,0.0273
816.00,0.0261
815.00,0.0252
814.00,0.0246
813.00,0.0241
812.00,0.0237
811.00,0.0237
810.00,0.0241
809.00,0.0255
808.00,0.0282
807.00,0.0324
806.00,0.0373
805.00,0.0413
804.00,0.0431
803.00,0.0422
802.00,0.0392
801.00,0.0356
800.00,0.0322
799.00,0.0295
798.00,0.0274
797.00,0.0258
796.00,0.0247
795.00,0.0239
794.00,0.0235
793.00,0.0234
792.00,0.0233
791.00,0.0231
790.00,0.0229
789.00,0.0228
788.00,0.0228
787.00,0.0229
786.00,0.0231
785.00,0.0231
784.00,0.0228
783.00,0.0222
782.00,0.0217
781.00,0.0212
780.00,0.0210
779.00,0.0208
778.00,0.0208
777.00,0.0207
776.00,0.0206
775.00,0.0204
774.00,0.0202
773.00,0.0202
772.00,0.0203
771.00,0.0204
770.00,0.0204
769.00,0.0202
768.00,0.0198
767.00,0.0192
766.00,0.0186
765.00,0.0181
764.00,0.0177
763.00,0.0174
762.00,0.0172
761.00,0.0171
760.00,0.0170
759.00,0.0171
758.00,0.0172
757.00,0.0176
756.00,0.0181
755.00,0.0191
754.00,0.0204
753.00,0.0217
752.00,0.0229
751.00,0.0237
750.00,0.0244
749.00,0.0247
748.00,0.0246
747.00,0.0240
746.00,0.0228
745.00,0.0214
744.00,0.0201
743.00,0.0191
742.00,0.0184
741.00,0.0179
740.00,0.0176
739.00,0.0174
738.00,0.0174
737.00,0.0176
736.00,0.0181
735.00,0.0188
734.00,0.0199
733.00,0.0212
732.00,0.0225
731.00,0.0234
730.00,0.0235
729.00,0.0228
728.00,0.0218
727.00,0.0208
726.00,0.0202
725.00,0.0197
724.00,0.0194
723.00,0.0192
722.00,0.0190
721.00,0.0188
720.00,0.0187
719.00,0.0185
718.00,0.0183
717.00,0.0179
716.00,0.0173
715.00,0.0169
714.00,0.0165
713.00,0.0164
712.00,0.0163
711.00,0.0163
710.00,0.0162
709.00,0.0159
708.00,0.0156
707.00,0.0153
706.00,0.0151
705.00,0.0149
704.00,0.0148
703.00,0.0147
702.00,0.0146
701.00,0.0146
700.00,0.0146
699.00,0.0146
698.00,0.0146
697.00,0.0146
696.00,0.0146
695.00,0.0146
694.00,0.0145
693.00,0.0144
692.00,0.0144
691.00,0.0144
690.00,0.0144
689.00,0.0145
688.00,0.0145
687.00,0.0146
686.00,0.0146
685.00,0.0146
684.00,0.0147
683.00,0.0149
682.00,0.0150
681.00,0.0152
680.00,0.0154
679.00,0.0157
678.00,0.0160
677.00,0.0163
676.00,0.0166
675.00,0.0171
674.00,0.0177
673.00,0.0184
672.00,0.0193
671.00,0.0202
670.00,0.0211
669.00,0.0221
668.00,0.0231
667.00,0.0237
666.00,0.0239
665.00,0.0239
664.00,0.0240
663.00,0.0242
662.00,0.0243
661.00,0.0244
660.00,0.0244
659.00,0.0244
658.00,0.0243
657.00,0.0241
656.00,0.0238
655.00,0.0236
654.00,0.0236
653.00,0.0239
652.00,0.0244
651.00,0.0251
650.00,0.0259
649.00,0.0263
648.00,0.0264
647.00,0.0260
646.00,0.0252
645.00,0.0242
644.00,0.0232
643.00,0.0222
642.00,0.0213
641.00,0.0207
640.00,0.0202
639.00,0.0200
638.00,0.0200
637.00,0.0201
636.00,0.0202
635.00,0.0203
634.00,0.0205
633.00,0.0208
632.00,0.0211
631.00,0.0215
630.00,0.0219
629.00,0.0223
628.00,0.0227
627.00,0.0232
626.00,0.0236
625.00,0.0240
624.00,0.0243
623.00,0.0243
622.00,0.0241
621.00,0.0235
620.00,0.0226
619.00,0.0216
618.00,0.0206
617.00,0.0199
616.00,0.0198
615.00,0.0206
614.00,0.0221
613.00,0.0241
612.00,0.0262
611.00,0.0277
610.00,0.0282
609.00,0.0277
608.00,0.0268
607.00,0.0261
606.00,0.0261
605.00,0.0265
604.00,0.0270
603.00,0.0276
602.00,0.0282
601.00,0.0290
600.00,0.0299
599.00,0.0308
598.00,0.0313
597.00,0.0313
596.00,0.0309
595.00,0.0307
594.00,0.0309
593.00,0.0316
592.00,0.0328
591.00,0.0343
590.00,0.0362
589.00,0.0382
588.00,0.0399
587.00,0.0410
586.00,0.0412
585.00,0.0406
584.00,0.0394
583.00,0.0379
582.00,0.0363
581.00,0.0347
580.00,0.0332
579.00,0.0320
578.00,0.0312
577.00,0.0308
576.00,0.0307
575.00,0.0308
574.00,0.0311
573.00,0.0314
572.00,0.0318
571.00,0.0322
570.00,0.0327
569.00,0.0332
568.00,0.0335
567.00,0.0338
566.00,0.0340
565.00,0.0342
564.00,0.0344
563.00,0.0344
562.00,0.0345
561.00,0.0345
560.00,0.0345
559.00,0.0345
558.00,0.0344
557.00,0.0344
556.00,0.0344
555.00,0.0344
554.00,0.0347
553.00,0.0351
552.00,0.0359
551.00,0.0368
550.00,0.0377
549.00,0.0385
548.00,0.0393
547.00,0.0403
546.00,0.0414
545.00,0.0426
544.00,0.0435
543.00,0.0440
542.00,0.0444
541.00,0.0450
540.00,0.0462
539.00,0.0482
538.00,0.0505
537.00,0.0528
536.00,0.0544
535.00,0.0552
534.00,0.0549
533.00,0.0539
532.00,0.0528
531.00,0.0516
530.00,0.0506
529.00,0.0503
528.00,0.0509
527.00,0.0526
526.00,0.0553
525.00,0.0585
524.00,0.0620
523.00,0.0650
522.00,0.0668
521.00,0.0664
520.00,0.0635
519.00,0.0588
518.00,0.0537
517.00,0.0494
516.00,0.0463
515.00,0.0443
514.00,0.0431
513.00,0.0426
512.00,0.0426
511.00,0.0429
510.00,0.0437
509.00,0.0448
508.00,0.0462
507.00,0.0480
506.00,0.0501
505.00,0.0523
504.00,0.0547
503.00,0.0573
502.00,0.0600
501.00,0.0626
500.00,0.0652
499.00,0.0676
498.00,0.0695
497.00,0.0710
496.00,0.0721
495.00,0.0728
494.00,0.0732
493.00,0.0733
492.00,0.0733
491.00,0.0729
490.00,0.0723
489.00,0.0718
488.00,0.0713
487.00,0.0710
486.00,0.0708
485.00,0.0706
484.00,0.0704
483.00,0.0697
482.00,0.0686
481.00,0.0672
480.00,0.0656
479.00,0.0639
478.00,0.0623
477.00,0.0610
476.00,0.0602
475.00,0.0601
474.00,0.0605
473.00,0.0612
472.00,0.0621
471.00,0.0630
470.00,0.0640
469.00,0.0653
468.00,0.0667
467.00,0.0677
466.00,0.0682
465.00,0.0683
464.00,0.0681
463.00,0.0679
462.00,0.0677
461.00,0.0675
460.00,0.0672
459.00,0.0668
458.00,0.0664
457.00,0.0663
456.00,0.0663
455.00,0.0662
454.00,0.0659
453.00,0.0654
452.00,0.0647
451.00,0.0638
450.00,0.0627
449.00,0.0615
448.00,0.0604
447.00,0.0594
446.00,0.0582
445.00,0.0570
444.00,0.0560
443.00,0.0551
442.00,0.0542
441.00,0.0537
440.00,0.0536
439.00,0.0537
438.00,0.0536
437.00,0.0532
436.00,0.0527
435.00,0.0521
434.00,0.0516
433.00,0.0511
432.00,0.0511
431.00,0.0516
430.00,0.0529
429.00,0.0551
428.00,0.0578
427.00,0.0608
426.00,0.0634
425.00,0.0654
424.00,0.0664
423.00,0.0663
422.00,0.0655
421.00,0.0647
420.00,0.0643
419.00,0.0639
418.00,0.0631
417.00,0.0622
416.00,0.0618
415.00,0.0618
414.00,0.0619
413.00,0.0621
412.00,0.0625
411.00,0.0633
410.00,0.0645
409.00,0.0662
408.00,0.0686
407.00,0.0712
406.00,0.0733
405.00,0.0750
404.00,0.0762
403.00,0.0766
402.00,0.0762
401.00,0.0758
400.00,0.0763
