Created as New Dataset,Sample 046 By YargerLab Date Tuesday, August 12 2025
cm-1,A
4000.00,0.0070
3999.00,0.0070
3998.00,0.0070
3997.00,0.0070
3996.00,0.0070
3995.00,0.0070
3994.00,0.0070
3993.00,0.0070
3992.00,0.0070
3991.00,0.0070
3990.00,0.0070
3989.00,0.0070
3988.00,0.0070
3987.00,0.0070
3986.00,0.0070
3985.00,0.0070
3984.00,0.0071
3983.00,0.0071
3982.00,0.0071
3981.00,0.0071
3980.00,0.0071
3979.00,0.0071
3978.00,0.0071
3977.00,0.0070
3976.00,0.0070
3975.00,0.0070
3974.00,0.0070
3973.00,0.0070
3972.00,0.0070
3971.00,0.0071
3970.00,0.0071
3969.00,0.0071
3968.00,0.0071
3967.00,0.0071
3966.00,0.0070
3965.00,0.0070
3964.00,0.0070
3963.00,0.0070
3962.00,0.0070
3961.00,0.0070
3960.00,0.0070
3959.00,0.0070
3958.00,0.0070
3957.00,0.0070
3956.00,0.0070
3955.00,0.0070
3954.00,0.0070
3953.00,0.0070
3952.00,0.0070
3951.00,0.0070
3950.00,0.0070
3949.00,0.0071
3948.00,0.0071
3947.00,0.0071
3946.00,0.0071
3945.00,0.0071
3944.00,0.0071
3943.00,0.0071
3942.00,0.0071
3941.00,0.0071
3940.00,0.0070
3939.00,0.0070
3938.00,0.0070
3937.00,0.0070
3936.00,0.0070
3935.00,0.0070
3934.00,0.0070
3933.00,0.0070
3932.00,0.0071
3931.00,0.0071
3930.00,0.0071
3929.00,0.0071
3928.00,0.0071
3927.00,0.0071
3926.00,0.0071
3925.00,0.0071
3924.00,0.0071
3923.00,0.0071
3922.00,0.0071
3921.00,0.0071
3920.00,0.0071
3919.00,0.0071
3918.00,0.0071
3917.00,0.0071
3916.00,0.0071
3915.00,0.0071
3914.00,0.0071
3913.00,0.0071
3912.00,0.0070
3911.00,0.0070
3910.00,0.0070
3909.00,0.0070
3908.00,0.0071
3907.00,0.0071
3906.00,0.0072
3905.00,0.0073
3904.00,0.0073
3903.00,0.0074
3902.00,0.0074
3901.00,0.0074
3900.00,0.0074
3899.00,0.0074
3898.00,0.0073
3897.00,0.0073
3896.00,0.0073
3895.00,0.0072
3894.00,0.0072
3893.00,0.0072
3892.00,0.0072
3891.00,0.0072
3890.00,0.0072
3889.00,0.0072
3888.00,0.0072
3887.00,0.0072
3886.00,0.0072
3885.00,0.0072
3884.00,0.0072
3883.00,0.0072
3882.00,0.0072
3881.00,0.0072
3880.00,0.0072
3879.00,0.0072
3878.00,0.0071
3877.00,0.0071
3876.00,0.0072
3875.00,0.0072
3874.00,0.0072
3873.00,0.0072
3872.00,0.0072
3871.00,0.0072
3870.00,0.0072
3869.00,0.0073
3868.00,0.0073
3867.00,0.0073
3866.00,0.0073
3865.00,0.0073
3864.00,0.0073
3863.00,0.0073
3862.00,0.0072
3861.00,0.0071
3860.00,0.0071
3859.00,0.0071
3858.00,0.0072
3857.00,0.0072
3856.00,0.0073
3855.00,0.0074
3854.00,0.0075
3853.00,0.0075
3852.00,0.0076
3851.00,0.0076
3850.00,0.0075
3849.00,0.0075
3848.00,0.0074
3847.00,0.0073
3846.00,0.0072
3845.00,0.0071
3844.00,0.0071
3843.00,0.0071
3842.00,0.0072
3841.00,0.0072
3840.00,0.0073
3839.00,0.0073
3838.00,0.0073
3837.00,0.0074
3836.00,0.0074
3835.00,0.0074
3834.00,0.0073
3833.00,0.0073
3832.00,0.0072
3831.00,0.0072
3830.00,0.0071
3829.00,0.0071
3828.00,0.0070
3827.00,0.0071
3826.00,0.0071
3825.00,0.0071
3824.00,0.0072
3823.00,0.0072
3822.00,0.0072
3821.00,0.0073
3820.00,0.0073
3819.00,0.0073
3818.00,0.0073
3817.00,0.0072
3816.00,0.0072
3815.00,0.0072
3814.00,0.0071
3813.00,0.0071
3812.00,0.0070
3811.00,0.0070
3810.00,0.0070
3809.00,0.0071
3808.00,0.0070
3807.00,0.0071
3806.00,0.0071
3805.00,0.0072
3804.00,0.0072
3803.00,0.0072
3802.00,0.0072
3801.00,0.0072
3800.00,0.0073
3799.00,0.0073
3798.00,0.0072
3797.00,0.0072
3796.00,0.0071
3795.00,0.0071
3794.00,0.0070
3793.00,0.0069
3792.00,0.0069
3791.00,0.0069
3790.00,0.0069
3789.00,0.0068
3788.00,0.0068
3787.00,0.0068
3786.00,0.0068
3785.00,0.0068
3784.00,0.0068
3783.00,0.0069
3782.00,0.0069
3781.00,0.0070
3780.00,0.0070
3779.00,0.0070
3778.00,0.0070
3777.00,0.0069
3776.00,0.0069
3775.00,0.0069
3774.00,0.0069
3773.00,0.0069
3772.00,0.0069
3771.00,0.0069
3770.00,0.0069
3769.00,0.0070
3768.00,0.0070
3767.00,0.0070
3766.00,0.0070
3765.00,0.0070
3764.00,0.0070
3763.00,0.0070
3762.00,0.0070
3761.00,0.0070
3760.00,0.0071
3759.00,0.0071
3758.00,0.0071
3757.00,0.0071
3756.00,0.0071
3755.00,0.0072
3754.00,0.0072
3753.00,0.0073
3752.00,0.0074
3751.00,0.0074
3750.00,0.0075
3749.00,0.0075
3748.00,0.0076
3747.00,0.0077
3746.00,0.0077
3745.00,0.0077
3744.00,0.0076
3743.00,0.0076
3742.00,0.0076
3741.00,0.0075
3740.00,0.0074
3739.00,0.0074
3738.00,0.0074
3737.00,0.0073
3736.00,0.0073
3735.00,0.0073
3734.00,0.0073
3733.00,0.0072
3732.00,0.0072
3731.00,0.0071
3730.00,0.0071
3729.00,0.0071
3728.00,0.0070
3727.00,0.0070
3726.00,0.0070
3725.00,0.0069
3724.00,0.0069
3723.00,0.0069
3722.00,0.0069
3721.00,0.0069
3720.00,0.0069
3719.00,0.0068
3718.00,0.0068
3717.00,0.0068
3716.00,0.0068
3715.00,0.0069
3714.00,0.0069
3713.00,0.0070
3712.00,0.0071
3711.00,0.0070
3710.00,0.0070
3709.00,0.0069
3708.00,0.0069
3707.00,0.0068
3706.00,0.0068
3705.00,0.0068
3704.00,0.0067
3703.00,0.0067
3702.00,0.0067
3701.00,0.0067
3700.00,0.0067
3699.00,0.0067
3698.00,0.0067
3697.00,0.0067
3696.00,0.0067
3695.00,0.0067
3694.00,0.0067
3693.00,0.0068
3692.00,0.0068
3691.00,0.0069
3690.00,0.0070
3689.00,0.0070
3688.00,0.0070
3687.00,0.0070
3686.00,0.0070
3685.00,0.0070
3684.00,0.0070
3683.00,0.0069
3682.00,0.0069
3681.00,0.0069
3680.00,0.0069
3679.00,0.0070
3678.00,0.0071
3677.00,0.0072
3676.00,0.0073
3675.00,0.0073
3674.00,0.0074
3673.00,0.0074
3672.00,0.0074
3671.00,0.0074
3670.00,0.0074
3669.00,0.0074
3668.00,0.0074
3667.00,0.0073
3666.00,0.0073
3665.00,0.0072
3664.00,0.0072
3663.00,0.0072
3662.00,0.0072
3661.00,0.0072
3660.00,0.0072
3659.00,0.0072
3658.00,0.0072
3657.00,0.0073
3656.00,0.0073
3655.00,0.0074
3654.00,0.0075
3653.00,0.0076
3652.00,0.0077
3651.00,0.0078
3650.00,0.0079
3649.00,0.0079
3648.00,0.0079
3647.00,0.0079
3646.00,0.0079
3645.00,0.0079
3644.00,0.0079
3643.00,0.0078
3642.00,0.0077
3641.00,0.0077
3640.00,0.0077
3639.00,0.0077
3638.00,0.0077
3637.00,0.0077
3636.00,0.0078
3635.00,0.0078
3634.00,0.0079
3633.00,0.0080
3632.00,0.0081
3631.00,0.0082
3630.00,0.0083
3629.00,0.0083
3628.00,0.0084
3627.00,0.0084
3626.00,0.0085
3625.00,0.0085
3624.00,0.0084
3623.00,0.0085
3622.00,0.0085
3621.00,0.0086
3620.00,0.0086
3619.00,0.0087
3618.00,0.0087
3617.00,0.0088
3616.00,0.0088
3615.00,0.0089
3614.00,0.0089
3613.00,0.0089
3612.00,0.0090
3611.00,0.0091
3610.00,0.0091
3609.00,0.0092
3608.00,0.0092
3607.00,0.0093
3606.00,0.0093
3605.00,0.0093
3604.00,0.0093
3603.00,0.0093
3602.00,0.0094
3601.00,0.0094
3600.00,0.0095
3599.00,0.0095
3598.00,0.0096
3597.00,0.0096
3596.00,0.0097
3595.00,0.0097
3594.00,0.0098
3593.00,0.0099
3592.00,0.0100
3591.00,0.0101
3590.00,0.0102
3589.00,0.0102
3588.00,0.0103
3587.00,0.0104
3586.00,0.0105
3585.00,0.0105
3584.00,0.0106
3583.00,0.0106
3582.00,0.0106
3581.00,0.0106
3580.00,0.0107
3579.00,0.0107
3578.00,0.0108
3577.00,0.0109
3576.00,0.0110
3575.00,0.0110
3574.00,0.0111
3573.00,0.0111
3572.00,0.0112
3571.00,0.0113
3570.00,0.0115
3569.00,0.0116
3568.00,0.0117
3567.00,0.0119
3566.00,0.0120
3565.00,0.0121
3564.00,0.0121
3563.00,0.0122
3562.00,0.0123
3561.00,0.0123
3560.00,0.0123
3559.00,0.0124
3558.00,0.0124
3557.00,0.0125
3556.00,0.0126
3555.00,0.0127
3554.00,0.0128
3553.00,0.0129
3552.00,0.0130
3551.00,0.0131
3550.00,0.0132
3549.00,0.0133
3548.00,0.0134
3547.00,0.0135
3546.00,0.0136
3545.00,0.0137
3544.00,0.0137
3543.00,0.0138
3542.00,0.0139
3541.00,0.0139
3540.00,0.0140
3539.00,0.0141
3538.00,0.0142
3537.00,0.0143
3536.00,0.0144
3535.00,0.0145
3534.00,0.0146
3533.00,0.0146
3532.00,0.0147
3531.00,0.0148
3530.00,0.0149
3529.00,0.0150
3528.00,0.0151
3527.00,0.0152
3526.00,0.0153
3525.00,0.0154
3524.00,0.0155
3523.00,0.0156
3522.00,0.0156
3521.00,0.0157
3520.00,0.0157
3519.00,0.0158
3518.00,0.0159
3517.00,0.0159
3516.00,0.0160
3515.00,0.0161
3514.00,0.0162
3513.00,0.0163
3512.00,0.0164
3511.00,0.0165
3510.00,0.0166
3509.00,0.0166
3508.00,0.0167
3507.00,0.0168
3506.00,0.0169
3505.00,0.0170
3504.00,0.0170
3503.00,0.0171
3502.00,0.0172
3501.00,0.0173
3500.00,0.0174
3499.00,0.0175
3498.00,0.0176
3497.00,0.0177
3496.00,0.0177
3495.00,0.0178
3494.00,0.0179
3493.00,0.0180
3492.00,0.0181
3491.00,0.0182
3490.00,0.0184
3489.00,0.0185
3488.00,0.0186
3487.00,0.0187
3486.00,0.0188
3485.00,0.0190
3484.00,0.0191
3483.00,0.0192
3482.00,0.0193
3481.00,0.0194
3480.00,0.0196
3479.00,0.0197
3478.00,0.0198
3477.00,0.0200
3476.00,0.0201
3475.00,0.0202
3474.00,0.0204
3473.00,0.0205
3472.00,0.0207
3471.00,0.0208
3470.00,0.0210
3469.00,0.0211
3468.00,0.0213
3467.00,0.0214
3466.00,0.0216
3465.00,0.0218
3464.00,0.0220
3463.00,0.0221
3462.00,0.0223
3461.00,0.0224
3460.00,0.0226
3459.00,0.0227
3458.00,0.0229
3457.00,0.0230
3456.00,0.0232
3455.00,0.0234
3454.00,0.0236
3453.00,0.0238
3452.00,0.0240
3451.00,0.0241
3450.00,0.0243
3449.00,0.0245
3448.00,0.0248
3447.00,0.0250
3446.00,0.0251
3445.00,0.0253
3444.00,0.0255
3443.00,0.0257
3442.00,0.0259
3441.00,0.0262
3440.00,0.0264
3439.00,0.0266
3438.00,0.0269
3437.00,0.0271
3436.00,0.0274
3435.00,0.0276
3434.00,0.0279
3433.00,0.0281
3432.00,0.0284
3431.00,0.0287
3430.00,0.0289
3429.00,0.0292
3428.00,0.0294
3427.00,0.0297
3426.00,0.0300
3425.00,0.0303
3424.00,0.0306
3423.00,0.0309
3422.00,0.0312
3421.00,0.0314
3420.00,0.0317
3419.00,0.0320
3418.00,0.0323
3417.00,0.0326
3416.00,0.0329
3415.00,0.0331
3414.00,0.0334
3413.00,0.0337
3412.00,0.0339
3411.00,0.0341
3410.00,0.0344
3409.00,0.0346
3408.00,0.0348
3407.00,0.0349
3406.00,0.0350
3405.00,0.0351
3404.00,0.0353
3403.00,0.0354
3402.00,0.0354
3401.00,0.0355
3400.00,0.0355
3399.00,0.0355
3398.00,0.0355
3397.00,0.0354
3396.00,0.0354
3395.00,0.0353
3394.00,0.0352
3393.00,0.0351
3392.00,0.0350
3391.00,0.0348
3390.00,0.0347
3389.00,0.0345
3388.00,0.0343
3387.00,0.0341
3386.00,0.0339
3385.00,0.0337
3384.00,0.0336
3383.00,0.0334
3382.00,0.0332
3381.00,0.0330
3380.00,0.0328
3379.00,0.0326
3378.00,0.0324
3377.00,0.0322
3376.00,0.0320
3375.00,0.0318
3374.00,0.0317
3373.00,0.0315
3372.00,0.0313
3371.00,0.0311
3370.00,0.0309
3369.00,0.0307
3368.00,0.0306
3367.00,0.0304
3366.00,0.0302
3365.00,0.0301
3364.00,0.0299
3363.00,0.0297
3362.00,0.0296
3361.00,0.0294
3360.00,0.0293
3359.00,0.0292
3358.00,0.0291
3357.00,0.0290
3356.00,0.0288
3355.00,0.0287
3354.00,0.0286
3353.00,0.0285
3352.00,0.0283
3351.00,0.0283
3350.00,0.0282
3349.00,0.0281
3348.00,0.0280
3347.00,0.0279
3346.00,0.0278
3345.00,0.0278
3344.00,0.0277
3343.00,0.0277
3342.00,0.0276
3341.00,0.0275
3340.00,0.0274
3339.00,0.0274
3338.00,0.0273
3337.00,0.0273
3336.00,0.0273
3335.00,0.0273
3334.00,0.0273
3333.00,0.0273
3332.00,0.0273
3331.00,0.0272
3330.00,0.0272
3329.00,0.0272
3328.00,0.0272
3327.00,0.0272
3326.00,0.0272
3325.00,0.0272
3324.00,0.0272
3323.00,0.0273
3322.00,0.0273
3321.00,0.0274
3320.00,0.0274
3319.00,0.0275
3318.00,0.0275
3317.00,0.0275
3316.00,0.0276
3315.00,0.0276
3314.00,0.0276
3313.00,0.0276
3312.00,0.0277
3311.00,0.0277
3310.00,0.0278
3309.00,0.0278
3308.00,0.0278
3307.00,0.0279
3306.00,0.0279
3305.00,0.0280
3304.00,0.0282
3303.00,0.0283
3302.00,0.0284
3301.00,0.0285
3300.00,0.0286
3299.00,0.0287
3298.00,0.0287
3297.00,0.0288
3296.00,0.0289
3295.00,0.0290
3294.00,0.0291
3293.00,0.0292
3292.00,0.0293
3291.00,0.0294
3290.00,0.0295
3289.00,0.0296
3288.00,0.0298
3287.00,0.0299
3286.00,0.0300
3285.00,0.0301
3284.00,0.0302
3283.00,0.0303
3282.00,0.0303
3281.00,0.0304
3280.00,0.0305
3279.00,0.0306
3278.00,0.0307
3277.00,0.0308
3276.00,0.0309
3275.00,0.0309
3274.00,0.0310
3273.00,0.0311
3272.00,0.0312
3271.00,0.0313
3270.00,0.0314
3269.00,0.0315
3268.00,0.0316
3267.00,0.0318
3266.00,0.0319
3265.00,0.0319
3264.00,0.0320
3263.00,0.0321
3262.00,0.0322
3261.00,0.0323
3260.00,0.0324
3259.00,0.0324
3258.00,0.0325
3257.00,0.0325
3256.00,0.0326
3255.00,0.0327
3254.00,0.0328
3253.00,0.0329
3252.00,0.0330
3251.00,0.0331
3250.00,0.0331
3249.00,0.0331
3248.00,0.0331
3247.00,0.0332
3246.00,0.0333
3245.00,0.0334
3244.00,0.0334
3243.00,0.0335
3242.00,0.0335
3241.00,0.0336
3240.00,0.0336
3239.00,0.0336
3238.00,0.0336
3237.00,0.0335
3236.00,0.0335
3235.00,0.0334
3234.00,0.0334
3233.00,0.0334
3232.00,0.0334
3231.00,0.0334
3230.00,0.0333
3229.00,0.0333
3228.00,0.0332
3227.00,0.0332
3226.00,0.0332
3225.00,0.0331
3224.00,0.0331
3223.00,0.0330
3222.00,0.0329
3221.00,0.0327
3220.00,0.0326
3219.00,0.0325
3218.00,0.0324
3217.00,0.0323
3216.00,0.0322
3215.00,0.0320
3214.00,0.0318
3213.00,0.0317
3212.00,0.0315
3211.00,0.0314
3210.00,0.0312
3209.00,0.0311
3208.00,0.0309
3207.00,0.0307
3206.00,0.0306
3205.00,0.0304
3204.00,0.0302
3203.00,0.0300
3202.00,0.0298
3201.00,0.0296
3200.00,0.0294
3199.00,0.0292
3198.00,0.0291
3197.00,0.0289
3196.00,0.0287
3195.00,0.0285
3194.00,0.0283
3193.00,0.0281
3192.00,0.0279
3191.00,0.0277
3190.00,0.0275
3189.00,0.0273
3188.00,0.0271
3187.00,0.0269
3186.00,0.0267
3185.00,0.0265
3184.00,0.0263
3183.00,0.0261
3182.00,0.0259
3181.00,0.0257
3180.00,0.0255
3179.00,0.0253
3178.00,0.0251
3177.00,0.0250
3176.00,0.0248
3175.00,0.0246
3174.00,0.0244
3173.00,0.0242
3172.00,0.0240
3171.00,0.0237
3170.00,0.0235
3169.00,0.0233
3168.00,0.0231
3167.00,0.0229
3166.00,0.0227
3165.00,0.0225
3164.00,0.0223
3163.00,0.0221
3162.00,0.0219
3161.00,0.0217
3160.00,0.0215
3159.00,0.0213
3158.00,0.0211
3157.00,0.0209
3156.00,0.0208
3155.00,0.0206
3154.00,0.0204
3153.00,0.0202
3152.00,0.0200
3151.00,0.0198
3150.00,0.0197
3149.00,0.0195
3148.00,0.0194
3147.00,0.0192
3146.00,0.0191
3145.00,0.0189
3144.00,0.0188
3143.00,0.0186
3142.00,0.0185
3141.00,0.0183
3140.00,0.0181
3139.00,0.0179
3138.00,0.0178
3137.00,0.0176
3136.00,0.0175
3135.00,0.0174
3134.00,0.0173
3133.00,0.0172
3132.00,0.0171
3131.00,0.0170
3130.00,0.0169
3129.00,0.0168
3128.00,0.0167
3127.00,0.0166
3126.00,0.0165
3125.00,0.0164
3124.00,0.0163
3123.00,0.0162
3122.00,0.0161
3121.00,0.0160
3120.00,0.0159
3119.00,0.0159
3118.00,0.0158
3117.00,0.0157
3116.00,0.0156
3115.00,0.0155
3114.00,0.0153
3113.00,0.0152
3112.00,0.0150
3111.00,0.0149
3110.00,0.0148
3109.00,0.0147
3108.00,0.0146
3107.00,0.0145
3106.00,0.0144
3105.00,0.0143
3104.00,0.0142
3103.00,0.0141
3102.00,0.0140
3101.00,0.0140
3100.00,0.0139
3099.00,0.0138
3098.00,0.0138
3097.00,0.0138
3096.00,0.0137
3095.00,0.0137
3094.00,0.0137
3093.00,0.0137
3092.00,0.0137
3091.00,0.0137
3090.00,0.0137
3089.00,0.0138
3088.00,0.0138
3087.00,0.0138
3086.00,0.0138
3085.00,0.0138
3084.00,0.0138
3083.00,0.0138
3082.00,0.0138
3081.00,0.0138
3080.00,0.0138
3079.00,0.0137
3078.00,0.0137
3077.00,0.0136
3076.00,0.0135
3075.00,0.0135
3074.00,0.0134
3073.00,0.0133
3072.00,0.0133
3071.00,0.0133
3070.00,0.0132
3069.00,0.0132
3068.00,0.0132
3067.00,0.0132
3066.00,0.0132
3065.00,0.0132
3064.00,0.0131
3063.00,0.0131
3062.00,0.0131
3061.00,0.0131
3060.00,0.0132
3059.00,0.0132
3058.00,0.0132
3057.00,0.0133
3056.00,0.0133
3055.00,0.0133
3054.00,0.0133
3053.00,0.0133
3052.00,0.0132
3051.00,0.0132
3050.00,0.0132
3049.00,0.0132
3048.00,0.0132
3047.00,0.0131
3046.00,0.0131
3045.00,0.0131
3044.00,0.0131
3043.00,0.0131
3042.00,0.0131
3041.00,0.0131
3040.00,0.0132
3039.00,0.0133
3038.00,0.0134
3037.00,0.0136
3036.00,0.0137
3035.00,0.0138
3034.00,0.0139
3033.00,0.0140
3032.00,0.0140
3031.00,0.0140
3030.00,0.0139
3029.00,0.0138
3028.00,0.0137
3027.00,0.0135
3026.00,0.0134
3025.00,0.0133
3024.00,0.0132
3023.00,0.0130
3022.00,0.0129
3021.00,0.0128
3020.00,0.0127
3019.00,0.0126
3018.00,0.0126
3017.00,0.0125
3016.00,0.0125
3015.00,0.0125
3014.00,0.0125
3013.00,0.0126
3012.00,0.0126
3011.00,0.0127
3010.00,0.0128
3009.00,0.0130
3008.00,0.0132
3007.00,0.0134
3006.00,0.0136
3005.00,0.0139
3004.00,0.0142
3003.00,0.0145
3002.00,0.0149
3001.00,0.0153
3000.00,0.0157
2999.00,0.0162
2998.00,0.0168
2997.00,0.0174
2996.00,0.0181
2995.00,0.0187
2994.00,0.0193
2993.00,0.0199
2992.00,0.0204
2991.00,0.0208
2990.00,0.0212
2989.00,0.0216
2988.00,0.0220
2987.00,0.0225
2986.00,0.0231
2985.00,0.0237
2984.00,0.0244
2983.00,0.0253
2982.00,0.0264
2981.00,0.0275
2980.00,0.0286
2979.00,0.0294
2978.00,0.0300
2977.00,0.0303
2976.00,0.0306
2975.00,0.0311
2974.00,0.0319
2973.00,0.0331
2972.00,0.0345
2971.00,0.0359
2970.00,0.0371
2969.00,0.0380
2968.00,0.0386
2967.00,0.0391
2966.00,0.0397
2965.00,0.0403
2964.00,0.0411
2963.00,0.0420
2962.00,0.0428
2961.00,0.0434
2960.00,0.0438
2959.00,0.0438
2958.00,0.0434
2957.00,0.0427
2956.00,0.0416
2955.00,0.0404
2954.00,0.0392
2953.00,0.0380
2952.00,0.0369
2951.00,0.0360
2950.00,0.0354
2949.00,0.0349
2948.00,0.0347
2947.00,0.0348
2946.00,0.0350
2945.00,0.0355
2944.00,0.0361
2943.00,0.0369
2942.00,0.0378
2941.00,0.0389
2940.00,0.0401
2939.00,0.0415
2938.00,0.0431
2937.00,0.0451
2936.00,0.0472
2935.00,0.0496
2934.00,0.0521
2933.00,0.0548
2932.00,0.0574
2931.00,0.0600
2930.00,0.0623
2929.00,0.0642
2928.00,0.0657
2927.00,0.0665
2926.00,0.0667
2925.00,0.0663
2924.00,0.0654
2923.00,0.0641
2922.00,0.0625
2921.00,0.0608
2920.00,0.0589
2919.00,0.0570
2918.00,0.0550
2917.00,0.0531
2916.00,0.0512
2915.00,0.0494
2914.00,0.0477
2913.00,0.0461
2912.00,0.0446
2911.00,0.0432
2910.00,0.0420
2909.00,0.0408
2908.00,0.0397
2907.00,0.0388
2906.00,0.0378
2905.00,0.0370
2904.00,0.0362
2903.00,0.0354
2902.00,0.0346
2901.00,0.0339
2900.00,0.0333
2899.00,0.0326
2898.00,0.0320
2897.00,0.0315
2896.00,0.0309
2895.00,0.0305
2894.00,0.0300
2893.00,0.0296
2892.00,0.0292
2891.00,0.0289
2890.00,0.0285
2889.00,0.0282
2888.00,0.0279
2887.00,0.0276
2886.00,0.0273
2885.00,0.0271
2884.00,0.0270
2883.00,0.0269
2882.00,0.0270
2881.00,0.0271
2880.00,0.0275
2879.00,0.0280
2878.00,0.0287
2877.00,0.0295
2876.00,0.0303
2875.00,0.0312
2874.00,0.0319
2873.00,0.0325
2872.00,0.0328
2871.00,0.0328
2870.00,0.0327
2869.00,0.0325
2868.00,0.0323
2867.00,0.0323
2866.00,0.0325
2865.00,0.0330
2864.00,0.0339
2863.00,0.0352
2862.00,0.0368
2861.00,0.0387
2860.00,0.0407
2859.00,0.0427
2858.00,0.0444
2857.00,0.0457
2856.00,0.0464
2855.00,0.0466
2854.00,0.0465
2853.00,0.0459
2852.00,0.0450
2851.00,0.0436
2850.00,0.0419
2849.00,0.0398
2848.00,0.0374
2847.00,0.0350
2846.00,0.0328
2845.00,0.0306
2844.00,0.0287
2843.00,0.0270
2842.00,0.0254
2841.00,0.0241
2840.00,0.0229
2839.00,0.0219
2838.00,0.0211
2837.00,0.0203
2836.00,0.0197
2835.00,0.0191
2834.00,0.0186
2833.00,0.0182
2832.00,0.0177
2831.00,0.0173
2830.00,0.0170
2829.00,0.0166
2828.00,0.0163
2827.00,0.0160
2826.00,0.0157
2825.00,0.0154
2824.00,0.0152
2823.00,0.0149
2822.00,0.0147
2821.00,0.0145
2820.00,0.0143
2819.00,0.0142
2818.00,0.0140
2817.00,0.0139
2816.00,0.0137
2815.00,0.0136
2814.00,0.0135
2813.00,0.0133
2812.00,0.0132
2811.00,0.0131
2810.00,0.0130
2809.00,0.0129
2808.00,0.0128
2807.00,0.0127
2806.00,0.0126
2805.00,0.0126
2804.00,0.0125
2803.00,0.0124
2802.00,0.0124
2801.00,0.0123
2800.00,0.0122
2799.00,0.0121
2798.00,0.0120
2797.00,0.0120
2796.00,0.0119
2795.00,0.0118
2794.00,0.0118
2793.00,0.0117
2792.00,0.0116
2791.00,0.0115
2790.00,0.0115
2789.00,0.0114
2788.00,0.0113
2787.00,0.0113
2786.00,0.0112
2785.00,0.0112
2784.00,0.0112
2783.00,0.0111
2782.00,0.0110
2781.00,0.0110
2780.00,0.0109
2779.00,0.0109
2778.00,0.0108
2777.00,0.0108
2776.00,0.0107
2775.00,0.0107
2774.00,0.0107
2773.00,0.0107
2772.00,0.0107
2771.00,0.0106
2770.00,0.0106
2769.00,0.0106
2768.00,0.0106
2767.00,0.0106
2766.00,0.0106
2765.00,0.0106
2764.00,0.0106
2763.00,0.0105
2762.00,0.0105
2761.00,0.0105
2760.00,0.0105
2759.00,0.0105
2758.00,0.0105
2757.00,0.0105
2756.00,0.0105
2755.00,0.0105
2754.00,0.0105
2753.00,0.0105
2752.00,0.0105
2751.00,0.0105
2750.00,0.0105
2749.00,0.0105
2748.00,0.0106
2747.00,0.0106
2746.00,0.0106
2745.00,0.0106
2744.00,0.0107
2743.00,0.0107
2742.00,0.0107
2741.00,0.0108
2740.00,0.0108
2739.00,0.0108
2738.00,0.0109
2737.00,0.0110
2736.00,0.0110
2735.00,0.0111
2734.00,0.0112
2733.00,0.0113
2732.00,0.0113
2731.00,0.0113
2730.00,0.0114
2729.00,0.0114
2728.00,0.0114
2727.00,0.0113
2726.00,0.0113
2725.00,0.0112
2724.00,0.0111
2723.00,0.0111
2722.00,0.0111
2721.00,0.0110
2720.00,0.0110
2719.00,0.0109
2718.00,0.0109
2717.00,0.0109
2716.00,0.0108
2715.00,0.0108
2714.00,0.0108
2713.00,0.0107
2712.00,0.0107
2711.00,0.0107
2710.00,0.0107
2709.00,0.0107
2708.00,0.0106
2707.00,0.0106
2706.00,0.0106
2705.00,0.0106
2704.00,0.0106
2703.00,0.0106
2702.00,0.0106
2701.00,0.0106
2700.00,0.0105
2699.00,0.0105
2698.00,0.0105
2697.00,0.0105
2696.00,0.0104
2695.00,0.0104
2694.00,0.0103
2693.00,0.0103
2692.00,0.0103
2691.00,0.0102
2690.00,0.0102
2689.00,0.0102
2688.00,0.0102
2687.00,0.0102
2686.00,0.0101
2685.00,0.0101
2684.00,0.0101
2683.00,0.0100
2682.00,0.0100
2681.00,0.0100
2680.00,0.0100
2679.00,0.0100
2678.00,0.0100
2677.00,0.0100
2676.00,0.0100
2675.00,0.0100
2674.00,0.0100
2673.00,0.0100
2672.00,0.0101
2671.00,0.0101
2670.00,0.0101
2669.00,0.0102
2668.00,0.0102
2667.00,0.0102
2666.00,0.0103
2665.00,0.0103
2664.00,0.0104
2663.00,0.0104
2662.00,0.0105
2661.00,0.0105
2660.00,0.0106
2659.00,0.0106
2658.00,0.0106
2657.00,0.0107
2656.00,0.0107
2655.00,0.0107
2654.00,0.0107
2653.00,0.0107
2652.00,0.0106
2651.00,0.0106
2650.00,0.0106
2649.00,0.0107
2648.00,0.0107
2647.00,0.0106
2646.00,0.0106
2645.00,0.0106
2644.00,0.0106
2643.00,0.0106
2642.00,0.0106
2641.00,0.0106
2640.00,0.0106
2639.00,0.0105
2638.00,0.0105
2637.00,0.0105
2636.00,0.0104
2635.00,0.0104
2634.00,0.0103
2633.00,0.0102
2632.00,0.0102
2631.00,0.0101
2630.00,0.0101
2629.00,0.0100
2628.00,0.0100
2627.00,0.0100
2626.00,0.0100
2625.00,0.0099
2624.00,0.0099
2623.00,0.0099
2622.00,0.0098
2621.00,0.0098
2620.00,0.0097
2619.00,0.0097
2618.00,0.0097
2617.00,0.0097
2616.00,0.0098
2615.00,0.0098
2614.00,0.0097
2613.00,0.0097
2612.00,0.0097
2611.00,0.0097
2610.00,0.0097
2609.00,0.0097
2608.00,0.0097
2607.00,0.0097
2606.00,0.0097
2605.00,0.0097
2604.00,0.0097
2603.00,0.0097
2602.00,0.0098
2601.00,0.0098
2600.00,0.0098
2599.00,0.0099
2598.00,0.0099
2597.00,0.0099
2596.00,0.0098
2595.00,0.0098
2594.00,0.0099
2593.00,0.0099
2592.00,0.0099
2591.00,0.0099
2590.00,0.0099
2589.00,0.0099
2588.00,0.0099
2587.00,0.0099
2586.00,0.0100
2585.00,0.0099
2584.00,0.0099
2583.00,0.0099
2582.00,0.0099
2581.00,0.0099
2580.00,0.0099
2579.00,0.0099
2578.00,0.0098
2577.00,0.0098
2576.00,0.0098
2575.00,0.0097
2574.00,0.0097
2573.00,0.0097
2572.00,0.0097
2571.00,0.0097
2570.00,0.0097
2569.00,0.0097
2568.00,0.0098
2567.00,0.0098
2566.00,0.0098
2565.00,0.0098
2564.00,0.0097
2563.00,0.0097
2562.00,0.0096
2561.00,0.0096
2560.00,0.0095
2559.00,0.0095
2558.00,0.0095
2557.00,0.0094
2556.00,0.0094
2555.00,0.0093
2554.00,0.0093
2553.00,0.0092
2552.00,0.0092
2551.00,0.0092
2550.00,0.0092
2549.00,0.0092
2548.00,0.0092
2547.00,0.0092
2546.00,0.0092
2545.00,0.0092
2544.00,0.0093
2543.00,0.0093
2542.00,0.0093
2541.00,0.0093
2540.00,0.0093
2539.00,0.0093
2538.00,0.0093
2537.00,0.0093
2536.00,0.0093
2535.00,0.0092
2534.00,0.0092
2533.00,0.0093
2532.00,0.0093
2531.00,0.0093
2530.00,0.0092
2529.00,0.0091
2528.00,0.0091
2527.00,0.0090
2526.00,0.0090
2525.00,0.0090
2524.00,0.0090
2523.00,0.0090
2522.00,0.0090
2521.00,0.0090
2520.00,0.0089
2519.00,0.0089
2518.00,0.0089
2517.00,0.0089
2516.00,0.0089
2515.00,0.0088
2514.00,0.0088
2513.00,0.0088
2512.00,0.0088
2511.00,0.0088
2510.00,0.0088
2509.00,0.0088
2508.00,0.0088
2507.00,0.0088
2506.00,0.0087
2505.00,0.0087
2504.00,0.0087
2503.00,0.0087
2502.00,0.0087
2501.00,0.0087
2500.00,0.0086
2499.00,0.0086
2498.00,0.0086
2497.00,0.0085
2496.00,0.0085
2495.00,0.0085
2494.00,0.0085
2493.00,0.0084
2492.00,0.0084
2491.00,0.0084
2490.00,0.0084
2489.00,0.0085
2488.00,0.0085
2487.00,0.0085
2486.00,0.0084
2485.00,0.0084
2484.00,0.0084
2483.00,0.0084
2482.00,0.0083
2481.00,0.0083
2480.00,0.0083
2479.00,0.0083
2478.00,0.0083
2477.00,0.0084
2476.00,0.0084
2475.00,0.0084
2474.00,0.0083
2473.00,0.0083
2472.00,0.0083
2471.00,0.0083
2470.00,0.0082
2469.00,0.0082
2468.00,0.0083
2467.00,0.0083
2466.00,0.0083
2465.00,0.0082
2464.00,0.0082
2463.00,0.0082
2462.00,0.0082
2461.00,0.0082
2460.00,0.0082
2459.00,0.0082
2458.00,0.0083
2457.00,0.0083
2456.00,0.0083
2455.00,0.0083
2454.00,0.0083
2453.00,0.0083
2452.00,0.0083
2451.00,0.0083
2450.00,0.0083
2449.00,0.0083
2448.00,0.0082
2447.00,0.0082
2446.00,0.0082
2445.00,0.0082
2444.00,0.0081
2443.00,0.0081
2442.00,0.0081
2441.00,0.0080
2440.00,0.0081
2439.00,0.0081
2438.00,0.0081
2437.00,0.0081
2436.00,0.0081
2435.00,0.0081
2434.00,0.0080
2433.00,0.0080
2432.00,0.0079
2431.00,0.0079
2430.00,0.0079
2429.00,0.0080
2428.00,0.0080
2427.00,0.0080
2426.00,0.0081
2425.00,0.0081
2424.00,0.0080
2423.00,0.0080
2422.00,0.0080
2421.00,0.0080
2420.00,0.0080
2419.00,0.0080
2418.00,0.0079
2417.00,0.0079
2416.00,0.0079
2415.00,0.0079
2414.00,0.0080
2413.00,0.0080
2412.00,0.0080
2411.00,0.0080
2410.00,0.0080
2409.00,0.0080
2408.00,0.0079
2407.00,0.0079
2406.00,0.0079
2405.00,0.0079
2404.00,0.0079
2403.00,0.0079
2402.00,0.0079
2401.00,0.0079
2400.00,0.0079
2399.00,0.0079
2398.00,0.0079
2397.00,0.0079
2396.00,0.0079
2395.00,0.0078
2394.00,0.0078
2393.00,0.0078
2392.00,0.0078
2391.00,0.0078
2390.00,0.0078
2389.00,0.0078
2388.00,0.0078
2387.00,0.0078
2386.00,0.0078
2385.00,0.0077
2384.00,0.0077
2383.00,0.0076
2382.00,0.0075
2381.00,0.0074
2380.00,0.0074
2379.00,0.0073
2378.00,0.0072
2377.00,0.0072
2376.00,0.0072
2375.00,0.0072
2374.00,0.0072
2373.00,0.0072
2372.00,0.0073
2371.00,0.0072
2370.00,0.0072
2369.00,0.0071
2368.00,0.0070
2367.00,0.0070
2366.00,0.0070
2365.00,0.0070
2364.00,0.0071
2363.00,0.0071
2362.00,0.0071
2361.00,0.0071
2360.00,0.0071
2359.00,0.0071
2358.00,0.0071
2357.00,0.0071
2356.00,0.0071
2355.00,0.0071
2354.00,0.0071
2353.00,0.0071
2352.00,0.0071
2351.00,0.0071
2350.00,0.0071
2349.00,0.0072
2348.00,0.0072
2347.00,0.0072
2346.00,0.0072
2345.00,0.0072
2344.00,0.0072
2343.00,0.0072
2342.00,0.0072
2341.00,0.0073
2340.00,0.0074
2339.00,0.0074
2338.00,0.0075
2337.00,0.0075
2336.00,0.0075
2335.00,0.0075
2334.00,0.0075
2333.00,0.0075
2332.00,0.0075
2331.00,0.0074
2330.00,0.0075
2329.00,0.0077
2328.00,0.0080
2327.00,0.0083
2326.00,0.0086
2325.00,0.0087
2324.00,0.0086
2323.00,0.0085
2322.00,0.0083
2321.00,0.0082
2320.00,0.0081
2319.00,0.0080
2318.00,0.0080
2317.00,0.0079
2316.00,0.0079
2315.00,0.0079
2314.00,0.0079
2313.00,0.0078
2312.00,0.0078
2311.00,0.0077
2310.00,0.0077
2309.00,0.0076
2308.00,0.0076
2307.00,0.0077
2306.00,0.0077
2305.00,0.0077
2304.00,0.0078
2303.00,0.0078
2302.00,0.0078
2301.00,0.0078
2300.00,0.0078
2299.00,0.0079
2298.00,0.0079
2297.00,0.0080
2296.00,0.0081
2295.00,0.0082
2294.00,0.0083
2293.00,0.0084
2292.00,0.0086
2291.00,0.0087
2290.00,0.0088
2289.00,0.0088
2288.00,0.0088
2287.00,0.0088
2286.00,0.0087
2285.00,0.0086
2284.00,0.0086
2283.00,0.0085
2282.00,0.0085
2281.00,0.0085
2280.00,0.0085
2279.00,0.0084
2278.00,0.0083
2277.00,0.0082
2276.00,0.0082
2275.00,0.0082
2274.00,0.0082
2273.00,0.0081
2272.00,0.0081
2271.00,0.0080
2270.00,0.0079
2269.00,0.0079
2268.00,0.0079
2267.00,0.0078
2266.00,0.0077
2265.00,0.0076
2264.00,0.0076
2263.00,0.0076
2262.00,0.0076
2261.00,0.0076
2260.00,0.0076
2259.00,0.0076
2258.00,0.0075
2257.00,0.0075
2256.00,0.0075
2255.00,0.0075
2254.00,0.0075
2253.00,0.0075
2252.00,0.0076
2251.00,0.0076
2250.00,0.0076
2249.00,0.0076
2248.00,0.0077
2247.00,0.0078
2246.00,0.0078
2245.00,0.0078
2244.00,0.0079
2243.00,0.0079
2242.00,0.0079
2241.00,0.0078
2240.00,0.0078
2239.00,0.0078
2238.00,0.0078
2237.00,0.0078
2236.00,0.0078
2235.00,0.0077
2234.00,0.0077
2233.00,0.0077
2232.00,0.0078
2231.00,0.0078
2230.00,0.0078
2229.00,0.0077
2228.00,0.0077
2227.00,0.0077
2226.00,0.0076
2225.00,0.0077
2224.00,0.0077
2223.00,0.0077
2222.00,0.0077
2221.00,0.0077
2220.00,0.0077
2219.00,0.0077
2218.00,0.0077
2217.00,0.0077
2216.00,0.0077
2215.00,0.0076
2214.00,0.0075
2213.00,0.0076
2212.00,0.0077
2211.00,0.0077
2210.00,0.0078
2209.00,0.0078
2208.00,0.0078
2207.00,0.0078
2206.00,0.0078
2205.00,0.0078
2204.00,0.0077
2203.00,0.0077
2202.00,0.0077
2201.00,0.0078
2200.00,0.0079
2199.00,0.0079
2198.00,0.0079
2197.00,0.0079
2196.00,0.0080
2195.00,0.0080
2194.00,0.0081
2193.00,0.0081
2192.00,0.0081
2191.00,0.0081
2190.00,0.0082
2189.00,0.0083
2188.00,0.0084
2187.00,0.0084
2186.00,0.0083
2185.00,0.0081
2184.00,0.0079
2183.00,0.0077
2182.00,0.0075
2181.00,0.0075
2180.00,0.0076
2179.00,0.0076
2178.00,0.0075
2177.00,0.0074
2176.00,0.0074
2175.00,0.0074
2174.00,0.0074
2173.00,0.0074
2172.00,0.0076
2171.00,0.0078
2170.00,0.0081
2169.00,0.0083
2168.00,0.0084
2167.00,0.0085
2166.00,0.0087
2165.00,0.0089
2164.00,0.0090
2163.00,0.0088
2162.00,0.0082
2161.00,0.0070
2160.00,0.0058
2159.00,0.0049
2158.00,0.0045
2157.00,0.0046
2156.00,0.0049
2155.00,0.0051
2154.00,0.0053
2153.00,0.0055
2152.00,0.0056
2151.00,0.0057
2150.00,0.0058
2149.00,0.0058
2148.00,0.0059
2147.00,0.0060
2146.00,0.0061
2145.00,0.0061
2144.00,0.0061
2143.00,0.0060
2142.00,0.0060
2141.00,0.0060
2140.00,0.0061
2139.00,0.0061
2138.00,0.0061
2137.00,0.0059
2136.00,0.0057
2135.00,0.0056
2134.00,0.0055
2133.00,0.0056
2132.00,0.0057
2131.00,0.0059
2130.00,0.0061
2129.00,0.0062
2128.00,0.0063
2127.00,0.0064
2126.00,0.0064
2125.00,0.0065
2124.00,0.0065
2123.00,0.0066
2122.00,0.0066
2121.00,0.0068
2120.00,0.0069
2119.00,0.0070
2118.00,0.0071
2117.00,0.0072
2116.00,0.0072
2115.00,0.0072
2114.00,0.0072
2113.00,0.0072
2112.00,0.0072
2111.00,0.0072
2110.00,0.0072
2109.00,0.0072
2108.00,0.0072
2107.00,0.0072
2106.00,0.0071
2105.00,0.0071
2104.00,0.0071
2103.00,0.0071
2102.00,0.0070
2101.00,0.0070
2100.00,0.0069
2099.00,0.0069
2098.00,0.0067
2097.00,0.0066
2096.00,0.0065
2095.00,0.0063
2094.00,0.0063
2093.00,0.0063
2092.00,0.0064
2091.00,0.0066
2090.00,0.0068
2089.00,0.0069
2088.00,0.0070
2087.00,0.0071
2086.00,0.0070
2085.00,0.0070
2084.00,0.0070
2083.00,0.0070
2082.00,0.0071
2081.00,0.0071
2080.00,0.0072
2079.00,0.0072
2078.00,0.0072
2077.00,0.0072
2076.00,0.0073
2075.00,0.0073
2074.00,0.0073
2073.00,0.0073
2072.00,0.0072
2071.00,0.0072
2070.00,0.0071
2069.00,0.0070
2068.00,0.0070
2067.00,0.0071
2066.00,0.0070
2065.00,0.0070
2064.00,0.0069
2063.00,0.0068
2062.00,0.0067
2061.00,0.0066
2060.00,0.0066
2059.00,0.0067
2058.00,0.0067
2057.00,0.0068
2056.00,0.0068
2055.00,0.0068
2054.00,0.0069
2053.00,0.0071
2052.00,0.0074
2051.00,0.0074
2050.00,0.0071
2049.00,0.0067
2048.00,0.0065
2047.00,0.0065
2046.00,0.0066
2045.00,0.0067
2044.00,0.0068
2043.00,0.0069
2042.00,0.0069
2041.00,0.0069
2040.00,0.0069
2039.00,0.0069
2038.00,0.0068
2037.00,0.0067
2036.00,0.0067
2035.00,0.0068
2034.00,0.0067
2033.00,0.0066
2032.00,0.0064
2031.00,0.0064
2030.00,0.0063
2029.00,0.0063
2028.00,0.0063
2027.00,0.0062
2026.00,0.0061
2025.00,0.0060
2024.00,0.0061
2023.00,0.0062
2022.00,0.0063
2021.00,0.0064
2020.00,0.0064
2019.00,0.0062
2018.00,0.0061
2017.00,0.0060
2016.00,0.0060
2015.00,0.0061
2014.00,0.0062
2013.00,0.0062
2012.00,0.0063
2011.00,0.0062
2010.00,0.0060
2009.00,0.0058
2008.00,0.0056
2007.00,0.0054
2006.00,0.0052
2005.00,0.0052
2004.00,0.0054
2003.00,0.0057
2002.00,0.0058
2001.00,0.0060
2000.00,0.0062
1999.00,0.0063
1998.00,0.0064
1997.00,0.0066
1996.00,0.0067
1995.00,0.0068
1994.00,0.0067
1993.00,0.0066
1992.00,0.0067
1991.00,0.0067
1990.00,0.0066
1989.00,0.0065
1988.00,0.0065
1987.00,0.0065
1986.00,0.0065
1985.00,0.0066
1984.00,0.0068
1983.00,0.0070
1982.00,0.0073
1981.00,0.0073
1980.00,0.0071
1979.00,0.0067
1978.00,0.0062
1977.00,0.0060
1976.00,0.0061
1975.00,0.0061
1974.00,0.0060
1973.00,0.0059
1972.00,0.0059
1971.00,0.0059
1970.00,0.0058
1969.00,0.0058
1968.00,0.0058
1967.00,0.0058
1966.00,0.0058
1965.00,0.0058
1964.00,0.0059
1963.00,0.0058
1962.00,0.0057
1961.00,0.0055
1960.00,0.0055
1959.00,0.0055
1958.00,0.0055
1957.00,0.0056
1956.00,0.0058
1955.00,0.0059
1954.00,0.0059
1953.00,0.0060
1952.00,0.0060
1951.00,0.0060
1950.00,0.0059
1949.00,0.0058
1948.00,0.0058
1947.00,0.0059
1946.00,0.0058
1945.00,0.0058
1944.00,0.0057
1943.00,0.0057
1942.00,0.0056
1941.00,0.0057
1940.00,0.0058
1939.00,0.0060
1938.00,0.0060
1937.00,0.0060
1936.00,0.0061
1935.00,0.0061
1934.00,0.0061
1933.00,0.0062
1932.00,0.0062
1931.00,0.0063
1930.00,0.0063
1929.00,0.0063
1928.00,0.0063
1927.00,0.0062
1926.00,0.0062
1925.00,0.0062
1924.00,0.0063
1923.00,0.0065
1922.00,0.0065
1921.00,0.0066
1920.00,0.0066
1919.00,0.0066
1918.00,0.0067
1917.00,0.0067
1916.00,0.0068
1915.00,0.0068
1914.00,0.0068
1913.00,0.0070
1912.00,0.0073
1911.00,0.0077
1910.00,0.0080
1909.00,0.0081
1908.00,0.0082
1907.00,0.0081
1906.00,0.0078
1905.00,0.0076
1904.00,0.0074
1903.00,0.0072
1902.00,0.0071
1901.00,0.0070
1900.00,0.0070
1899.00,0.0070
1898.00,0.0070
1897.00,0.0071
1896.00,0.0072
1895.00,0.0074
1894.00,0.0075
1893.00,0.0075
1892.00,0.0074
1891.00,0.0072
1890.00,0.0070
1889.00,0.0068
1888.00,0.0068
1887.00,0.0068
1886.00,0.0067
1885.00,0.0067
1884.00,0.0068
1883.00,0.0068
1882.00,0.0067
1881.00,0.0067
1880.00,0.0067
1879.00,0.0067
1878.00,0.0067
1877.00,0.0067
1876.00,0.0067
1875.00,0.0067
1874.00,0.0067
1873.00,0.0067
1872.00,0.0067
1871.00,0.0067
1870.00,0.0067
1869.00,0.0067
1868.00,0.0066
1867.00,0.0066
1866.00,0.0066
1865.00,0.0066
1864.00,0.0066
1863.00,0.0067
1862.00,0.0068
1861.00,0.0068
1860.00,0.0069
1859.00,0.0069
1858.00,0.0070
1857.00,0.0070
1856.00,0.0071
1855.00,0.0071
1854.00,0.0071
1853.00,0.0070
1852.00,0.0071
1851.00,0.0071
1850.00,0.0071
1849.00,0.0072
1848.00,0.0074
1847.00,0.0074
1846.00,0.0074
1845.00,0.0074
1844.00,0.0074
1843.00,0.0074
1842.00,0.0073
1841.00,0.0071
1840.00,0.0071
1839.00,0.0071
1838.00,0.0071
1837.00,0.0070
1836.00,0.0070
1835.00,0.0070
1834.00,0.0069
1833.00,0.0068
1832.00,0.0068
1831.00,0.0068
1830.00,0.0068
1829.00,0.0069
1828.00,0.0069
1827.00,0.0069
1826.00,0.0068
1825.00,0.0068
1824.00,0.0069
1823.00,0.0069
1822.00,0.0069
1821.00,0.0069
1820.00,0.0069
1819.00,0.0068
1818.00,0.0067
1817.00,0.0067
1816.00,0.0068
1815.00,0.0069
1814.00,0.0069
1813.00,0.0069
1812.00,0.0069
1811.00,0.0069
1810.00,0.0069
1809.00,0.0069
1808.00,0.0069
1807.00,0.0070
1806.00,0.0070
1805.00,0.0070
1804.00,0.0071
1803.00,0.0071
1802.00,0.0072
1801.00,0.0072
1800.00,0.0073
1799.00,0.0073
1798.00,0.0074
1797.00,0.0074
1796.00,0.0075
1795.00,0.0074
1794.00,0.0074
1793.00,0.0074
1792.00,0.0074
1791.00,0.0074
1790.00,0.0074
1789.00,0.0074
1788.00,0.0074
1787.00,0.0075
1786.00,0.0075
1785.00,0.0075
1784.00,0.0075
1783.00,0.0075
1782.00,0.0074
1781.00,0.0074
1780.00,0.0075
1779.00,0.0076
1778.00,0.0077
1777.00,0.0078
1776.00,0.0079
1775.00,0.0080
1774.00,0.0079
1773.00,0.0079
1772.00,0.0080
1771.00,0.0080
1770.00,0.0080
1769.00,0.0079
1768.00,0.0079
1767.00,0.0080
1766.00,0.0080
1765.00,0.0080
1764.00,0.0080
1763.00,0.0081
1762.00,0.0082
1761.00,0.0084
1760.00,0.0084
1759.00,0.0084
1758.00,0.0083
1757.00,0.0083
1756.00,0.0083
1755.00,0.0083
1754.00,0.0082
1753.00,0.0081
1752.00,0.0081
1751.00,0.0081
1750.00,0.0081
1749.00,0.0080
1748.00,0.0080
1747.00,0.0081
1746.00,0.0082
1745.00,0.0083
1744.00,0.0084
1743.00,0.0085
1742.00,0.0085
1741.00,0.0085
1740.00,0.0086
1739.00,0.0088
1738.00,0.0089
1737.00,0.0088
1736.00,0.0088
1735.00,0.0088
1734.00,0.0089
1733.00,0.0090
1732.00,0.0091
1731.00,0.0092
1730.00,0.0094
1729.00,0.0097
1728.00,0.0101
1727.00,0.0104
1726.00,0.0105
1725.00,0.0107
1724.00,0.0109
1723.00,0.0111
1722.00,0.0112
1721.00,0.0113
1720.00,0.0114
1719.00,0.0116
1718.00,0.0117
1717.00,0.0117
1716.00,0.0118
1715.00,0.0120
1714.00,0.0124
1713.00,0.0128
1712.00,0.0133
1711.00,0.0137
1710.00,0.0141
1709.00,0.0144
1708.00,0.0148
1707.00,0.0152
1706.00,0.0156
1705.00,0.0161
1704.00,0.0165
1703.00,0.0169
1702.00,0.0173
1701.00,0.0181
1700.00,0.0194
1699.00,0.0204
1698.00,0.0208
1697.00,0.0213
1696.00,0.0225
1695.00,0.0241
1694.00,0.0256
1693.00,0.0268
1692.00,0.0281
1691.00,0.0296
1690.00,0.0311
1689.00,0.0326
1688.00,0.0340
1687.00,0.0351
1686.00,0.0363
1685.00,0.0380
1684.00,0.0403
1683.00,0.0424
1682.00,0.0440
1681.00,0.0454
1680.00,0.0471
1679.00,0.0487
1678.00,0.0502
1677.00,0.0517
1676.00,0.0535
1675.00,0.0555
1674.00,0.0572
1673.00,0.0585
1672.00,0.0597
1671.00,0.0611
1670.00,0.0627
1669.00,0.0643
1668.00,0.0658
1667.00,0.0672
1666.00,0.0683
1665.00,0.0694
1664.00,0.0708
1663.00,0.0722
1662.00,0.0733
1661.00,0.0743
1660.00,0.0753
1659.00,0.0762
1658.00,0.0770
1657.00,0.0777
1656.00,0.0783
1655.00,0.0788
1654.00,0.0790
1653.00,0.0789
1652.00,0.0789
1651.00,0.0790
1650.00,0.0791
1649.00,0.0793
1648.00,0.0794
1647.00,0.0791
1646.00,0.0784
1645.00,0.0778
1644.00,0.0775
1643.00,0.0771
1642.00,0.0766
1641.00,0.0760
1640.00,0.0752
1639.00,0.0744
1638.00,0.0733
1637.00,0.0719
1636.00,0.0704
1635.00,0.0692
1634.00,0.0686
1633.00,0.0686
1632.00,0.0693
1631.00,0.0708
1630.00,0.0731
1629.00,0.0766
1628.00,0.0811
1627.00,0.0859
1626.00,0.0904
1625.00,0.0942
1624.00,0.0976
1623.00,0.1003
1622.00,0.1015
1621.00,0.1014
1620.00,0.1004
1619.00,0.0982
1618.00,0.0941
1617.00,0.0881
1616.00,0.0822
1615.00,0.0783
1614.00,0.0765
1613.00,0.0761
1612.00,0.0763
1611.00,0.0763
1610.00,0.0755
1609.00,0.0735
1608.00,0.0705
1607.00,0.0668
1606.00,0.0628
1605.00,0.0588
1604.00,0.0549
1603.00,0.0512
1602.00,0.0478
1601.00,0.0449
1600.00,0.0425
1599.00,0.0406
1598.00,0.0390
1597.00,0.0380
1596.00,0.0374
1595.00,0.0373
1594.00,0.0379
1593.00,0.0392
1592.00,0.0412
1591.00,0.0441
1590.00,0.0476
1589.00,0.0515
1588.00,0.0556
1587.00,0.0593
1586.00,0.0624
1585.00,0.0646
1584.00,0.0658
1583.00,0.0660
1582.00,0.0654
1581.00,0.0640
1580.00,0.0624
1579.00,0.0604
1578.00,0.0580
1577.00,0.0548
1576.00,0.0509
1575.00,0.0476
1574.00,0.0454
1573.00,0.0439
1572.00,0.0429
1571.00,0.0418
1570.00,0.0407
1569.00,0.0394
1568.00,0.0382
1567.00,0.0369
1566.00,0.0354
1565.00,0.0335
1564.00,0.0315
1563.00,0.0298
1562.00,0.0282
1561.00,0.0268
1560.00,0.0252
1559.00,0.0232
1558.00,0.0215
1557.00,0.0206
1556.00,0.0200
1555.00,0.0197
1554.00,0.0194
1553.00,0.0192
1552.00,0.0189
1551.00,0.0187
1550.00,0.0184
1549.00,0.0182
1548.00,0.0180
1547.00,0.0179
1546.00,0.0177
1545.00,0.0175
1544.00,0.0171
1543.00,0.0168
1542.00,0.0164
1541.00,0.0160
1540.00,0.0156
1539.00,0.0154
1538.00,0.0155
1537.00,0.0155
1536.00,0.0156
1535.00,0.0156
1534.00,0.0156
1533.00,0.0156
1532.00,0.0155
1531.00,0.0154
1530.00,0.0153
1529.00,0.0154
1528.00,0.0154
1527.00,0.0155
1526.00,0.0156
1525.00,0.0156
1524.00,0.0157
1523.00,0.0158
1522.00,0.0160
1521.00,0.0163
1520.00,0.0168
1519.00,0.0173
1518.00,0.0179
1517.00,0.0186
1516.00,0.0195
1515.00,0.0202
1514.00,0.0209
1513.00,0.0216
1512.00,0.0223
1511.00,0.0229
1510.00,0.0232
1509.00,0.0234
1508.00,0.0235
1507.00,0.0238
1506.00,0.0244
1505.00,0.0254
1504.00,0.0264
1503.00,0.0276
1502.00,0.0292
1501.00,0.0314
1500.00,0.0344
1499.00,0.0383
1498.00,0.0428
1497.00,0.0470
1496.00,0.0497
1495.00,0.0502
1494.00,0.0492
1493.00,0.0471
1492.00,0.0444
1491.00,0.0411
1490.00,0.0375
1489.00,0.0341
1488.00,0.0313
1487.00,0.0292
1486.00,0.0275
1485.00,0.0262
1484.00,0.0251
1483.00,0.0242
1482.00,0.0234
1481.00,0.0229
1480.00,0.0227
1479.00,0.0226
1478.00,0.0228
1477.00,0.0232
1476.00,0.0238
1475.00,0.0245
1474.00,0.0256
1473.00,0.0277
1472.00,0.0308
1471.00,0.0346
1470.00,0.0389
1469.00,0.0435
1468.00,0.0484
1467.00,0.0530
1466.00,0.0569
1465.00,0.0595
1464.00,0.0609
1463.00,0.0614
1462.00,0.0617
1461.00,0.0619
1460.00,0.0620
1459.00,0.0616
1458.00,0.0602
1457.00,0.0575
1456.00,0.0548
1455.00,0.0527
1454.00,0.0515
1453.00,0.0508
1452.00,0.0506
1451.00,0.0508
1450.00,0.0515
1449.00,0.0527
1448.00,0.0542
1447.00,0.0562
1446.00,0.0584
1445.00,0.0610
1444.00,0.0639
1443.00,0.0669
1442.00,0.0698
1441.00,0.0723
1440.00,0.0745
1439.00,0.0762
1438.00,0.0776
1437.00,0.0789
1436.00,0.0802
1435.00,0.0814
1434.00,0.0827
1433.00,0.0842
1432.00,0.0858
1431.00,0.0872
1430.00,0.0883
1429.00,0.0893
1428.00,0.0900
1427.00,0.0905
1426.00,0.0907
1425.00,0.0908
1424.00,0.0905
1423.00,0.0898
1422.00,0.0888
1421.00,0.0874
1420.00,0.0850
1419.00,0.0813
1418.00,0.0771
1417.00,0.0733
1416.00,0.0700
1415.00,0.0670
1414.00,0.0643
1413.00,0.0621
1412.00,0.0604
1411.00,0.0593
1410.00,0.0591
1409.00,0.0596
1408.00,0.0609
1407.00,0.0628
1406.00,0.0655
1405.00,0.0687
1404.00,0.0719
1403.00,0.0748
1402.00,0.0770
1401.00,0.0785
1400.00,0.0789
1399.00,0.0780
1398.00,0.0759
1397.00,0.0731
1396.00,0.0695
1395.00,0.0652
1394.00,0.0609
1393.00,0.0572
1392.00,0.0544
1391.00,0.0525
1390.00,0.0515
1389.00,0.0517
1388.00,0.0531
1387.00,0.0546
1386.00,0.0552
1385.00,0.0546
1384.00,0.0533
1383.00,0.0522
1382.00,0.0519
1381.00,0.0523
1380.00,0.0530
1379.00,0.0534
1378.00,0.0534
1377.00,0.0529
1376.00,0.0517
1375.00,0.0496
1374.00,0.0472
1373.00,0.0450
1372.00,0.0437
1371.00,0.0433
1370.00,0.0439
1369.00,0.0457
1368.00,0.0483
1367.00,0.0514
1366.00,0.0541
1365.00,0.0559
1364.00,0.0569
1363.00,0.0580
1362.00,0.0600
1361.00,0.0627
1360.00,0.0645
1359.00,0.0644
1358.00,0.0620
1357.00,0.0585
1356.00,0.0550
1355.00,0.0522
1354.00,0.0502
1353.00,0.0490
1352.00,0.0482
1351.00,0.0479
1350.00,0.0479
1349.00,0.0482
1348.00,0.0484
1347.00,0.0484
1346.00,0.0481
1345.00,0.0475
1344.00,0.0465
1343.00,0.0452
1342.00,0.0437
1341.00,0.0420
1340.00,0.0402
1339.00,0.0386
1338.00,0.0375
1337.00,0.0369
1336.00,0.0368
1335.00,0.0372
1334.00,0.0380
1333.00,0.0391
1332.00,0.0402
1331.00,0.0412
1330.00,0.0421
1329.00,0.0427
1328.00,0.0431
1327.00,0.0433
1326.00,0.0434
1325.00,0.0434
1324.00,0.0434
1323.00,0.0435
1322.00,0.0438
1321.00,0.0440
1320.00,0.0441
1319.00,0.0440
1318.00,0.0437
1317.00,0.0431
1316.00,0.0424
1315.00,0.0416
1314.00,0.0408
1313.00,0.0402
1312.00,0.0399
1311.00,0.0400
1310.00,0.0405
1309.00,0.0415
1308.00,0.0430
1307.00,0.0450
1306.00,0.0477
1305.00,0.0511
1304.00,0.0551
1303.00,0.0596
1302.00,0.0638
1301.00,0.0671
1300.00,0.0693
1299.00,0.0704
1298.00,0.0712
1297.00,0.0721
1296.00,0.0738
1295.00,0.0759
1294.00,0.0783
1293.00,0.0804
1292.00,0.0822
1291.00,0.0835
1290.00,0.0848
1289.00,0.0863
1288.00,0.0880
1287.00,0.0899
1286.00,0.0919
1285.00,0.0936
1284.00,0.0946
1283.00,0.0945
1282.00,0.0933
1281.00,0.0911
1280.00,0.0881
1279.00,0.0848
1278.00,0.0817
1277.00,0.0790
1276.00,0.0768
1275.00,0.0752
1274.00,0.0738
1273.00,0.0726
1272.00,0.0712
1271.00,0.0697
1270.00,0.0681
1269.00,0.0663
1268.00,0.0645
1267.00,0.0626
1266.00,0.0606
1265.00,0.0586
1264.00,0.0565
1263.00,0.0544
1262.00,0.0523
1261.00,0.0503
1260.00,0.0484
1259.00,0.0466
1258.00,0.0451
1257.00,0.0439
1256.00,0.0428
1255.00,0.0420
1254.00,0.0414
1253.00,0.0410
1252.00,0.0409
1251.00,0.0412
1250.00,0.0420
1249.00,0.0432
1248.00,0.0448
1247.00,0.0468
1246.00,0.0490
1245.00,0.0512
1244.00,0.0531
1243.00,0.0547
1242.00,0.0560
1241.00,0.0571
1240.00,0.0583
1239.00,0.0600
1238.00,0.0623
1237.00,0.0651
1236.00,0.0681
1235.00,0.0707
1234.00,0.0725
1233.00,0.0731
1232.00,0.0725
1231.00,0.0707
1230.00,0.0682
1229.00,0.0654
1228.00,0.0627
1227.00,0.0601
1226.00,0.0580
1225.00,0.0562
1224.00,0.0547
1223.00,0.0537
1222.00,0.0530
1221.00,0.0528
1220.00,0.0531
1219.00,0.0538
1218.00,0.0548
1217.00,0.0561
1216.00,0.0573
1215.00,0.0582
1214.00,0.0584
1213.00,0.0577
1212.00,0.0562
1211.00,0.0539
1210.00,0.0513
1209.00,0.0488
1208.00,0.0466
1207.00,0.0449
1206.00,0.0439
1205.00,0.0437
1204.00,0.0442
1203.00,0.0455
1202.00,0.0477
1201.00,0.0504
1200.00,0.0537
1199.00,0.0573
1198.00,0.0613
1197.00,0.0653
1196.00,0.0690
1195.00,0.0716
1194.00,0.0726
1193.00,0.0720
1192.00,0.0699
1191.00,0.0668
1190.00,0.0630
1189.00,0.0589
1188.00,0.0547
1187.00,0.0507
1186.00,0.0471
1185.00,0.0439
1184.00,0.0413
1183.00,0.0393
1182.00,0.0377
1181.00,0.0364
1180.00,0.0355
1179.00,0.0349
1178.00,0.0344
1177.00,0.0340
1176.00,0.0338
1175.00,0.0336
1174.00,0.0335
1173.00,0.0335
1172.00,0.0335
1171.00,0.0336
1170.00,0.0336
1169.00,0.0336
1168.00,0.0336
1167.00,0.0337
1166.00,0.0339
1165.00,0.0342
1164.00,0.0348
1163.00,0.0357
1162.00,0.0373
1161.00,0.0397
1160.00,0.0432
1159.00,0.0480
1158.00,0.0539
1157.00,0.0603
1156.00,0.0661
1155.00,0.0699
1154.00,0.0705
1153.00,0.0676
1152.00,0.0620
1151.00,0.0550
1150.00,0.0481
1149.00,0.0422
1148.00,0.0378
1147.00,0.0346
1146.00,0.0326
1145.00,0.0312
1144.00,0.0304
1143.00,0.0298
1142.00,0.0295
1141.00,0.0295
1140.00,0.0298
1139.00,0.0304
1138.00,0.0315
1137.00,0.0332
1136.00,0.0356
1135.00,0.0392
1134.00,0.0442
1133.00,0.0506
1132.00,0.0583
1131.00,0.0663
1130.00,0.0733
1129.00,0.0783
1128.00,0.0805
1127.00,0.0800
1126.00,0.0774
1125.00,0.0733
1124.00,0.0682
1123.00,0.0625
1122.00,0.0568
1121.00,0.0516
1120.00,0.0472
1119.00,0.0440
1118.00,0.0418
1117.00,0.0405
1116.00,0.0398
1115.00,0.0395
1114.00,0.0392
1113.00,0.0387
1112.00,0.0379
1111.00,0.0369
1110.00,0.0360
1109.00,0.0352
1108.00,0.0347
1107.00,0.0348
1106.00,0.0355
1105.00,0.0372
1104.00,0.0399
1103.00,0.0436
1102.00,0.0481
1101.00,0.0524
1100.00,0.0555
1099.00,0.0565
1098.00,0.0552
1097.00,0.0520
1096.00,0.0478
1095.00,0.0432
1094.00,0.0391
1093.00,0.0357
1092.00,0.0331
1091.00,0.0312
1090.00,0.0298
1089.00,0.0289
1088.00,0.0281
1087.00,0.0276
1086.00,0.0272
1085.00,0.0269
1084.00,0.0268
1083.00,0.0267
1082.00,0.0267
1081.00,0.0268
1080.00,0.0270
1079.00,0.0273
1078.00,0.0276
1077.00,0.0280
1076.00,0.0283
1075.00,0.0287
1074.00,0.0291
1073.00,0.0296
1072.00,0.0302
1071.00,0.0308
1070.00,0.0316
1069.00,0.0325
1068.00,0.0335
1067.00,0.0347
1066.00,0.0360
1065.00,0.0376
1064.00,0.0396
1063.00,0.0422
1062.00,0.0457
1061.00,0.0503
1060.00,0.0560
1059.00,0.0631
1058.00,0.0714
1057.00,0.0803
1056.00,0.0889
1055.00,0.0961
1054.00,0.1014
1053.00,0.1047
1052.00,0.1065
1051.00,0.1075
1050.00,0.1077
1049.00,0.1069
1048.00,0.1046
1047.00,0.1006
1046.00,0.0952
1045.00,0.0888
1044.00,0.0819
1043.00,0.0751
1042.00,0.0687
1041.00,0.0632
1040.00,0.0589
1039.00,0.0560
1038.00,0.0544
1037.00,0.0539
1036.00,0.0541
1035.00,0.0549
1034.00,0.0560
1033.00,0.0578
1032.00,0.0609
1031.00,0.0659
1030.00,0.0728
1029.00,0.0808
1028.00,0.0884
1027.00,0.0937
1026.00,0.0953
1025.00,0.0927
1024.00,0.0868
1023.00,0.0793
1022.00,0.0717
1021.00,0.0648
1020.00,0.0589
1019.00,0.0541
1018.00,0.0500
1017.00,0.0466
1016.00,0.0437
1015.00,0.0413
1014.00,0.0393
1013.00,0.0377
1012.00,0.0367
1011.00,0.0363
1010.00,0.0366
1009.00,0.0379
1008.00,0.0400
1007.00,0.0427
1006.00,0.0458
1005.00,0.0487
1004.00,0.0510
1003.00,0.0521
1002.00,0.0520
1001.00,0.0510
1000.00,0.0494
999.00,0.0478
998.00,0.0462
997.00,0.0447
996.00,0.0435
995.00,0.0425
994.00,0.0414
993.00,0.0403
992.00,0.0388
991.00,0.0371
990.00,0.0353
989.00,0.0335
988.00,0.0319
987.00,0.0306
986.00,0.0295
985.00,0.0286
984.00,0.0278
983.00,0.0272
982.00,0.0268
981.00,0.0264
980.00,0.0262
979.00,0.0261
978.00,0.0261
977.00,0.0261
976.00,0.0261
975.00,0.0260
974.00,0.0259
973.00,0.0257
972.00,0.0255
971.00,0.0252
970.00,0.0251
969.00,0.0249
968.00,0.0249
967.00,0.0249
966.00,0.0250
965.00,0.0254
964.00,0.0258
963.00,0.0262
962.00,0.0264
961.00,0.0261
960.00,0.0253
959.00,0.0242
958.00,0.0231
957.00,0.0221
956.00,0.0213
955.00,0.0207
954.00,0.0202
953.00,0.0198
952.00,0.0197
951.00,0.0197
950.00,0.0201
949.00,0.0207
948.00,0.0211
947.00,0.0212
946.00,0.0212
945.00,0.0211
944.00,0.0213
943.00,0.0217
942.00,0.0225
941.00,0.0235
940.00,0.0245
939.00,0.0254
938.00,0.0263
937.00,0.0270
936.00,0.0276
935.00,0.0283
934.00,0.0289
933.00,0.0294
932.00,0.0295
931.00,0.0292
930.00,0.0285
929.00,0.0278
928.00,0.0272
927.00,0.0270
926.00,0.0273
925.00,0.0281
924.00,0.0292
923.00,0.0304
922.00,0.0312
921.00,0.0313
920.00,0.0305
919.00,0.0290
918.00,0.0271
917.00,0.0253
916.00,0.0238
915.00,0.0225
914.00,0.0216
913.00,0.0209
912.00,0.0205
911.00,0.0202
910.00,0.0201
909.00,0.0202
908.00,0.0204
907.00,0.0207
906.00,0.0213
905.00,0.0222
904.00,0.0236
903.00,0.0254
902.00,0.0278
901.00,0.0303
900.00,0.0324
899.00,0.0336
898.00,0.0336
897.00,0.0325
896.00,0.0309
895.00,0.0294
894.00,0.0287
893.00,0.0292
892.00,0.0308
891.00,0.0327
890.00,0.0338
889.00,0.0332
888.00,0.0311
887.00,0.0282
886.00,0.0258
885.00,0.0243
884.00,0.0236
883.00,0.0234
882.00,0.0237
881.00,0.0243
880.00,0.0252
879.00,0.0267
878.00,0.0290
877.00,0.0322
876.00,0.0362
875.00,0.0412
874.00,0.0469
873.00,0.0530
872.00,0.0589
871.00,0.0638
870.00,0.0667
869.00,0.0671
868.00,0.0651
867.00,0.0616
866.00,0.0575
865.00,0.0537
864.00,0.0500
863.00,0.0466
862.00,0.0433
861.00,0.0405
860.00,0.0384
859.00,0.0372
858.00,0.0373
857.00,0.0386
856.00,0.0411
855.00,0.0442
854.00,0.0474
853.00,0.0505
852.00,0.0536
851.00,0.0568
850.00,0.0598
849.00,0.0617
848.00,0.0617
847.00,0.0599
846.00,0.0569
845.00,0.0536
844.00,0.0507
843.00,0.0482
842.00,0.0465
841.00,0.0456
840.00,0.0456
839.00,0.0467
838.00,0.0491
837.00,0.0525
836.00,0.0564
835.00,0.0597
834.00,0.0620
833.00,0.0629
832.00,0.0621
831.00,0.0598
830.00,0.0562
829.00,0.0516
828.00,0.0469
827.00,0.0426
826.00,0.0396
825.00,0.0387
824.00,0.0406
823.00,0.0461
822.00,0.0546
821.00,0.0636
820.00,0.0700
819.00,0.0731
818.00,0.0753
817.00,0.0788
816.00,0.0821
815.00,0.0815
814.00,0.0750
813.00,0.0645
812.00,0.0539
811.00,0.0455
810.00,0.0397
809.00,0.0358
808.00,0.0331
807.00,0.0311
806.00,0.0297
805.00,0.0286
804.00,0.0278
803.00,0.0272
802.00,0.0267
801.00,0.0263
800.00,0.0260
799.00,0.0259
798.00,0.0257
797.00,0.0256
796.00,0.0256
795.00,0.0255
794.00,0.0255
793.00,0.0254
792.00,0.0254
791.00,0.0254
790.00,0.0254
789.00,0.0254
788.00,0.0255
787.00,0.0256
786.00,0.0257
785.00,0.0258
784.00,0.0258
783.00,0.0259
782.00,0.0260
781.00,0.0262
780.00,0.0266
779.00,0.0272
778.00,0.0282
777.00,0.0298
776.00,0.0318
775.00,0.0335
774.00,0.0343
773.00,0.0340
772.00,0.0328
771.00,0.0314
770.00,0.0305
769.00,0.0299
768.00,0.0298
767.00,0.0298
766.00,0.0300
765.00,0.0303
764.00,0.0309
763.00,0.0317
762.00,0.0326
761.00,0.0336
760.00,0.0346
759.00,0.0353
758.00,0.0356
757.00,0.0355
756.00,0.0352
755.00,0.0349
754.00,0.0348
753.00,0.0349
752.00,0.0351
751.00,0.0354
750.00,0.0358
749.00,0.0362
748.00,0.0367
747.00,0.0372
746.00,0.0378
745.00,0.0384
744.00,0.0392
743.00,0.0400
742.00,0.0411
741.00,0.0425
740.00,0.0445
739.00,0.0473
738.00,0.0511
737.00,0.0556
736.00,0.0601
735.00,0.0632
734.00,0.0642
733.00,0.0633
732.00,0.0616
731.00,0.0604
730.00,0.0601
729.00,0.0603
728.00,0.0600
727.00,0.0585
726.00,0.0557
725.00,0.0525
724.00,0.0494
723.00,0.0470
722.00,0.0455
721.00,0.0447
720.00,0.0445
719.00,0.0451
718.00,0.0464
717.00,0.0481
716.00,0.0498
715.00,0.0509
714.00,0.0511
713.00,0.0506
712.00,0.0497
711.00,0.0487
710.00,0.0477
709.00,0.0467
708.00,0.0461
707.00,0.0459
706.00,0.0461
705.00,0.0465
704.00,0.0471
703.00,0.0479
702.00,0.0488
701.00,0.0499
700.00,0.0511
699.00,0.0521
698.00,0.0529
697.00,0.0531
696.00,0.0529
695.00,0.0522
694.00,0.0516
693.00,0.0512
692.00,0.0516
691.00,0.0528
690.00,0.0547
689.00,0.0567
688.00,0.0580
687.00,0.0582
686.00,0.0575
685.00,0.0563
684.00,0.0553
683.00,0.0546
682.00,0.0544
681.00,0.0546
680.00,0.0552
679.00,0.0560
678.00,0.0571
677.00,0.0584
676.00,0.0600
675.00,0.0618
674.00,0.0638
673.00,0.0657
672.00,0.0673
671.00,0.0684
670.00,0.0689
669.00,0.0687
668.00,0.0681
667.00,0.0676
666.00,0.0676
665.00,0.0680
664.00,0.0689
663.00,0.0701
662.00,0.0712
661.00,0.0719
660.00,0.0719
659.00,0.0712
658.00,0.0702
657.00,0.0691
656.00,0.0683
655.00,0.0678
654.00,0.0676
653.00,0.0677
652.00,0.0678
651.00,0.0679
650.00,0.0680
649.00,0.0680
648.00,0.0681
647.00,0.0680
646.00,0.0678
645.00,0.0676
644.00,0.0673
643.00,0.0669
642.00,0.0665
641.00,0.0661
640.00,0.0656
639.00,0.0652
638.00,0.0647
637.00,0.0643
636.00,0.0640
635.00,0.0637
634.00,0.0635
633.00,0.0633
632.00,0.0632
631.00,0.0630
630.00,0.0630
629.00,0.0631
628.00,0.0633
627.00,0.0637
626.00,0.0643
625.00,0.0651
624.00,0.0661
623.00,0.0673
622.00,0.0685
621.00,0.0696
620.00,0.0703
619.00,0.0704
618.00,0.0698
617.00,0.0686
616.00,0.0669
615.00,0.0651
614.00,0.0636
613.00,0.0624
612.00,0.0618
611.00,0.0618
610.00,0.0625
609.00,0.0640
608.00,0.0663
607.00,0.0693
606.00,0.0727
605.00,0.0759
604.00,0.0786
603.00,0.0805
602.00,0.0816
601.00,0.0822
600.00,0.0825
599.00,0.0826
598.00,0.0827
597.00,0.0826
596.00,0.0826
595.00,0.0825
594.00,0.0823
593.00,0.0822
592.00,0.0819
591.00,0.0816
590.00,0.0811
589.00,0.0808
588.00,0.0805
587.00,0.0803
586.00,0.0803
585.00,0.0806
584.00,0.0812
583.00,0.0820
582.00,0.0830
581.00,0.0842
580.00,0.0859
579.00,0.0881
578.00,0.0907
577.00,0.0931
576.00,0.0945
575.00,0.0943
574.00,0.0925
573.00,0.0901
572.00,0.0877
571.00,0.0855
570.00,0.0837
569.00,0.0825
568.00,0.0817
567.00,0.0813
566.00,0.0815
565.00,0.0822
564.00,0.0834
563.00,0.0850
562.00,0.0869
561.00,0.0887
560.00,0.0901
559.00,0.0904
558.00,0.0895
557.00,0.0879
556.00,0.0861
555.00,0.0844
554.00,0.0831
553.00,0.0823
552.00,0.0824
551.00,0.0832
550.00,0.0848
549.00,0.0869
548.00,0.0892
547.00,0.0913
546.00,0.0924
545.00,0.0924
544.00,0.0913
543.00,0.0896
542.00,0.0876
541.00,0.0857
540.00,0.0840
539.00,0.0826
538.00,0.0817
537.00,0.0813
536.00,0.0817
535.00,0.0829
534.00,0.0846
533.00,0.0865
532.00,0.0882
531.00,0.0892
530.00,0.0890
529.00,0.0878
528.00,0.0858
527.00,0.0834
526.00,0.0810
525.00,0.0790
524.00,0.0774
523.00,0.0761
522.00,0.0751
521.00,0.0741
520.00,0.0731
519.00,0.0722
518.00,0.0715
517.00,0.0711
516.00,0.0710
515.00,0.0710
514.00,0.0709
513.00,0.0709
512.00,0.0710
511.00,0.0711
510.00,0.0714
509.00,0.0718
508.00,0.0724
507.00,0.0729
506.00,0.0732
505.00,0.0731
504.00,0.0726
503.00,0.0718
502.00,0.0709
501.00,0.0702
500.00,0.0698
499.00,0.0696
498.00,0.0695
497.00,0.0698
496.00,0.0703
495.00,0.0710
494.00,0.0718
493.00,0.0725
492.00,0.0729
491.00,0.0731
490.00,0.0728
489.00,0.0722
488.00,0.0715
487.00,0.0709
486.00,0.0703
485.00,0.0700
484.00,0.0698
483.00,0.0697
482.00,0.0694
481.00,0.0690
480.00,0.0686
479.00,0.0683
478.00,0.0682
477.00,0.0683
476.00,0.0686
475.00,0.0688
474.00,0.0689
473.00,0.0687
472.00,0.0684
471.00,0.0680
470.00,0.0677
469.00,0.0676
468.00,0.0674
467.00,0.0671
466.00,0.0667
465.00,0.0665
464.00,0.0664
463.00,0.0665
462.00,0.0664
461.00,0.0661
460.00,0.0658
459.00,0.0654
458.00,0.0652
457.00,0.0652
456.00,0.0652
455.00,0.0651
454.00,0.0649
453.00,0.0647
452.00,0.0645
451.00,0.0644
450.00,0.0641
449.00,0.0638
448.00,0.0635
447.00,0.0631
446.00,0.0627
445.00,0.0624
444.00,0.0621
443.00,0.0619
442.00,0.0617
441.00,0.0616
440.00,0.0617
439.00,0.0617
438.00,0.0615
437.00,0.0610
436.00,0.0602
435.00,0.0594
434.00,0.0587
433.00,0.0581
432.00,0.0575
431.00,0.0570
430.00,0.0566
429.00,0.0564
428.00,0.0564
427.00,0.0564
426.00,0.0563
425.00,0.0559
424.00,0.0554
423.00,0.0550
422.00,0.0549
421.00,0.0549
420.00,0.0552
419.00,0.0554
418.00,0.0557
417.00,0.0559
416.00,0.0563
415.00,0.0566
414.00,0.0571
413.00,0.0576
412.00,0.0584
411.00,0.0593
410.00,0.0601
409.00,0.0603
408.00,0.0598
407.00,0.0587
406.00,0.0575
405.00,0.0567
404.00,0.0562
403.00,0.0559
402.00,0.0554
401.00,0.0548
400.00,0.0543
