Created as New Dataset,Sample 1033 By YargerLab Date Monday, August 04 2025
cm-1,A
4000.00,0.0102
3999.00,0.0102
3998.00,0.0102
3997.00,0.0101
3996.00,0.0101
3995.00,0.0101
3994.00,0.0101
3993.00,0.0101
3992.00,0.0101
3991.00,0.0101
3990.00,0.0101
3989.00,0.0101
3988.00,0.0101
3987.00,0.0101
3986.00,0.0101
3985.00,0.0101
3984.00,0.0101
3983.00,0.0101
3982.00,0.0101
3981.00,0.0101
3980.00,0.0101
3979.00,0.0101
3978.00,0.0101
3977.00,0.0101
3976.00,0.0102
3975.00,0.0102
3974.00,0.0102
3973.00,0.0102
3972.00,0.0101
3971.00,0.0101
3970.00,0.0101
3969.00,0.0101
3968.00,0.0101
3967.00,0.0101
3966.00,0.0101
3965.00,0.0101
3964.00,0.0101
3963.00,0.0101
3962.00,0.0101
3961.00,0.0101
3960.00,0.0101
3959.00,0.0101
3958.00,0.0101
3957.00,0.0101
3956.00,0.0101
3955.00,0.0101
3954.00,0.0101
3953.00,0.0101
3952.00,0.0101
3951.00,0.0101
3950.00,0.0101
3949.00,0.0101
3948.00,0.0100
3947.00,0.0100
3946.00,0.0100
3945.00,0.0100
3944.00,0.0100
3943.00,0.0100
3942.00,0.0101
3941.00,0.0101
3940.00,0.0101
3939.00,0.0101
3938.00,0.0101
3937.00,0.0101
3936.00,0.0101
3935.00,0.0101
3934.00,0.0100
3933.00,0.0100
3932.00,0.0100
3931.00,0.0101
3930.00,0.0101
3929.00,0.0101
3928.00,0.0101
3927.00,0.0101
3926.00,0.0101
3925.00,0.0101
3924.00,0.0101
3923.00,0.0101
3922.00,0.0100
3921.00,0.0100
3920.00,0.0100
3919.00,0.0100
3918.00,0.0100
3917.00,0.0100
3916.00,0.0100
3915.00,0.0101
3914.00,0.0101
3913.00,0.0101
3912.00,0.0101
3911.00,0.0101
3910.00,0.0101
3909.00,0.0101
3908.00,0.0101
3907.00,0.0100
3906.00,0.0100
3905.00,0.0100
3904.00,0.0100
3903.00,0.0099
3902.00,0.0099
3901.00,0.0099
3900.00,0.0100
3899.00,0.0100
3898.00,0.0100
3897.00,0.0099
3896.00,0.0099
3895.00,0.0099
3894.00,0.0099
3893.00,0.0100
3892.00,0.0100
3891.00,0.0100
3890.00,0.0100
3889.00,0.0100
3888.00,0.0099
3887.00,0.0099
3886.00,0.0099
3885.00,0.0099
3884.00,0.0099
3883.00,0.0099
3882.00,0.0099
3881.00,0.0099
3880.00,0.0099
3879.00,0.0100
3878.00,0.0100
3877.00,0.0099
3876.00,0.0099
3875.00,0.0099
3874.00,0.0099
3873.00,0.0100
3872.00,0.0099
3871.00,0.0099
3870.00,0.0099
3869.00,0.0099
3868.00,0.0099
3867.00,0.0099
3866.00,0.0098
3865.00,0.0098
3864.00,0.0099
3863.00,0.0099
3862.00,0.0099
3861.00,0.0099
3860.00,0.0099
3859.00,0.0100
3858.00,0.0100
3857.00,0.0101
3856.00,0.0101
3855.00,0.0100
3854.00,0.0100
3853.00,0.0099
3852.00,0.0099
3851.00,0.0099
3850.00,0.0099
3849.00,0.0099
3848.00,0.0099
3847.00,0.0099
3846.00,0.0099
3845.00,0.0099
3844.00,0.0099
3843.00,0.0099
3842.00,0.0099
3841.00,0.0098
3840.00,0.0098
3839.00,0.0098
3838.00,0.0098
3837.00,0.0099
3836.00,0.0099
3835.00,0.0099
3834.00,0.0099
3833.00,0.0099
3832.00,0.0099
3831.00,0.0098
3830.00,0.0099
3829.00,0.0099
3828.00,0.0099
3827.00,0.0099
3826.00,0.0100
3825.00,0.0100
3824.00,0.0099
3823.00,0.0099
3822.00,0.0098
3821.00,0.0098
3820.00,0.0098
3819.00,0.0098
3818.00,0.0098
3817.00,0.0098
3816.00,0.0098
3815.00,0.0099
3814.00,0.0099
3813.00,0.0100
3812.00,0.0100
3811.00,0.0100
3810.00,0.0100
3809.00,0.0100
3808.00,0.0100
3807.00,0.0099
3806.00,0.0099
3805.00,0.0099
3804.00,0.0099
3803.00,0.0098
3802.00,0.0098
3801.00,0.0099
3800.00,0.0099
3799.00,0.0099
3798.00,0.0099
3797.00,0.0098
3796.00,0.0098
3795.00,0.0099
3794.00,0.0099
3793.00,0.0099
3792.00,0.0100
3791.00,0.0100
3790.00,0.0100
3789.00,0.0100
3788.00,0.0100
3787.00,0.0100
3786.00,0.0100
3785.00,0.0099
3784.00,0.0099
3783.00,0.0099
3782.00,0.0099
3781.00,0.0098
3780.00,0.0098
3779.00,0.0098
3778.00,0.0099
3777.00,0.0099
3776.00,0.0099
3775.00,0.0099
3774.00,0.0099
3773.00,0.0099
3772.00,0.0099
3771.00,0.0099
3770.00,0.0099
3769.00,0.0099
3768.00,0.0099
3767.00,0.0099
3766.00,0.0098
3765.00,0.0098
3764.00,0.0098
3763.00,0.0098
3762.00,0.0098
3761.00,0.0098
3760.00,0.0098
3759.00,0.0098
3758.00,0.0099
3757.00,0.0099
3756.00,0.0099
3755.00,0.0099
3754.00,0.0099
3753.00,0.0098
3752.00,0.0098
3751.00,0.0098
3750.00,0.0097
3749.00,0.0097
3748.00,0.0097
3747.00,0.0096
3746.00,0.0096
3745.00,0.0096
3744.00,0.0097
3743.00,0.0097
3742.00,0.0097
3741.00,0.0097
3740.00,0.0096
3739.00,0.0096
3738.00,0.0096
3737.00,0.0096
3736.00,0.0096
3735.00,0.0096
3734.00,0.0096
3733.00,0.0096
3732.00,0.0096
3731.00,0.0096
3730.00,0.0097
3729.00,0.0097
3728.00,0.0097
3727.00,0.0097
3726.00,0.0097
3725.00,0.0097
3724.00,0.0097
3723.00,0.0097
3722.00,0.0097
3721.00,0.0097
3720.00,0.0097
3719.00,0.0098
3718.00,0.0098
3717.00,0.0098
3716.00,0.0098
3715.00,0.0098
3714.00,0.0097
3713.00,0.0096
3712.00,0.0096
3711.00,0.0096
3710.00,0.0096
3709.00,0.0096
3708.00,0.0096
3707.00,0.0097
3706.00,0.0097
3705.00,0.0097
3704.00,0.0098
3703.00,0.0098
3702.00,0.0098
3701.00,0.0098
3700.00,0.0098
3699.00,0.0098
3698.00,0.0098
3697.00,0.0098
3696.00,0.0098
3695.00,0.0097
3694.00,0.0097
3693.00,0.0097
3692.00,0.0097
3691.00,0.0097
3690.00,0.0097
3689.00,0.0097
3688.00,0.0097
3687.00,0.0097
3686.00,0.0098
3685.00,0.0098
3684.00,0.0098
3683.00,0.0098
3682.00,0.0099
3681.00,0.0099
3680.00,0.0099
3679.00,0.0099
3678.00,0.0099
3677.00,0.0099
3676.00,0.0099
3675.00,0.0099
3674.00,0.0099
3673.00,0.0099
3672.00,0.0099
3671.00,0.0099
3670.00,0.0100
3669.00,0.0101
3668.00,0.0101
3667.00,0.0101
3666.00,0.0101
3665.00,0.0102
3664.00,0.0102
3663.00,0.0102
3662.00,0.0103
3661.00,0.0103
3660.00,0.0103
3659.00,0.0103
3658.00,0.0102
3657.00,0.0102
3656.00,0.0102
3655.00,0.0103
3654.00,0.0103
3653.00,0.0102
3652.00,0.0102
3651.00,0.0102
3650.00,0.0102
3649.00,0.0102
3648.00,0.0103
3647.00,0.0103
3646.00,0.0104
3645.00,0.0104
3644.00,0.0105
3643.00,0.0106
3642.00,0.0106
3641.00,0.0107
3640.00,0.0108
3639.00,0.0108
3638.00,0.0109
3637.00,0.0109
3636.00,0.0110
3635.00,0.0110
3634.00,0.0110
3633.00,0.0110
3632.00,0.0110
3631.00,0.0110
3630.00,0.0110
3629.00,0.0110
3628.00,0.0111
3627.00,0.0112
3626.00,0.0113
3625.00,0.0113
3624.00,0.0114
3623.00,0.0114
3622.00,0.0115
3621.00,0.0115
3620.00,0.0116
3619.00,0.0117
3618.00,0.0117
3617.00,0.0117
3616.00,0.0118
3615.00,0.0119
3614.00,0.0119
3613.00,0.0120
3612.00,0.0120
3611.00,0.0121
3610.00,0.0121
3609.00,0.0122
3608.00,0.0123
3607.00,0.0124
3606.00,0.0125
3605.00,0.0126
3604.00,0.0127
3603.00,0.0127
3602.00,0.0128
3601.00,0.0129
3600.00,0.0130
3599.00,0.0131
3598.00,0.0131
3597.00,0.0132
3596.00,0.0133
3595.00,0.0133
3594.00,0.0134
3593.00,0.0135
3592.00,0.0136
3591.00,0.0136
3590.00,0.0136
3589.00,0.0137
3588.00,0.0138
3587.00,0.0139
3586.00,0.0141
3585.00,0.0142
3584.00,0.0143
3583.00,0.0144
3582.00,0.0145
3581.00,0.0146
3580.00,0.0147
3579.00,0.0148
3578.00,0.0149
3577.00,0.0150
3576.00,0.0151
3575.00,0.0152
3574.00,0.0153
3573.00,0.0154
3572.00,0.0156
3571.00,0.0157
3570.00,0.0157
3569.00,0.0158
3568.00,0.0158
3567.00,0.0159
3566.00,0.0160
3565.00,0.0162
3564.00,0.0163
3563.00,0.0164
3562.00,0.0165
3561.00,0.0167
3560.00,0.0168
3559.00,0.0169
3558.00,0.0170
3557.00,0.0171
3556.00,0.0172
3555.00,0.0173
3554.00,0.0174
3553.00,0.0175
3552.00,0.0176
3551.00,0.0177
3550.00,0.0177
3549.00,0.0178
3548.00,0.0178
3547.00,0.0179
3546.00,0.0180
3545.00,0.0181
3544.00,0.0182
3543.00,0.0183
3542.00,0.0184
3541.00,0.0185
3540.00,0.0186
3539.00,0.0187
3538.00,0.0188
3537.00,0.0188
3536.00,0.0189
3535.00,0.0190
3534.00,0.0191
3533.00,0.0191
3532.00,0.0192
3531.00,0.0192
3530.00,0.0193
3529.00,0.0194
3528.00,0.0195
3527.00,0.0195
3526.00,0.0195
3525.00,0.0196
3524.00,0.0197
3523.00,0.0197
3522.00,0.0198
3521.00,0.0199
3520.00,0.0199
3519.00,0.0200
3518.00,0.0200
3517.00,0.0201
3516.00,0.0202
3515.00,0.0202
3514.00,0.0203
3513.00,0.0203
3512.00,0.0204
3511.00,0.0204
3510.00,0.0205
3509.00,0.0205
3508.00,0.0206
3507.00,0.0207
3506.00,0.0207
3505.00,0.0208
3504.00,0.0208
3503.00,0.0209
3502.00,0.0209
3501.00,0.0210
3500.00,0.0210
3499.00,0.0211
3498.00,0.0211
3497.00,0.0212
3496.00,0.0212
3495.00,0.0213
3494.00,0.0213
3493.00,0.0214
3492.00,0.0214
3491.00,0.0215
3490.00,0.0215
3489.00,0.0216
3488.00,0.0217
3487.00,0.0217
3486.00,0.0218
3485.00,0.0219
3484.00,0.0220
3483.00,0.0220
3482.00,0.0221
3481.00,0.0222
3480.00,0.0223
3479.00,0.0223
3478.00,0.0224
3477.00,0.0224
3476.00,0.0225
3475.00,0.0226
3474.00,0.0226
3473.00,0.0227
3472.00,0.0228
3471.00,0.0229
3470.00,0.0230
3469.00,0.0230
3468.00,0.0231
3467.00,0.0232
3466.00,0.0232
3465.00,0.0233
3464.00,0.0234
3463.00,0.0235
3462.00,0.0236
3461.00,0.0237
3460.00,0.0238
3459.00,0.0239
3458.00,0.0239
3457.00,0.0239
3456.00,0.0240
3455.00,0.0241
3454.00,0.0242
3453.00,0.0242
3452.00,0.0243
3451.00,0.0244
3450.00,0.0244
3449.00,0.0245
3448.00,0.0246
3447.00,0.0246
3446.00,0.0247
3445.00,0.0247
3444.00,0.0248
3443.00,0.0249
3442.00,0.0250
3441.00,0.0251
3440.00,0.0252
3439.00,0.0253
3438.00,0.0254
3437.00,0.0255
3436.00,0.0256
3435.00,0.0257
3434.00,0.0258
3433.00,0.0259
3432.00,0.0260
3431.00,0.0260
3430.00,0.0261
3429.00,0.0262
3428.00,0.0263
3427.00,0.0264
3426.00,0.0266
3425.00,0.0267
3424.00,0.0268
3423.00,0.0269
3422.00,0.0270
3421.00,0.0270
3420.00,0.0272
3419.00,0.0273
3418.00,0.0274
3417.00,0.0275
3416.00,0.0276
3415.00,0.0276
3414.00,0.0277
3413.00,0.0278
3412.00,0.0279
3411.00,0.0280
3410.00,0.0280
3409.00,0.0281
3408.00,0.0281
3407.00,0.0281
3406.00,0.0282
3405.00,0.0282
3404.00,0.0282
3403.00,0.0282
3402.00,0.0282
3401.00,0.0282
3400.00,0.0282
3399.00,0.0282
3398.00,0.0281
3397.00,0.0281
3396.00,0.0280
3395.00,0.0280
3394.00,0.0279
3393.00,0.0279
3392.00,0.0278
3391.00,0.0277
3390.00,0.0276
3389.00,0.0275
3388.00,0.0274
3387.00,0.0273
3386.00,0.0272
3385.00,0.0272
3384.00,0.0271
3383.00,0.0269
3382.00,0.0268
3381.00,0.0267
3380.00,0.0266
3379.00,0.0265
3378.00,0.0264
3377.00,0.0263
3376.00,0.0262
3375.00,0.0261
3374.00,0.0260
3373.00,0.0258
3372.00,0.0257
3371.00,0.0256
3370.00,0.0255
3369.00,0.0254
3368.00,0.0253
3367.00,0.0252
3366.00,0.0252
3365.00,0.0251
3364.00,0.0250
3363.00,0.0250
3362.00,0.0249
3361.00,0.0248
3360.00,0.0247
3359.00,0.0247
3358.00,0.0246
3357.00,0.0246
3356.00,0.0245
3355.00,0.0244
3354.00,0.0243
3353.00,0.0242
3352.00,0.0241
3351.00,0.0240
3350.00,0.0240
3349.00,0.0240
3348.00,0.0240
3347.00,0.0240
3346.00,0.0239
3345.00,0.0238
3344.00,0.0238
3343.00,0.0237
3342.00,0.0237
3341.00,0.0236
3340.00,0.0235
3339.00,0.0235
3338.00,0.0234
3337.00,0.0235
3336.00,0.0235
3335.00,0.0235
3334.00,0.0235
3333.00,0.0235
3332.00,0.0235
3331.00,0.0235
3330.00,0.0235
3329.00,0.0234
3328.00,0.0233
3327.00,0.0232
3326.00,0.0232
3325.00,0.0232
3324.00,0.0232
3323.00,0.0233
3322.00,0.0233
3321.00,0.0233
3320.00,0.0234
3319.00,0.0233
3318.00,0.0233
3317.00,0.0233
3316.00,0.0232
3315.00,0.0232
3314.00,0.0232
3313.00,0.0232
3312.00,0.0232
3311.00,0.0231
3310.00,0.0230
3309.00,0.0229
3308.00,0.0229
3307.00,0.0229
3306.00,0.0229
3305.00,0.0230
3304.00,0.0231
3303.00,0.0232
3302.00,0.0233
3301.00,0.0233
3300.00,0.0234
3299.00,0.0234
3298.00,0.0233
3297.00,0.0233
3296.00,0.0233
3295.00,0.0233
3294.00,0.0233
3293.00,0.0233
3292.00,0.0234
3291.00,0.0234
3290.00,0.0235
3289.00,0.0236
3288.00,0.0237
3287.00,0.0237
3286.00,0.0237
3285.00,0.0237
3284.00,0.0237
3283.00,0.0237
3282.00,0.0238
3281.00,0.0238
3280.00,0.0238
3279.00,0.0238
3278.00,0.0238
3277.00,0.0237
3276.00,0.0237
3275.00,0.0236
3274.00,0.0236
3273.00,0.0236
3272.00,0.0236
3271.00,0.0236
3270.00,0.0236
3269.00,0.0237
3268.00,0.0238
3267.00,0.0238
3266.00,0.0239
3265.00,0.0239
3264.00,0.0239
3263.00,0.0239
3262.00,0.0239
3261.00,0.0239
3260.00,0.0239
3259.00,0.0239
3258.00,0.0239
3257.00,0.0239
3256.00,0.0239
3255.00,0.0239
3254.00,0.0239
3253.00,0.0239
3252.00,0.0239
3251.00,0.0239
3250.00,0.0239
3249.00,0.0239
3248.00,0.0238
3247.00,0.0238
3246.00,0.0238
3245.00,0.0239
3244.00,0.0239
3243.00,0.0239
3242.00,0.0239
3241.00,0.0239
3240.00,0.0239
3239.00,0.0239
3238.00,0.0238
3237.00,0.0238
3236.00,0.0237
3235.00,0.0236
3234.00,0.0236
3233.00,0.0236
3232.00,0.0236
3231.00,0.0236
3230.00,0.0235
3229.00,0.0235
3228.00,0.0235
3227.00,0.0234
3226.00,0.0233
3225.00,0.0233
3224.00,0.0232
3223.00,0.0232
3222.00,0.0231
3221.00,0.0231
3220.00,0.0230
3219.00,0.0230
3218.00,0.0229
3217.00,0.0228
3216.00,0.0227
3215.00,0.0227
3214.00,0.0226
3213.00,0.0225
3212.00,0.0224
3211.00,0.0223
3210.00,0.0222
3209.00,0.0222
3208.00,0.0221
3207.00,0.0220
3206.00,0.0220
3205.00,0.0219
3204.00,0.0218
3203.00,0.0217
3202.00,0.0216
3201.00,0.0215
3200.00,0.0214
3199.00,0.0213
3198.00,0.0212
3197.00,0.0211
3196.00,0.0210
3195.00,0.0209
3194.00,0.0208
3193.00,0.0207
3192.00,0.0206
3191.00,0.0205
3190.00,0.0204
3189.00,0.0203
3188.00,0.0202
3187.00,0.0201
3186.00,0.0201
3185.00,0.0200
3184.00,0.0199
3183.00,0.0198
3182.00,0.0197
3181.00,0.0197
3180.00,0.0196
3179.00,0.0195
3178.00,0.0194
3177.00,0.0193
3176.00,0.0192
3175.00,0.0191
3174.00,0.0191
3173.00,0.0190
3172.00,0.0189
3171.00,0.0188
3170.00,0.0187
3169.00,0.0186
3168.00,0.0186
3167.00,0.0185
3166.00,0.0184
3165.00,0.0183
3164.00,0.0182
3163.00,0.0181
3162.00,0.0180
3161.00,0.0180
3160.00,0.0179
3159.00,0.0178
3158.00,0.0177
3157.00,0.0176
3156.00,0.0175
3155.00,0.0174
3154.00,0.0173
3153.00,0.0172
3152.00,0.0171
3151.00,0.0171
3150.00,0.0170
3149.00,0.0170
3148.00,0.0169
3147.00,0.0169
3146.00,0.0168
3145.00,0.0167
3144.00,0.0166
3143.00,0.0165
3142.00,0.0164
3141.00,0.0164
3140.00,0.0163
3139.00,0.0162
3138.00,0.0162
3137.00,0.0161
3136.00,0.0161
3135.00,0.0160
3134.00,0.0160
3133.00,0.0159
3132.00,0.0159
3131.00,0.0158
3130.00,0.0157
3129.00,0.0157
3128.00,0.0157
3127.00,0.0156
3126.00,0.0156
3125.00,0.0155
3124.00,0.0155
3123.00,0.0154
3122.00,0.0154
3121.00,0.0153
3120.00,0.0153
3119.00,0.0153
3118.00,0.0152
3117.00,0.0152
3116.00,0.0151
3115.00,0.0151
3114.00,0.0150
3113.00,0.0150
3112.00,0.0149
3111.00,0.0149
3110.00,0.0149
3109.00,0.0148
3108.00,0.0147
3107.00,0.0147
3106.00,0.0146
3105.00,0.0145
3104.00,0.0145
3103.00,0.0144
3102.00,0.0144
3101.00,0.0144
3100.00,0.0144
3099.00,0.0144
3098.00,0.0143
3097.00,0.0143
3096.00,0.0143
3095.00,0.0143
3094.00,0.0143
3093.00,0.0143
3092.00,0.0143
3091.00,0.0143
3090.00,0.0143
3089.00,0.0143
3088.00,0.0143
3087.00,0.0142
3086.00,0.0142
3085.00,0.0142
3084.00,0.0142
3083.00,0.0142
3082.00,0.0142
3081.00,0.0142
3080.00,0.0142
3079.00,0.0141
3078.00,0.0141
3077.00,0.0141
3076.00,0.0141
3075.00,0.0140
3074.00,0.0140
3073.00,0.0140
3072.00,0.0140
3071.00,0.0139
3070.00,0.0139
3069.00,0.0139
3068.00,0.0139
3067.00,0.0139
3066.00,0.0138
3065.00,0.0138
3064.00,0.0138
3063.00,0.0138
3062.00,0.0138
3061.00,0.0138
3060.00,0.0138
3059.00,0.0138
3058.00,0.0138
3057.00,0.0139
3056.00,0.0139
3055.00,0.0139
3054.00,0.0139
3053.00,0.0139
3052.00,0.0139
3051.00,0.0139
3050.00,0.0139
3049.00,0.0139
3048.00,0.0138
3047.00,0.0138
3046.00,0.0138
3045.00,0.0138
3044.00,0.0137
3043.00,0.0137
3042.00,0.0137
3041.00,0.0138
3040.00,0.0138
3039.00,0.0138
3038.00,0.0139
3037.00,0.0139
3036.00,0.0140
3035.00,0.0140
3034.00,0.0140
3033.00,0.0141
3032.00,0.0141
3031.00,0.0141
3030.00,0.0141
3029.00,0.0141
3028.00,0.0140
3027.00,0.0140
3026.00,0.0140
3025.00,0.0139
3024.00,0.0139
3023.00,0.0138
3022.00,0.0138
3021.00,0.0138
3020.00,0.0137
3019.00,0.0137
3018.00,0.0137
3017.00,0.0137
3016.00,0.0138
3015.00,0.0138
3014.00,0.0138
3013.00,0.0139
3012.00,0.0140
3011.00,0.0141
3010.00,0.0142
3009.00,0.0143
3008.00,0.0145
3007.00,0.0146
3006.00,0.0148
3005.00,0.0150
3004.00,0.0153
3003.00,0.0155
3002.00,0.0158
3001.00,0.0161
3000.00,0.0165
2999.00,0.0168
2998.00,0.0172
2997.00,0.0176
2996.00,0.0181
2995.00,0.0185
2994.00,0.0190
2993.00,0.0194
2992.00,0.0198
2991.00,0.0202
2990.00,0.0206
2989.00,0.0209
2988.00,0.0213
2987.00,0.0217
2986.00,0.0222
2985.00,0.0226
2984.00,0.0232
2983.00,0.0237
2982.00,0.0244
2981.00,0.0250
2980.00,0.0256
2979.00,0.0261
2978.00,0.0264
2977.00,0.0267
2976.00,0.0270
2975.00,0.0273
2974.00,0.0278
2973.00,0.0284
2972.00,0.0291
2971.00,0.0298
2970.00,0.0304
2969.00,0.0309
2968.00,0.0313
2967.00,0.0316
2966.00,0.0319
2965.00,0.0323
2964.00,0.0327
2963.00,0.0332
2962.00,0.0336
2961.00,0.0340
2960.00,0.0343
2959.00,0.0344
2958.00,0.0343
2957.00,0.0341
2956.00,0.0338
2955.00,0.0334
2954.00,0.0330
2953.00,0.0325
2952.00,0.0321
2951.00,0.0318
2950.00,0.0315
2949.00,0.0313
2948.00,0.0312
2947.00,0.0311
2946.00,0.0312
2945.00,0.0313
2944.00,0.0314
2943.00,0.0316
2942.00,0.0318
2941.00,0.0321
2940.00,0.0325
2939.00,0.0329
2938.00,0.0335
2937.00,0.0342
2936.00,0.0350
2935.00,0.0360
2934.00,0.0370
2933.00,0.0381
2932.00,0.0392
2931.00,0.0403
2930.00,0.0412
2929.00,0.0421
2928.00,0.0427
2927.00,0.0431
2926.00,0.0432
2925.00,0.0431
2924.00,0.0428
2923.00,0.0424
2922.00,0.0418
2921.00,0.0411
2920.00,0.0403
2919.00,0.0396
2918.00,0.0387
2917.00,0.0379
2916.00,0.0371
2915.00,0.0363
2914.00,0.0356
2913.00,0.0349
2912.00,0.0342
2911.00,0.0336
2910.00,0.0330
2909.00,0.0325
2908.00,0.0320
2907.00,0.0315
2906.00,0.0310
2905.00,0.0306
2904.00,0.0303
2903.00,0.0299
2902.00,0.0296
2901.00,0.0292
2900.00,0.0290
2899.00,0.0287
2898.00,0.0285
2897.00,0.0284
2896.00,0.0282
2895.00,0.0281
2894.00,0.0279
2893.00,0.0278
2892.00,0.0277
2891.00,0.0276
2890.00,0.0275
2889.00,0.0274
2888.00,0.0273
2887.00,0.0272
2886.00,0.0271
2885.00,0.0270
2884.00,0.0270
2883.00,0.0270
2882.00,0.0270
2881.00,0.0271
2880.00,0.0272
2879.00,0.0274
2878.00,0.0276
2877.00,0.0279
2876.00,0.0282
2875.00,0.0284
2874.00,0.0287
2873.00,0.0288
2872.00,0.0289
2871.00,0.0289
2870.00,0.0288
2869.00,0.0287
2868.00,0.0286
2867.00,0.0285
2866.00,0.0284
2865.00,0.0285
2864.00,0.0288
2863.00,0.0292
2862.00,0.0297
2861.00,0.0304
2860.00,0.0311
2859.00,0.0318
2858.00,0.0324
2857.00,0.0328
2856.00,0.0329
2855.00,0.0329
2854.00,0.0327
2853.00,0.0324
2852.00,0.0319
2851.00,0.0312
2850.00,0.0303
2849.00,0.0294
2848.00,0.0284
2847.00,0.0273
2846.00,0.0264
2845.00,0.0255
2844.00,0.0247
2843.00,0.0240
2842.00,0.0233
2841.00,0.0226
2840.00,0.0220
2839.00,0.0215
2838.00,0.0211
2837.00,0.0207
2836.00,0.0204
2835.00,0.0201
2834.00,0.0198
2833.00,0.0195
2832.00,0.0193
2831.00,0.0190
2830.00,0.0188
2829.00,0.0185
2828.00,0.0183
2827.00,0.0180
2826.00,0.0178
2825.00,0.0176
2824.00,0.0174
2823.00,0.0172
2822.00,0.0170
2821.00,0.0169
2820.00,0.0167
2819.00,0.0166
2818.00,0.0165
2817.00,0.0164
2816.00,0.0162
2815.00,0.0161
2814.00,0.0160
2813.00,0.0159
2812.00,0.0158
2811.00,0.0157
2810.00,0.0157
2809.00,0.0156
2808.00,0.0155
2807.00,0.0155
2806.00,0.0154
2805.00,0.0154
2804.00,0.0153
2803.00,0.0153
2802.00,0.0152
2801.00,0.0152
2800.00,0.0151
2799.00,0.0150
2798.00,0.0150
2797.00,0.0149
2796.00,0.0149
2795.00,0.0149
2794.00,0.0148
2793.00,0.0148
2792.00,0.0147
2791.00,0.0147
2790.00,0.0146
2789.00,0.0146
2788.00,0.0146
2787.00,0.0145
2786.00,0.0145
2785.00,0.0144
2784.00,0.0144
2783.00,0.0144
2782.00,0.0143
2781.00,0.0143
2780.00,0.0143
2779.00,0.0142
2778.00,0.0142
2777.00,0.0142
2776.00,0.0142
2775.00,0.0141
2774.00,0.0141
2773.00,0.0140
2772.00,0.0140
2771.00,0.0140
2770.00,0.0140
2769.00,0.0140
2768.00,0.0140
2767.00,0.0139
2766.00,0.0139
2765.00,0.0139
2764.00,0.0139
2763.00,0.0139
2762.00,0.0138
2761.00,0.0138
2760.00,0.0138
2759.00,0.0138
2758.00,0.0138
2757.00,0.0138
2756.00,0.0138
2755.00,0.0138
2754.00,0.0138
2753.00,0.0138
2752.00,0.0138
2751.00,0.0138
2750.00,0.0138
2749.00,0.0138
2748.00,0.0138
2747.00,0.0138
2746.00,0.0138
2745.00,0.0138
2744.00,0.0138
2743.00,0.0139
2742.00,0.0139
2741.00,0.0139
2740.00,0.0139
2739.00,0.0139
2738.00,0.0139
2737.00,0.0139
2736.00,0.0139
2735.00,0.0140
2734.00,0.0140
2733.00,0.0140
2732.00,0.0140
2731.00,0.0141
2730.00,0.0141
2729.00,0.0141
2728.00,0.0140
2727.00,0.0140
2726.00,0.0140
2725.00,0.0139
2724.00,0.0139
2723.00,0.0139
2722.00,0.0139
2721.00,0.0139
2720.00,0.0138
2719.00,0.0138
2718.00,0.0138
2717.00,0.0138
2716.00,0.0138
2715.00,0.0137
2714.00,0.0137
2713.00,0.0137
2712.00,0.0137
2711.00,0.0137
2710.00,0.0137
2709.00,0.0137
2708.00,0.0137
2707.00,0.0137
2706.00,0.0137
2705.00,0.0137
2704.00,0.0136
2703.00,0.0136
2702.00,0.0136
2701.00,0.0136
2700.00,0.0136
2699.00,0.0136
2698.00,0.0136
2697.00,0.0135
2696.00,0.0135
2695.00,0.0135
2694.00,0.0134
2693.00,0.0134
2692.00,0.0134
2691.00,0.0134
2690.00,0.0134
2689.00,0.0133
2688.00,0.0133
2687.00,0.0133
2686.00,0.0133
2685.00,0.0133
2684.00,0.0133
2683.00,0.0133
2682.00,0.0132
2681.00,0.0132
2680.00,0.0132
2679.00,0.0132
2678.00,0.0132
2677.00,0.0132
2676.00,0.0133
2675.00,0.0133
2674.00,0.0133
2673.00,0.0133
2672.00,0.0133
2671.00,0.0133
2670.00,0.0133
2669.00,0.0133
2668.00,0.0133
2667.00,0.0134
2666.00,0.0134
2665.00,0.0134
2664.00,0.0135
2663.00,0.0135
2662.00,0.0136
2661.00,0.0136
2660.00,0.0137
2659.00,0.0137
2658.00,0.0137
2657.00,0.0137
2656.00,0.0137
2655.00,0.0137
2654.00,0.0137
2653.00,0.0137
2652.00,0.0137
2651.00,0.0137
2650.00,0.0138
2649.00,0.0138
2648.00,0.0138
2647.00,0.0138
2646.00,0.0137
2645.00,0.0137
2644.00,0.0137
2643.00,0.0137
2642.00,0.0137
2641.00,0.0137
2640.00,0.0137
2639.00,0.0136
2638.00,0.0136
2637.00,0.0136
2636.00,0.0136
2635.00,0.0135
2634.00,0.0135
2633.00,0.0135
2632.00,0.0135
2631.00,0.0135
2630.00,0.0135
2629.00,0.0134
2628.00,0.0134
2627.00,0.0134
2626.00,0.0134
2625.00,0.0133
2624.00,0.0133
2623.00,0.0133
2622.00,0.0133
2621.00,0.0133
2620.00,0.0133
2619.00,0.0132
2618.00,0.0132
2617.00,0.0132
2616.00,0.0132
2615.00,0.0132
2614.00,0.0132
2613.00,0.0131
2612.00,0.0131
2611.00,0.0131
2610.00,0.0131
2609.00,0.0132
2608.00,0.0132
2607.00,0.0132
2606.00,0.0131
2605.00,0.0131
2604.00,0.0131
2603.00,0.0130
2602.00,0.0130
2601.00,0.0130
2600.00,0.0130
2599.00,0.0131
2598.00,0.0131
2597.00,0.0131
2596.00,0.0131
2595.00,0.0131
2594.00,0.0132
2593.00,0.0131
2592.00,0.0131
2591.00,0.0131
2590.00,0.0131
2589.00,0.0131
2588.00,0.0132
2587.00,0.0132
2586.00,0.0132
2585.00,0.0132
2584.00,0.0132
2583.00,0.0132
2582.00,0.0132
2581.00,0.0132
2580.00,0.0131
2579.00,0.0131
2578.00,0.0131
2577.00,0.0131
2576.00,0.0130
2575.00,0.0130
2574.00,0.0130
2573.00,0.0130
2572.00,0.0130
2571.00,0.0130
2570.00,0.0130
2569.00,0.0130
2568.00,0.0130
2567.00,0.0130
2566.00,0.0129
2565.00,0.0129
2564.00,0.0129
2563.00,0.0129
2562.00,0.0129
2561.00,0.0129
2560.00,0.0129
2559.00,0.0130
2558.00,0.0129
2557.00,0.0129
2556.00,0.0128
2555.00,0.0128
2554.00,0.0127
2553.00,0.0127
2552.00,0.0128
2551.00,0.0128
2550.00,0.0128
2549.00,0.0128
2548.00,0.0127
2547.00,0.0127
2546.00,0.0126
2545.00,0.0126
2544.00,0.0127
2543.00,0.0127
2542.00,0.0127
2541.00,0.0127
2540.00,0.0127
2539.00,0.0126
2538.00,0.0127
2537.00,0.0127
2536.00,0.0127
2535.00,0.0127
2534.00,0.0126
2533.00,0.0126
2532.00,0.0126
2531.00,0.0126
2530.00,0.0126
2529.00,0.0126
2528.00,0.0126
2527.00,0.0126
2526.00,0.0125
2525.00,0.0125
2524.00,0.0124
2523.00,0.0124
2522.00,0.0124
2521.00,0.0124
2520.00,0.0124
2519.00,0.0125
2518.00,0.0125
2517.00,0.0125
2516.00,0.0125
2515.00,0.0124
2514.00,0.0124
2513.00,0.0124
2512.00,0.0123
2511.00,0.0123
2510.00,0.0123
2509.00,0.0123
2508.00,0.0123
2507.00,0.0123
2506.00,0.0123
2505.00,0.0123
2504.00,0.0123
2503.00,0.0123
2502.00,0.0123
2501.00,0.0123
2500.00,0.0123
2499.00,0.0123
2498.00,0.0123
2497.00,0.0123
2496.00,0.0122
2495.00,0.0122
2494.00,0.0122
2493.00,0.0122
2492.00,0.0122
2491.00,0.0121
2490.00,0.0121
2489.00,0.0121
2488.00,0.0121
2487.00,0.0121
2486.00,0.0121
2485.00,0.0122
2484.00,0.0122
2483.00,0.0122
2482.00,0.0122
2481.00,0.0121
2480.00,0.0121
2479.00,0.0121
2478.00,0.0121
2477.00,0.0120
2476.00,0.0120
2475.00,0.0120
2474.00,0.0120
2473.00,0.0120
2472.00,0.0120
2471.00,0.0120
2470.00,0.0120
2469.00,0.0120
2468.00,0.0120
2467.00,0.0119
2466.00,0.0119
2465.00,0.0119
2464.00,0.0119
2463.00,0.0120
2462.00,0.0120
2461.00,0.0121
2460.00,0.0122
2459.00,0.0122
2458.00,0.0122
2457.00,0.0122
2456.00,0.0122
2455.00,0.0121
2454.00,0.0121
2453.00,0.0121
2452.00,0.0122
2451.00,0.0122
2450.00,0.0122
2449.00,0.0122
2448.00,0.0122
2447.00,0.0121
2446.00,0.0121
2445.00,0.0121
2444.00,0.0121
2443.00,0.0121
2442.00,0.0121
2441.00,0.0121
2440.00,0.0121
2439.00,0.0121
2438.00,0.0120
2437.00,0.0120
2436.00,0.0121
2435.00,0.0121
2434.00,0.0121
2433.00,0.0120
2432.00,0.0120
2431.00,0.0119
2430.00,0.0119
2429.00,0.0119
2428.00,0.0119
2427.00,0.0119
2426.00,0.0119
2425.00,0.0119
2424.00,0.0119
2423.00,0.0119
2422.00,0.0119
2421.00,0.0119
2420.00,0.0119
2419.00,0.0119
2418.00,0.0119
2417.00,0.0119
2416.00,0.0119
2415.00,0.0120
2414.00,0.0120
2413.00,0.0120
2412.00,0.0120
2411.00,0.0120
2410.00,0.0120
2409.00,0.0119
2408.00,0.0118
2407.00,0.0118
2406.00,0.0118
2405.00,0.0118
2404.00,0.0118
2403.00,0.0118
2402.00,0.0118
2401.00,0.0118
2400.00,0.0118
2399.00,0.0118
2398.00,0.0118
2397.00,0.0118
2396.00,0.0118
2395.00,0.0118
2394.00,0.0118
2393.00,0.0118
2392.00,0.0118
2391.00,0.0118
2390.00,0.0117
2389.00,0.0117
2388.00,0.0117
2387.00,0.0116
2386.00,0.0116
2385.00,0.0116
2384.00,0.0115
2383.00,0.0115
2382.00,0.0115
2381.00,0.0115
2380.00,0.0115
2379.00,0.0115
2378.00,0.0115
2377.00,0.0115
2376.00,0.0115
2375.00,0.0115
2374.00,0.0115
2373.00,0.0114
2372.00,0.0114
2371.00,0.0115
2370.00,0.0114
2369.00,0.0114
2368.00,0.0114
2367.00,0.0114
2366.00,0.0114
2365.00,0.0114
2364.00,0.0114
2363.00,0.0115
2362.00,0.0115
2361.00,0.0115
2360.00,0.0116
2359.00,0.0116
2358.00,0.0115
2357.00,0.0115
2356.00,0.0115
2355.00,0.0115
2354.00,0.0115
2353.00,0.0115
2352.00,0.0115
2351.00,0.0115
2350.00,0.0116
2349.00,0.0117
2348.00,0.0118
2347.00,0.0119
2346.00,0.0118
2345.00,0.0118
2344.00,0.0118
2343.00,0.0118
2342.00,0.0118
2341.00,0.0119
2340.00,0.0119
2339.00,0.0119
2338.00,0.0119
2337.00,0.0119
2336.00,0.0119
2335.00,0.0120
2334.00,0.0120
2333.00,0.0119
2332.00,0.0119
2331.00,0.0119
2330.00,0.0120
2329.00,0.0121
2328.00,0.0123
2327.00,0.0127
2326.00,0.0129
2325.00,0.0131
2324.00,0.0131
2323.00,0.0129
2322.00,0.0127
2321.00,0.0125
2320.00,0.0124
2319.00,0.0123
2318.00,0.0122
2317.00,0.0122
2316.00,0.0122
2315.00,0.0121
2314.00,0.0120
2313.00,0.0119
2312.00,0.0119
2311.00,0.0119
2310.00,0.0119
2309.00,0.0119
2308.00,0.0120
2307.00,0.0120
2306.00,0.0120
2305.00,0.0120
2304.00,0.0121
2303.00,0.0121
2302.00,0.0121
2301.00,0.0121
2300.00,0.0122
2299.00,0.0122
2298.00,0.0123
2297.00,0.0124
2296.00,0.0125
2295.00,0.0125
2294.00,0.0126
2293.00,0.0127
2292.00,0.0128
2291.00,0.0128
2290.00,0.0128
2289.00,0.0129
2288.00,0.0129
2287.00,0.0130
2286.00,0.0129
2285.00,0.0129
2284.00,0.0128
2283.00,0.0128
2282.00,0.0127
2281.00,0.0126
2280.00,0.0125
2279.00,0.0124
2278.00,0.0124
2277.00,0.0124
2276.00,0.0124
2275.00,0.0124
2274.00,0.0124
2273.00,0.0123
2272.00,0.0123
2271.00,0.0123
2270.00,0.0123
2269.00,0.0122
2268.00,0.0122
2267.00,0.0121
2266.00,0.0120
2265.00,0.0120
2264.00,0.0120
2263.00,0.0120
2262.00,0.0120
2261.00,0.0120
2260.00,0.0121
2259.00,0.0121
2258.00,0.0120
2257.00,0.0120
2256.00,0.0119
2255.00,0.0117
2254.00,0.0116
2253.00,0.0116
2252.00,0.0116
2251.00,0.0117
2250.00,0.0118
2249.00,0.0119
2248.00,0.0119
2247.00,0.0119
2246.00,0.0118
2245.00,0.0118
2244.00,0.0118
2243.00,0.0118
2242.00,0.0118
2241.00,0.0118
2240.00,0.0119
2239.00,0.0119
2238.00,0.0119
2237.00,0.0119
2236.00,0.0119
2235.00,0.0120
2234.00,0.0120
2233.00,0.0120
2232.00,0.0120
2231.00,0.0119
2230.00,0.0119
2229.00,0.0119
2228.00,0.0119
2227.00,0.0119
2226.00,0.0118
2225.00,0.0118
2224.00,0.0118
2223.00,0.0117
2222.00,0.0117
2221.00,0.0117
2220.00,0.0119
2219.00,0.0119
2218.00,0.0119
2217.00,0.0119
2216.00,0.0119
2215.00,0.0119
2214.00,0.0119
2213.00,0.0119
2212.00,0.0118
2211.00,0.0118
2210.00,0.0117
2209.00,0.0117
2208.00,0.0118
2207.00,0.0118
2206.00,0.0119
2205.00,0.0119
2204.00,0.0119
2203.00,0.0119
2202.00,0.0119
2201.00,0.0118
2200.00,0.0118
2199.00,0.0118
2198.00,0.0118
2197.00,0.0119
2196.00,0.0120
2195.00,0.0121
2194.00,0.0122
2193.00,0.0122
2192.00,0.0122
2191.00,0.0121
2190.00,0.0120
2189.00,0.0120
2188.00,0.0120
2187.00,0.0121
2186.00,0.0121
2185.00,0.0121
2184.00,0.0121
2183.00,0.0119
2182.00,0.0117
2181.00,0.0117
2180.00,0.0117
2179.00,0.0117
2178.00,0.0117
2177.00,0.0116
2176.00,0.0116
2175.00,0.0116
2174.00,0.0116
2173.00,0.0117
2172.00,0.0119
2171.00,0.0122
2170.00,0.0124
2169.00,0.0126
2168.00,0.0126
2167.00,0.0126
2166.00,0.0125
2165.00,0.0126
2164.00,0.0128
2163.00,0.0129
2162.00,0.0124
2161.00,0.0114
2160.00,0.0101
2159.00,0.0091
2158.00,0.0086
2157.00,0.0086
2156.00,0.0088
2155.00,0.0091
2154.00,0.0093
2153.00,0.0096
2152.00,0.0099
2151.00,0.0101
2150.00,0.0101
2149.00,0.0100
2148.00,0.0100
2147.00,0.0100
2146.00,0.0100
2145.00,0.0101
2144.00,0.0102
2143.00,0.0103
2142.00,0.0103
2141.00,0.0103
2140.00,0.0103
2139.00,0.0102
2138.00,0.0101
2137.00,0.0100
2136.00,0.0099
2135.00,0.0097
2134.00,0.0097
2133.00,0.0098
2132.00,0.0100
2131.00,0.0102
2130.00,0.0103
2129.00,0.0104
2128.00,0.0106
2127.00,0.0107
2126.00,0.0108
2125.00,0.0110
2124.00,0.0111
2123.00,0.0112
2122.00,0.0113
2121.00,0.0113
2120.00,0.0114
2119.00,0.0115
2118.00,0.0115
2117.00,0.0116
2116.00,0.0116
2115.00,0.0116
2114.00,0.0116
2113.00,0.0116
2112.00,0.0116
2111.00,0.0117
2110.00,0.0117
2109.00,0.0117
2108.00,0.0117
2107.00,0.0117
2106.00,0.0116
2105.00,0.0116
2104.00,0.0116
2103.00,0.0116
2102.00,0.0116
2101.00,0.0116
2100.00,0.0116
2099.00,0.0116
2098.00,0.0115
2097.00,0.0113
2096.00,0.0111
2095.00,0.0110
2094.00,0.0110
2093.00,0.0110
2092.00,0.0112
2091.00,0.0114
2090.00,0.0115
2089.00,0.0115
2088.00,0.0115
2087.00,0.0115
2086.00,0.0115
2085.00,0.0116
2084.00,0.0117
2083.00,0.0117
2082.00,0.0117
2081.00,0.0117
2080.00,0.0116
2079.00,0.0116
2078.00,0.0116
2077.00,0.0116
2076.00,0.0116
2075.00,0.0117
2074.00,0.0117
2073.00,0.0116
2072.00,0.0116
2071.00,0.0115
2070.00,0.0114
2069.00,0.0114
2068.00,0.0114
2067.00,0.0114
2066.00,0.0114
2065.00,0.0113
2064.00,0.0112
2063.00,0.0111
2062.00,0.0110
2061.00,0.0109
2060.00,0.0110
2059.00,0.0110
2058.00,0.0111
2057.00,0.0112
2056.00,0.0112
2055.00,0.0112
2054.00,0.0113
2053.00,0.0116
2052.00,0.0119
2051.00,0.0121
2050.00,0.0120
2049.00,0.0117
2048.00,0.0116
2047.00,0.0114
2046.00,0.0113
2045.00,0.0112
2044.00,0.0111
2043.00,0.0111
2042.00,0.0111
2041.00,0.0110
2040.00,0.0111
2039.00,0.0111
2038.00,0.0110
2037.00,0.0110
2036.00,0.0109
2035.00,0.0107
2034.00,0.0104
2033.00,0.0103
2032.00,0.0103
2031.00,0.0103
2030.00,0.0103
2029.00,0.0104
2028.00,0.0105
2027.00,0.0105
2026.00,0.0104
2025.00,0.0103
2024.00,0.0104
2023.00,0.0105
2022.00,0.0105
2021.00,0.0105
2020.00,0.0106
2019.00,0.0107
2018.00,0.0107
2017.00,0.0106
2016.00,0.0106
2015.00,0.0105
2014.00,0.0104
2013.00,0.0102
2012.00,0.0102
2011.00,0.0102
2010.00,0.0101
2009.00,0.0100
2008.00,0.0098
2007.00,0.0095
2006.00,0.0092
2005.00,0.0092
2004.00,0.0094
2003.00,0.0096
2002.00,0.0097
2001.00,0.0098
2000.00,0.0099
1999.00,0.0100
1998.00,0.0101
1997.00,0.0102
1996.00,0.0104
1995.00,0.0106
1994.00,0.0107
1993.00,0.0109
1992.00,0.0110
1991.00,0.0110
1990.00,0.0109
1989.00,0.0109
1988.00,0.0109
1987.00,0.0108
1986.00,0.0108
1985.00,0.0108
1984.00,0.0111
1983.00,0.0114
1982.00,0.0116
1981.00,0.0117
1980.00,0.0117
1979.00,0.0112
1978.00,0.0106
1977.00,0.0100
1976.00,0.0096
1975.00,0.0094
1974.00,0.0092
1973.00,0.0092
1972.00,0.0094
1971.00,0.0097
1970.00,0.0098
1969.00,0.0098
1968.00,0.0098
1967.00,0.0097
1966.00,0.0095
1965.00,0.0094
1964.00,0.0095
1963.00,0.0096
1962.00,0.0095
1961.00,0.0093
1960.00,0.0092
1959.00,0.0092
1958.00,0.0092
1957.00,0.0093
1956.00,0.0094
1955.00,0.0095
1954.00,0.0095
1953.00,0.0094
1952.00,0.0094
1951.00,0.0095
1950.00,0.0095
1949.00,0.0096
1948.00,0.0098
1947.00,0.0099
1946.00,0.0099
1945.00,0.0099
1944.00,0.0100
1943.00,0.0099
1942.00,0.0098
1941.00,0.0097
1940.00,0.0097
1939.00,0.0096
1938.00,0.0096
1937.00,0.0097
1936.00,0.0098
1935.00,0.0098
1934.00,0.0098
1933.00,0.0098
1932.00,0.0099
1931.00,0.0100
1930.00,0.0100
1929.00,0.0100
1928.00,0.0100
1927.00,0.0101
1926.00,0.0101
1925.00,0.0101
1924.00,0.0102
1923.00,0.0103
1922.00,0.0103
1921.00,0.0103
1920.00,0.0103
1919.00,0.0102
1918.00,0.0101
1917.00,0.0100
1916.00,0.0101
1915.00,0.0101
1914.00,0.0102
1913.00,0.0103
1912.00,0.0105
1911.00,0.0106
1910.00,0.0107
1909.00,0.0108
1908.00,0.0108
1907.00,0.0107
1906.00,0.0106
1905.00,0.0104
1904.00,0.0103
1903.00,0.0103
1902.00,0.0103
1901.00,0.0103
1900.00,0.0103
1899.00,0.0103
1898.00,0.0103
1897.00,0.0104
1896.00,0.0105
1895.00,0.0105
1894.00,0.0105
1893.00,0.0104
1892.00,0.0104
1891.00,0.0104
1890.00,0.0104
1889.00,0.0103
1888.00,0.0102
1887.00,0.0102
1886.00,0.0102
1885.00,0.0102
1884.00,0.0102
1883.00,0.0102
1882.00,0.0102
1881.00,0.0102
1880.00,0.0102
1879.00,0.0102
1878.00,0.0101
1877.00,0.0101
1876.00,0.0102
1875.00,0.0102
1874.00,0.0102
1873.00,0.0102
1872.00,0.0103
1871.00,0.0103
1870.00,0.0104
1869.00,0.0104
1868.00,0.0104
1867.00,0.0103
1866.00,0.0102
1865.00,0.0101
1864.00,0.0101
1863.00,0.0102
1862.00,0.0102
1861.00,0.0102
1860.00,0.0102
1859.00,0.0102
1858.00,0.0101
1857.00,0.0101
1856.00,0.0101
1855.00,0.0101
1854.00,0.0101
1853.00,0.0101
1852.00,0.0101
1851.00,0.0102
1850.00,0.0103
1849.00,0.0104
1848.00,0.0105
1847.00,0.0105
1846.00,0.0104
1845.00,0.0103
1844.00,0.0103
1843.00,0.0102
1842.00,0.0102
1841.00,0.0102
1840.00,0.0102
1839.00,0.0103
1838.00,0.0103
1837.00,0.0103
1836.00,0.0102
1835.00,0.0101
1834.00,0.0101
1833.00,0.0101
1832.00,0.0101
1831.00,0.0102
1830.00,0.0101
1829.00,0.0101
1828.00,0.0101
1827.00,0.0101
1826.00,0.0101
1825.00,0.0101
1824.00,0.0101
1823.00,0.0101
1822.00,0.0100
1821.00,0.0099
1820.00,0.0099
1819.00,0.0098
1818.00,0.0097
1817.00,0.0097
1816.00,0.0097
1815.00,0.0098
1814.00,0.0099
1813.00,0.0100
1812.00,0.0100
1811.00,0.0101
1810.00,0.0100
1809.00,0.0100
1808.00,0.0100
1807.00,0.0100
1806.00,0.0099
1805.00,0.0100
1804.00,0.0101
1803.00,0.0102
1802.00,0.0102
1801.00,0.0102
1800.00,0.0101
1799.00,0.0101
1798.00,0.0101
1797.00,0.0102
1796.00,0.0103
1795.00,0.0103
1794.00,0.0102
1793.00,0.0101
1792.00,0.0100
1791.00,0.0100
1790.00,0.0099
1789.00,0.0099
1788.00,0.0100
1787.00,0.0100
1786.00,0.0100
1785.00,0.0100
1784.00,0.0100
1783.00,0.0101
1782.00,0.0102
1781.00,0.0102
1780.00,0.0102
1779.00,0.0102
1778.00,0.0101
1777.00,0.0101
1776.00,0.0102
1775.00,0.0102
1774.00,0.0102
1773.00,0.0101
1772.00,0.0101
1771.00,0.0101
1770.00,0.0101
1769.00,0.0101
1768.00,0.0101
1767.00,0.0100
1766.00,0.0100
1765.00,0.0101
1764.00,0.0102
1763.00,0.0102
1762.00,0.0102
1761.00,0.0102
1760.00,0.0103
1759.00,0.0104
1758.00,0.0104
1757.00,0.0103
1756.00,0.0102
1755.00,0.0102
1754.00,0.0102
1753.00,0.0102
1752.00,0.0103
1751.00,0.0104
1750.00,0.0105
1749.00,0.0106
1748.00,0.0106
1747.00,0.0107
1746.00,0.0107
1745.00,0.0107
1744.00,0.0108
1743.00,0.0108
1742.00,0.0106
1741.00,0.0104
1740.00,0.0104
1739.00,0.0104
1738.00,0.0104
1737.00,0.0105
1736.00,0.0104
1735.00,0.0104
1734.00,0.0104
1733.00,0.0105
1732.00,0.0108
1731.00,0.0111
1730.00,0.0112
1729.00,0.0113
1728.00,0.0113
1727.00,0.0114
1726.00,0.0115
1725.00,0.0116
1724.00,0.0118
1723.00,0.0119
1722.00,0.0120
1721.00,0.0120
1720.00,0.0121
1719.00,0.0124
1718.00,0.0126
1717.00,0.0127
1716.00,0.0130
1715.00,0.0132
1714.00,0.0134
1713.00,0.0137
1712.00,0.0141
1711.00,0.0146
1710.00,0.0150
1709.00,0.0154
1708.00,0.0160
1707.00,0.0167
1706.00,0.0175
1705.00,0.0184
1704.00,0.0192
1703.00,0.0198
1702.00,0.0204
1701.00,0.0216
1700.00,0.0237
1699.00,0.0260
1698.00,0.0280
1697.00,0.0301
1696.00,0.0327
1695.00,0.0354
1694.00,0.0380
1693.00,0.0406
1692.00,0.0432
1691.00,0.0461
1690.00,0.0492
1689.00,0.0523
1688.00,0.0551
1687.00,0.0576
1686.00,0.0602
1685.00,0.0637
1684.00,0.0680
1683.00,0.0717
1682.00,0.0747
1681.00,0.0774
1680.00,0.0801
1679.00,0.0827
1678.00,0.0848
1677.00,0.0870
1676.00,0.0896
1675.00,0.0924
1674.00,0.0950
1673.00,0.0972
1672.00,0.0992
1671.00,0.1012
1670.00,0.1034
1669.00,0.1056
1668.00,0.1078
1667.00,0.1095
1666.00,0.1110
1665.00,0.1124
1664.00,0.1139
1663.00,0.1157
1662.00,0.1174
1661.00,0.1188
1660.00,0.1201
1659.00,0.1211
1658.00,0.1220
1657.00,0.1226
1656.00,0.1228
1655.00,0.1229
1654.00,0.1229
1653.00,0.1230
1652.00,0.1231
1651.00,0.1230
1650.00,0.1225
1649.00,0.1215
1648.00,0.1200
1647.00,0.1180
1646.00,0.1155
1645.00,0.1131
1644.00,0.1109
1643.00,0.1085
1642.00,0.1059
1641.00,0.1031
1640.00,0.1002
1639.00,0.0974
1638.00,0.0944
1637.00,0.0911
1636.00,0.0876
1635.00,0.0843
1634.00,0.0818
1633.00,0.0800
1632.00,0.0787
1631.00,0.0775
1630.00,0.0767
1629.00,0.0764
1628.00,0.0766
1627.00,0.0772
1626.00,0.0777
1625.00,0.0781
1624.00,0.0784
1623.00,0.0784
1622.00,0.0780
1621.00,0.0771
1620.00,0.0758
1619.00,0.0739
1618.00,0.0712
1617.00,0.0680
1616.00,0.0649
1615.00,0.0626
1614.00,0.0612
1613.00,0.0603
1612.00,0.0596
1611.00,0.0589
1610.00,0.0579
1609.00,0.0566
1608.00,0.0548
1607.00,0.0528
1606.00,0.0506
1605.00,0.0485
1604.00,0.0464
1603.00,0.0445
1602.00,0.0427
1601.00,0.0411
1600.00,0.0396
1599.00,0.0384
1598.00,0.0374
1597.00,0.0366
1596.00,0.0360
1595.00,0.0356
1594.00,0.0355
1593.00,0.0357
1592.00,0.0362
1591.00,0.0370
1590.00,0.0382
1589.00,0.0395
1588.00,0.0408
1587.00,0.0421
1586.00,0.0431
1585.00,0.0437
1584.00,0.0440
1583.00,0.0438
1582.00,0.0433
1581.00,0.0426
1580.00,0.0417
1579.00,0.0408
1578.00,0.0397
1577.00,0.0384
1576.00,0.0368
1575.00,0.0354
1574.00,0.0345
1573.00,0.0338
1572.00,0.0332
1571.00,0.0325
1570.00,0.0319
1569.00,0.0314
1568.00,0.0309
1567.00,0.0304
1566.00,0.0298
1565.00,0.0290
1564.00,0.0282
1563.00,0.0273
1562.00,0.0264
1561.00,0.0255
1560.00,0.0246
1559.00,0.0239
1558.00,0.0231
1557.00,0.0228
1556.00,0.0229
1555.00,0.0228
1554.00,0.0227
1553.00,0.0225
1552.00,0.0224
1551.00,0.0224
1550.00,0.0222
1549.00,0.0220
1548.00,0.0217
1547.00,0.0215
1546.00,0.0214
1545.00,0.0214
1544.00,0.0212
1543.00,0.0210
1542.00,0.0206
1541.00,0.0204
1540.00,0.0201
1539.00,0.0197
1538.00,0.0197
1537.00,0.0198
1536.00,0.0199
1535.00,0.0199
1534.00,0.0198
1533.00,0.0197
1532.00,0.0196
1531.00,0.0196
1530.00,0.0196
1529.00,0.0196
1528.00,0.0196
1527.00,0.0196
1526.00,0.0196
1525.00,0.0195
1524.00,0.0195
1523.00,0.0196
1522.00,0.0196
1521.00,0.0197
1520.00,0.0198
1519.00,0.0200
1518.00,0.0204
1517.00,0.0207
1516.00,0.0209
1515.00,0.0211
1514.00,0.0213
1513.00,0.0216
1512.00,0.0220
1511.00,0.0225
1510.00,0.0230
1509.00,0.0235
1508.00,0.0239
1507.00,0.0242
1506.00,0.0243
1505.00,0.0249
1504.00,0.0260
1503.00,0.0273
1502.00,0.0287
1501.00,0.0302
1500.00,0.0322
1499.00,0.0345
1498.00,0.0371
1497.00,0.0397
1496.00,0.0415
1495.00,0.0423
1494.00,0.0423
1493.00,0.0417
1492.00,0.0405
1491.00,0.0391
1490.00,0.0374
1489.00,0.0356
1488.00,0.0337
1487.00,0.0319
1486.00,0.0302
1485.00,0.0289
1484.00,0.0278
1483.00,0.0269
1482.00,0.0261
1481.00,0.0255
1480.00,0.0251
1479.00,0.0248
1478.00,0.0248
1477.00,0.0250
1476.00,0.0255
1475.00,0.0261
1474.00,0.0270
1473.00,0.0285
1472.00,0.0306
1471.00,0.0332
1470.00,0.0361
1469.00,0.0395
1468.00,0.0431
1467.00,0.0467
1466.00,0.0503
1465.00,0.0537
1464.00,0.0565
1463.00,0.0585
1462.00,0.0599
1461.00,0.0608
1460.00,0.0611
1459.00,0.0608
1458.00,0.0594
1457.00,0.0570
1456.00,0.0542
1455.00,0.0520
1454.00,0.0503
1453.00,0.0490
1452.00,0.0480
1451.00,0.0474
1450.00,0.0473
1449.00,0.0479
1448.00,0.0490
1447.00,0.0505
1446.00,0.0524
1445.00,0.0546
1444.00,0.0572
1443.00,0.0601
1442.00,0.0629
1441.00,0.0657
1440.00,0.0681
1439.00,0.0702
1438.00,0.0721
1437.00,0.0742
1436.00,0.0762
1435.00,0.0779
1434.00,0.0793
1433.00,0.0805
1432.00,0.0816
1431.00,0.0826
1430.00,0.0838
1429.00,0.0852
1428.00,0.0868
1427.00,0.0886
1426.00,0.0904
1425.00,0.0924
1424.00,0.0942
1423.00,0.0954
1422.00,0.0956
1421.00,0.0951
1420.00,0.0934
1419.00,0.0905
1418.00,0.0867
1417.00,0.0826
1416.00,0.0784
1415.00,0.0741
1414.00,0.0699
1413.00,0.0661
1412.00,0.0626
1411.00,0.0597
1410.00,0.0573
1409.00,0.0556
1408.00,0.0544
1407.00,0.0537
1406.00,0.0535
1405.00,0.0536
1404.00,0.0539
1403.00,0.0541
1402.00,0.0542
1401.00,0.0542
1400.00,0.0537
1399.00,0.0528
1398.00,0.0516
1397.00,0.0502
1396.00,0.0484
1395.00,0.0465
1394.00,0.0445
1393.00,0.0429
1392.00,0.0417
1391.00,0.0409
1390.00,0.0406
1389.00,0.0408
1388.00,0.0416
1387.00,0.0425
1386.00,0.0431
1385.00,0.0433
1384.00,0.0432
1383.00,0.0433
1382.00,0.0437
1381.00,0.0444
1380.00,0.0452
1379.00,0.0459
1378.00,0.0464
1377.00,0.0467
1376.00,0.0466
1375.00,0.0462
1374.00,0.0454
1373.00,0.0446
1372.00,0.0439
1371.00,0.0436
1370.00,0.0437
1369.00,0.0441
1368.00,0.0448
1367.00,0.0456
1366.00,0.0462
1365.00,0.0466
1364.00,0.0466
1363.00,0.0466
1362.00,0.0468
1361.00,0.0471
1360.00,0.0472
1359.00,0.0466
1358.00,0.0453
1357.00,0.0435
1356.00,0.0418
1355.00,0.0403
1354.00,0.0392
1353.00,0.0383
1352.00,0.0376
1351.00,0.0372
1350.00,0.0369
1349.00,0.0368
1348.00,0.0366
1347.00,0.0365
1346.00,0.0362
1345.00,0.0358
1344.00,0.0354
1343.00,0.0349
1342.00,0.0344
1341.00,0.0339
1340.00,0.0335
1339.00,0.0329
1338.00,0.0324
1337.00,0.0321
1336.00,0.0320
1335.00,0.0322
1334.00,0.0326
1333.00,0.0331
1332.00,0.0338
1331.00,0.0345
1330.00,0.0351
1329.00,0.0358
1328.00,0.0364
1327.00,0.0371
1326.00,0.0377
1325.00,0.0384
1324.00,0.0392
1323.00,0.0400
1322.00,0.0409
1321.00,0.0418
1320.00,0.0426
1319.00,0.0433
1318.00,0.0436
1317.00,0.0437
1316.00,0.0436
1315.00,0.0432
1314.00,0.0426
1313.00,0.0420
1312.00,0.0413
1311.00,0.0407
1310.00,0.0403
1309.00,0.0401
1308.00,0.0402
1307.00,0.0406
1306.00,0.0414
1305.00,0.0426
1304.00,0.0443
1303.00,0.0464
1302.00,0.0487
1301.00,0.0510
1300.00,0.0531
1299.00,0.0553
1298.00,0.0577
1297.00,0.0606
1296.00,0.0642
1295.00,0.0683
1294.00,0.0728
1293.00,0.0774
1292.00,0.0818
1291.00,0.0860
1290.00,0.0899
1289.00,0.0934
1288.00,0.0965
1287.00,0.0991
1286.00,0.1010
1285.00,0.1022
1284.00,0.1025
1283.00,0.1019
1282.00,0.1006
1281.00,0.0988
1280.00,0.0967
1279.00,0.0947
1278.00,0.0932
1277.00,0.0922
1276.00,0.0917
1275.00,0.0917
1274.00,0.0920
1273.00,0.0923
1272.00,0.0924
1271.00,0.0922
1270.00,0.0915
1269.00,0.0904
1268.00,0.0888
1267.00,0.0868
1266.00,0.0845
1265.00,0.0819
1264.00,0.0791
1263.00,0.0763
1262.00,0.0734
1261.00,0.0705
1260.00,0.0678
1259.00,0.0652
1258.00,0.0628
1257.00,0.0606
1256.00,0.0587
1255.00,0.0569
1254.00,0.0554
1253.00,0.0542
1252.00,0.0531
1251.00,0.0523
1250.00,0.0518
1249.00,0.0515
1248.00,0.0516
1247.00,0.0519
1246.00,0.0523
1245.00,0.0529
1244.00,0.0535
1243.00,0.0540
1242.00,0.0544
1241.00,0.0549
1240.00,0.0556
1239.00,0.0564
1238.00,0.0576
1237.00,0.0590
1236.00,0.0605
1235.00,0.0619
1234.00,0.0630
1233.00,0.0636
1232.00,0.0638
1231.00,0.0635
1230.00,0.0628
1229.00,0.0620
1228.00,0.0610
1227.00,0.0601
1226.00,0.0593
1225.00,0.0586
1224.00,0.0580
1223.00,0.0575
1222.00,0.0572
1221.00,0.0570
1220.00,0.0569
1219.00,0.0570
1218.00,0.0572
1217.00,0.0575
1216.00,0.0576
1215.00,0.0576
1214.00,0.0573
1213.00,0.0566
1212.00,0.0556
1211.00,0.0543
1210.00,0.0528
1209.00,0.0514
1208.00,0.0501
1207.00,0.0490
1206.00,0.0481
1205.00,0.0476
1204.00,0.0474
1203.00,0.0475
1202.00,0.0479
1201.00,0.0486
1200.00,0.0494
1199.00,0.0505
1198.00,0.0518
1197.00,0.0532
1196.00,0.0544
1195.00,0.0552
1194.00,0.0554
1193.00,0.0551
1192.00,0.0541
1191.00,0.0528
1190.00,0.0512
1189.00,0.0496
1188.00,0.0479
1187.00,0.0463
1186.00,0.0448
1185.00,0.0436
1184.00,0.0426
1183.00,0.0417
1182.00,0.0411
1181.00,0.0407
1180.00,0.0404
1179.00,0.0402
1178.00,0.0402
1177.00,0.0403
1176.00,0.0404
1175.00,0.0406
1174.00,0.0409
1173.00,0.0412
1172.00,0.0415
1171.00,0.0417
1170.00,0.0420
1169.00,0.0421
1168.00,0.0422
1167.00,0.0423
1166.00,0.0423
1165.00,0.0423
1164.00,0.0422
1163.00,0.0423
1162.00,0.0426
1161.00,0.0432
1160.00,0.0441
1159.00,0.0456
1158.00,0.0475
1157.00,0.0497
1156.00,0.0517
1155.00,0.0529
1154.00,0.0529
1153.00,0.0517
1152.00,0.0494
1151.00,0.0465
1150.00,0.0437
1149.00,0.0412
1148.00,0.0392
1147.00,0.0378
1146.00,0.0367
1145.00,0.0360
1144.00,0.0354
1143.00,0.0349
1142.00,0.0345
1141.00,0.0342
1140.00,0.0341
1139.00,0.0341
1138.00,0.0342
1137.00,0.0347
1136.00,0.0354
1135.00,0.0367
1134.00,0.0385
1133.00,0.0409
1132.00,0.0438
1131.00,0.0469
1130.00,0.0496
1129.00,0.0515
1128.00,0.0523
1127.00,0.0520
1126.00,0.0510
1125.00,0.0495
1124.00,0.0476
1123.00,0.0455
1122.00,0.0434
1121.00,0.0414
1120.00,0.0398
1119.00,0.0385
1118.00,0.0377
1117.00,0.0372
1116.00,0.0369
1115.00,0.0368
1114.00,0.0367
1113.00,0.0365
1112.00,0.0361
1111.00,0.0357
1110.00,0.0353
1109.00,0.0350
1108.00,0.0347
1107.00,0.0347
1106.00,0.0349
1105.00,0.0355
1104.00,0.0365
1103.00,0.0380
1102.00,0.0398
1101.00,0.0415
1100.00,0.0427
1099.00,0.0431
1098.00,0.0427
1097.00,0.0415
1096.00,0.0399
1095.00,0.0382
1094.00,0.0367
1093.00,0.0354
1092.00,0.0343
1091.00,0.0336
1090.00,0.0330
1089.00,0.0326
1088.00,0.0323
1087.00,0.0320
1086.00,0.0318
1085.00,0.0316
1084.00,0.0315
1083.00,0.0315
1082.00,0.0315
1081.00,0.0316
1080.00,0.0317
1079.00,0.0318
1078.00,0.0320
1077.00,0.0322
1076.00,0.0324
1075.00,0.0325
1074.00,0.0326
1073.00,0.0328
1072.00,0.0329
1071.00,0.0331
1070.00,0.0332
1069.00,0.0334
1068.00,0.0336
1067.00,0.0339
1066.00,0.0342
1065.00,0.0347
1064.00,0.0354
1063.00,0.0363
1062.00,0.0376
1061.00,0.0394
1060.00,0.0417
1059.00,0.0445
1058.00,0.0478
1057.00,0.0514
1056.00,0.0547
1055.00,0.0575
1054.00,0.0594
1053.00,0.0604
1052.00,0.0609
1051.00,0.0610
1050.00,0.0609
1049.00,0.0603
1048.00,0.0593
1047.00,0.0576
1046.00,0.0555
1045.00,0.0531
1044.00,0.0505
1043.00,0.0480
1042.00,0.0456
1041.00,0.0436
1040.00,0.0421
1039.00,0.0410
1038.00,0.0403
1037.00,0.0402
1036.00,0.0403
1035.00,0.0406
1034.00,0.0411
1033.00,0.0418
1032.00,0.0431
1031.00,0.0450
1030.00,0.0477
1029.00,0.0508
1028.00,0.0538
1027.00,0.0559
1026.00,0.0567
1025.00,0.0561
1024.00,0.0542
1023.00,0.0518
1022.00,0.0494
1021.00,0.0472
1020.00,0.0454
1019.00,0.0439
1018.00,0.0426
1017.00,0.0415
1016.00,0.0403
1015.00,0.0392
1014.00,0.0381
1013.00,0.0371
1012.00,0.0363
1011.00,0.0357
1010.00,0.0355
1009.00,0.0358
1008.00,0.0364
1007.00,0.0374
1006.00,0.0387
1005.00,0.0400
1004.00,0.0410
1003.00,0.0417
1002.00,0.0418
1001.00,0.0415
1000.00,0.0409
999.00,0.0401
998.00,0.0392
997.00,0.0384
996.00,0.0376
995.00,0.0370
994.00,0.0363
993.00,0.0357
992.00,0.0350
991.00,0.0342
990.00,0.0334
989.00,0.0326
988.00,0.0319
987.00,0.0313
986.00,0.0308
985.00,0.0304
984.00,0.0301
983.00,0.0297
982.00,0.0295
981.00,0.0293
980.00,0.0291
979.00,0.0290
978.00,0.0289
977.00,0.0288
976.00,0.0288
975.00,0.0287
974.00,0.0285
973.00,0.0284
972.00,0.0282
971.00,0.0281
970.00,0.0280
969.00,0.0280
968.00,0.0279
967.00,0.0279
966.00,0.0279
965.00,0.0279
964.00,0.0280
963.00,0.0281
962.00,0.0282
961.00,0.0281
960.00,0.0278
959.00,0.0274
958.00,0.0270
957.00,0.0266
956.00,0.0263
955.00,0.0260
954.00,0.0258
953.00,0.0255
952.00,0.0254
951.00,0.0253
950.00,0.0254
949.00,0.0256
948.00,0.0257
947.00,0.0257
946.00,0.0258
945.00,0.0258
944.00,0.0259
943.00,0.0262
942.00,0.0266
941.00,0.0271
940.00,0.0276
939.00,0.0283
938.00,0.0290
937.00,0.0297
936.00,0.0303
935.00,0.0310
934.00,0.0315
933.00,0.0318
932.00,0.0319
931.00,0.0317
930.00,0.0312
929.00,0.0308
928.00,0.0304
927.00,0.0301
926.00,0.0300
925.00,0.0302
924.00,0.0304
923.00,0.0307
922.00,0.0309
921.00,0.0309
920.00,0.0305
919.00,0.0298
918.00,0.0291
917.00,0.0283
916.00,0.0277
915.00,0.0271
914.00,0.0267
913.00,0.0265
912.00,0.0263
911.00,0.0262
910.00,0.0261
909.00,0.0261
908.00,0.0261
907.00,0.0262
906.00,0.0264
905.00,0.0269
904.00,0.0275
903.00,0.0283
902.00,0.0293
901.00,0.0304
900.00,0.0314
899.00,0.0320
898.00,0.0321
897.00,0.0318
896.00,0.0313
895.00,0.0307
894.00,0.0304
893.00,0.0304
892.00,0.0309
891.00,0.0314
890.00,0.0317
889.00,0.0314
888.00,0.0305
887.00,0.0292
886.00,0.0281
885.00,0.0273
884.00,0.0268
883.00,0.0265
882.00,0.0265
881.00,0.0266
880.00,0.0270
879.00,0.0275
878.00,0.0283
877.00,0.0294
876.00,0.0310
875.00,0.0329
874.00,0.0351
873.00,0.0375
872.00,0.0398
871.00,0.0418
870.00,0.0431
869.00,0.0433
868.00,0.0427
867.00,0.0415
866.00,0.0401
865.00,0.0388
864.00,0.0375
863.00,0.0364
862.00,0.0353
861.00,0.0345
860.00,0.0340
859.00,0.0339
858.00,0.0342
857.00,0.0350
856.00,0.0363
855.00,0.0379
854.00,0.0396
853.00,0.0413
852.00,0.0429
851.00,0.0447
850.00,0.0463
849.00,0.0475
848.00,0.0479
847.00,0.0476
846.00,0.0467
845.00,0.0457
844.00,0.0446
843.00,0.0437
842.00,0.0429
841.00,0.0424
840.00,0.0422
839.00,0.0423
838.00,0.0429
837.00,0.0439
836.00,0.0450
835.00,0.0460
834.00,0.0465
833.00,0.0465
832.00,0.0459
831.00,0.0446
830.00,0.0429
829.00,0.0409
828.00,0.0387
827.00,0.0368
826.00,0.0353
825.00,0.0346
824.00,0.0350
823.00,0.0368
822.00,0.0399
821.00,0.0432
820.00,0.0455
819.00,0.0465
818.00,0.0471
817.00,0.0482
816.00,0.0492
815.00,0.0490
814.00,0.0466
813.00,0.0427
812.00,0.0386
811.00,0.0353
810.00,0.0331
809.00,0.0315
808.00,0.0304
807.00,0.0296
806.00,0.0290
805.00,0.0284
804.00,0.0280
803.00,0.0276
802.00,0.0274
801.00,0.0272
800.00,0.0271
799.00,0.0270
798.00,0.0269
797.00,0.0268
796.00,0.0268
795.00,0.0267
794.00,0.0267
793.00,0.0266
792.00,0.0265
791.00,0.0265
790.00,0.0265
789.00,0.0266
788.00,0.0266
787.00,0.0267
786.00,0.0267
785.00,0.0268
784.00,0.0268
783.00,0.0269
782.00,0.0270
781.00,0.0271
780.00,0.0272
779.00,0.0275
778.00,0.0280
777.00,0.0286
776.00,0.0294
775.00,0.0302
774.00,0.0306
773.00,0.0306
772.00,0.0302
771.00,0.0298
770.00,0.0295
769.00,0.0294
768.00,0.0294
767.00,0.0294
766.00,0.0296
765.00,0.0299
764.00,0.0302
763.00,0.0307
762.00,0.0313
761.00,0.0319
760.00,0.0324
759.00,0.0329
758.00,0.0332
757.00,0.0334
756.00,0.0336
755.00,0.0338
754.00,0.0340
753.00,0.0344
752.00,0.0348
751.00,0.0352
750.00,0.0355
749.00,0.0360
748.00,0.0364
747.00,0.0369
746.00,0.0374
745.00,0.0379
744.00,0.0385
743.00,0.0392
742.00,0.0399
741.00,0.0408
740.00,0.0418
739.00,0.0431
738.00,0.0449
737.00,0.0469
736.00,0.0489
735.00,0.0503
734.00,0.0508
733.00,0.0505
732.00,0.0497
731.00,0.0491
730.00,0.0487
729.00,0.0485
728.00,0.0480
727.00,0.0470
726.00,0.0456
725.00,0.0439
724.00,0.0424
723.00,0.0411
722.00,0.0401
721.00,0.0394
720.00,0.0392
719.00,0.0392
718.00,0.0395
717.00,0.0400
716.00,0.0406
715.00,0.0410
714.00,0.0411
713.00,0.0409
712.00,0.0405
711.00,0.0400
710.00,0.0396
709.00,0.0392
708.00,0.0390
707.00,0.0388
706.00,0.0389
705.00,0.0391
704.00,0.0394
703.00,0.0398
702.00,0.0402
701.00,0.0407
700.00,0.0412
699.00,0.0418
698.00,0.0422
697.00,0.0425
696.00,0.0425
695.00,0.0424
694.00,0.0422
693.00,0.0422
692.00,0.0425
691.00,0.0431
690.00,0.0440
689.00,0.0450
688.00,0.0458
687.00,0.0462
686.00,0.0463
685.00,0.0461
684.00,0.0460
683.00,0.0460
682.00,0.0461
681.00,0.0464
680.00,0.0468
679.00,0.0474
678.00,0.0481
677.00,0.0488
676.00,0.0497
675.00,0.0506
674.00,0.0516
673.00,0.0527
672.00,0.0537
671.00,0.0545
670.00,0.0553
669.00,0.0558
668.00,0.0563
667.00,0.0565
666.00,0.0568
665.00,0.0573
664.00,0.0581
663.00,0.0591
662.00,0.0602
661.00,0.0611
660.00,0.0618
659.00,0.0623
658.00,0.0627
657.00,0.0630
656.00,0.0634
655.00,0.0639
654.00,0.0645
653.00,0.0652
652.00,0.0659
651.00,0.0664
650.00,0.0668
649.00,0.0670
648.00,0.0672
647.00,0.0673
646.00,0.0672
645.00,0.0669
644.00,0.0666
643.00,0.0661
642.00,0.0656
641.00,0.0651
640.00,0.0645
639.00,0.0639
638.00,0.0634
637.00,0.0629
636.00,0.0625
635.00,0.0620
634.00,0.0615
633.00,0.0610
632.00,0.0606
631.00,0.0603
630.00,0.0600
629.00,0.0598
628.00,0.0597
627.00,0.0596
626.00,0.0596
625.00,0.0597
624.00,0.0598
623.00,0.0602
622.00,0.0606
621.00,0.0610
620.00,0.0613
619.00,0.0613
618.00,0.0611
617.00,0.0607
616.00,0.0603
615.00,0.0597
614.00,0.0591
613.00,0.0586
612.00,0.0583
611.00,0.0583
610.00,0.0586
609.00,0.0592
608.00,0.0602
607.00,0.0614
606.00,0.0628
605.00,0.0641
604.00,0.0652
603.00,0.0661
602.00,0.0667
601.00,0.0670
600.00,0.0672
599.00,0.0673
598.00,0.0675
597.00,0.0676
596.00,0.0677
595.00,0.0679
594.00,0.0681
593.00,0.0684
592.00,0.0687
591.00,0.0689
590.00,0.0691
589.00,0.0693
588.00,0.0697
587.00,0.0703
586.00,0.0710
585.00,0.0718
584.00,0.0727
583.00,0.0737
582.00,0.0746
581.00,0.0757
580.00,0.0768
579.00,0.0783
578.00,0.0798
577.00,0.0814
576.00,0.0825
575.00,0.0829
574.00,0.0826
573.00,0.0820
572.00,0.0813
571.00,0.0806
570.00,0.0799
569.00,0.0793
568.00,0.0787
567.00,0.0783
566.00,0.0779
565.00,0.0779
564.00,0.0780
563.00,0.0782
562.00,0.0786
561.00,0.0790
560.00,0.0792
559.00,0.0791
558.00,0.0786
557.00,0.0778
556.00,0.0770
555.00,0.0761
554.00,0.0752
553.00,0.0745
552.00,0.0742
551.00,0.0742
550.00,0.0747
549.00,0.0754
548.00,0.0762
547.00,0.0768
546.00,0.0771
545.00,0.0769
544.00,0.0763
543.00,0.0756
542.00,0.0748
541.00,0.0740
540.00,0.0732
539.00,0.0725
538.00,0.0720
537.00,0.0718
536.00,0.0720
535.00,0.0724
534.00,0.0731
533.00,0.0738
532.00,0.0744
531.00,0.0748
530.00,0.0748
529.00,0.0744
528.00,0.0738
527.00,0.0729
526.00,0.0721
525.00,0.0713
524.00,0.0708
523.00,0.0704
522.00,0.0700
521.00,0.0697
520.00,0.0694
519.00,0.0691
518.00,0.0687
517.00,0.0684
516.00,0.0681
515.00,0.0680
514.00,0.0680
513.00,0.0680
512.00,0.0681
511.00,0.0682
510.00,0.0685
509.00,0.0688
508.00,0.0693
507.00,0.0698
506.00,0.0699
505.00,0.0699
504.00,0.0696
503.00,0.0693
502.00,0.0688
501.00,0.0684
500.00,0.0683
499.00,0.0683
498.00,0.0685
497.00,0.0688
496.00,0.0691
495.00,0.0695
494.00,0.0699
493.00,0.0702
492.00,0.0704
491.00,0.0704
490.00,0.0703
489.00,0.0703
488.00,0.0704
487.00,0.0704
486.00,0.0702
485.00,0.0699
484.00,0.0696
483.00,0.0692
482.00,0.0691
481.00,0.0692
480.00,0.0694
479.00,0.0695
478.00,0.0694
477.00,0.0693
476.00,0.0693
475.00,0.0692
474.00,0.0693
473.00,0.0695
472.00,0.0697
471.00,0.0697
470.00,0.0696
469.00,0.0693
468.00,0.0691
467.00,0.0689
466.00,0.0689
465.00,0.0689
464.00,0.0690
463.00,0.0691
462.00,0.0690
461.00,0.0686
460.00,0.0681
459.00,0.0676
458.00,0.0675
457.00,0.0674
456.00,0.0674
455.00,0.0673
454.00,0.0671
453.00,0.0670
452.00,0.0669
451.00,0.0667
450.00,0.0666
449.00,0.0665
448.00,0.0665
447.00,0.0664
446.00,0.0662
445.00,0.0659
444.00,0.0656
443.00,0.0653
442.00,0.0650
441.00,0.0648
440.00,0.0648
439.00,0.0648
438.00,0.0646
437.00,0.0643
436.00,0.0638
435.00,0.0634
434.00,0.0629
433.00,0.0625
432.00,0.0622
431.00,0.0619
430.00,0.0616
429.00,0.0613
428.00,0.0611
427.00,0.0609
426.00,0.0607
425.00,0.0604
424.00,0.0603
423.00,0.0603
422.00,0.0602
421.00,0.0599
420.00,0.0594
419.00,0.0591
418.00,0.0590
417.00,0.0591
416.00,0.0592
415.00,0.0592
414.00,0.0591
413.00,0.0592
412.00,0.0595
411.00,0.0598
410.00,0.0598
409.00,0.0595
408.00,0.0589
407.00,0.0583
406.00,0.0580
405.00,0.0580
404.00,0.0579
403.00,0.0576
402.00,0.0569
401.00,0.0560
400.00,0.0552
