Created as New Dataset,Sample 073 By YargerLab Date Thursday, August 14 2025
cm-1,A
4000.00,0.0055
3999.00,0.0055
3998.00,0.0055
3997.00,0.0055
3996.00,0.0055
3995.00,0.0055
3994.00,0.0055
3993.00,0.0055
3992.00,0.0055
3991.00,0.0055
3990.00,0.0055
3989.00,0.0055
3988.00,0.0055
3987.00,0.0055
3986.00,0.0055
3985.00,0.0055
3984.00,0.0055
3983.00,0.0055
3982.00,0.0055
3981.00,0.0055
3980.00,0.0056
3979.00,0.0056
3978.00,0.0056
3977.00,0.0055
3976.00,0.0055
3975.00,0.0055
3974.00,0.0055
3973.00,0.0055
3972.00,0.0055
3971.00,0.0055
3970.00,0.0055
3969.00,0.0055
3968.00,0.0055
3967.00,0.0055
3966.00,0.0055
3965.00,0.0055
3964.00,0.0055
3963.00,0.0055
3962.00,0.0055
3961.00,0.0055
3960.00,0.0055
3959.00,0.0055
3958.00,0.0055
3957.00,0.0055
3956.00,0.0055
3955.00,0.0055
3954.00,0.0055
3953.00,0.0055
3952.00,0.0055
3951.00,0.0054
3950.00,0.0054
3949.00,0.0054
3948.00,0.0054
3947.00,0.0054
3946.00,0.0054
3945.00,0.0054
3944.00,0.0054
3943.00,0.0054
3942.00,0.0054
3941.00,0.0054
3940.00,0.0054
3939.00,0.0054
3938.00,0.0054
3937.00,0.0054
3936.00,0.0054
3935.00,0.0054
3934.00,0.0054
3933.00,0.0054
3932.00,0.0054
3931.00,0.0054
3930.00,0.0054
3929.00,0.0054
3928.00,0.0054
3927.00,0.0054
3926.00,0.0054
3925.00,0.0055
3924.00,0.0055
3923.00,0.0055
3922.00,0.0055
3921.00,0.0055
3920.00,0.0054
3919.00,0.0054
3918.00,0.0054
3917.00,0.0054
3916.00,0.0054
3915.00,0.0054
3914.00,0.0054
3913.00,0.0055
3912.00,0.0055
3911.00,0.0055
3910.00,0.0055
3909.00,0.0055
3908.00,0.0054
3907.00,0.0054
3906.00,0.0054
3905.00,0.0054
3904.00,0.0054
3903.00,0.0054
3902.00,0.0054
3901.00,0.0054
3900.00,0.0054
3899.00,0.0054
3898.00,0.0054
3897.00,0.0054
3896.00,0.0054
3895.00,0.0054
3894.00,0.0054
3893.00,0.0053
3892.00,0.0053
3891.00,0.0053
3890.00,0.0053
3889.00,0.0053
3888.00,0.0053
3887.00,0.0053
3886.00,0.0053
3885.00,0.0053
3884.00,0.0053
3883.00,0.0053
3882.00,0.0053
3881.00,0.0053
3880.00,0.0053
3879.00,0.0053
3878.00,0.0053
3877.00,0.0053
3876.00,0.0053
3875.00,0.0053
3874.00,0.0053
3873.00,0.0053
3872.00,0.0053
3871.00,0.0053
3870.00,0.0053
3869.00,0.0053
3868.00,0.0053
3867.00,0.0053
3866.00,0.0053
3865.00,0.0053
3864.00,0.0053
3863.00,0.0053
3862.00,0.0053
3861.00,0.0053
3860.00,0.0053
3859.00,0.0053
3858.00,0.0054
3857.00,0.0054
3856.00,0.0054
3855.00,0.0054
3854.00,0.0054
3853.00,0.0054
3852.00,0.0054
3851.00,0.0053
3850.00,0.0053
3849.00,0.0053
3848.00,0.0053
3847.00,0.0053
3846.00,0.0053
3845.00,0.0053
3844.00,0.0053
3843.00,0.0053
3842.00,0.0053
3841.00,0.0053
3840.00,0.0052
3839.00,0.0052
3838.00,0.0052
3837.00,0.0052
3836.00,0.0052
3835.00,0.0052
3834.00,0.0052
3833.00,0.0052
3832.00,0.0052
3831.00,0.0052
3830.00,0.0053
3829.00,0.0053
3828.00,0.0053
3827.00,0.0053
3826.00,0.0053
3825.00,0.0053
3824.00,0.0053
3823.00,0.0053
3822.00,0.0053
3821.00,0.0053
3820.00,0.0053
3819.00,0.0053
3818.00,0.0054
3817.00,0.0054
3816.00,0.0053
3815.00,0.0053
3814.00,0.0053
3813.00,0.0052
3812.00,0.0052
3811.00,0.0052
3810.00,0.0052
3809.00,0.0052
3808.00,0.0052
3807.00,0.0052
3806.00,0.0052
3805.00,0.0052
3804.00,0.0052
3803.00,0.0052
3802.00,0.0052
3801.00,0.0052
3800.00,0.0052
3799.00,0.0052
3798.00,0.0052
3797.00,0.0052
3796.00,0.0053
3795.00,0.0053
3794.00,0.0053
3793.00,0.0053
3792.00,0.0053
3791.00,0.0053
3790.00,0.0052
3789.00,0.0052
3788.00,0.0052
3787.00,0.0052
3786.00,0.0052
3785.00,0.0052
3784.00,0.0052
3783.00,0.0052
3782.00,0.0052
3781.00,0.0052
3780.00,0.0052
3779.00,0.0052
3778.00,0.0052
3777.00,0.0052
3776.00,0.0053
3775.00,0.0053
3774.00,0.0053
3773.00,0.0053
3772.00,0.0053
3771.00,0.0052
3770.00,0.0052
3769.00,0.0052
3768.00,0.0052
3767.00,0.0052
3766.00,0.0052
3765.00,0.0052
3764.00,0.0052
3763.00,0.0052
3762.00,0.0052
3761.00,0.0052
3760.00,0.0052
3759.00,0.0053
3758.00,0.0053
3757.00,0.0053
3756.00,0.0053
3755.00,0.0053
3754.00,0.0053
3753.00,0.0053
3752.00,0.0053
3751.00,0.0053
3750.00,0.0053
3749.00,0.0053
3748.00,0.0053
3747.00,0.0053
3746.00,0.0053
3745.00,0.0052
3744.00,0.0052
3743.00,0.0052
3742.00,0.0052
3741.00,0.0051
3740.00,0.0051
3739.00,0.0051
3738.00,0.0051
3737.00,0.0051
3736.00,0.0051
3735.00,0.0051
3734.00,0.0051
3733.00,0.0051
3732.00,0.0050
3731.00,0.0050
3730.00,0.0050
3729.00,0.0050
3728.00,0.0050
3727.00,0.0050
3726.00,0.0050
3725.00,0.0050
3724.00,0.0050
3723.00,0.0050
3722.00,0.0050
3721.00,0.0050
3720.00,0.0050
3719.00,0.0050
3718.00,0.0051
3717.00,0.0051
3716.00,0.0051
3715.00,0.0050
3714.00,0.0050
3713.00,0.0050
3712.00,0.0050
3711.00,0.0049
3710.00,0.0049
3709.00,0.0049
3708.00,0.0049
3707.00,0.0049
3706.00,0.0049
3705.00,0.0050
3704.00,0.0050
3703.00,0.0049
3702.00,0.0049
3701.00,0.0049
3700.00,0.0049
3699.00,0.0049
3698.00,0.0049
3697.00,0.0049
3696.00,0.0049
3695.00,0.0050
3694.00,0.0050
3693.00,0.0050
3692.00,0.0050
3691.00,0.0050
3690.00,0.0050
3689.00,0.0049
3688.00,0.0049
3687.00,0.0049
3686.00,0.0049
3685.00,0.0049
3684.00,0.0049
3683.00,0.0049
3682.00,0.0049
3681.00,0.0049
3680.00,0.0049
3679.00,0.0049
3678.00,0.0049
3677.00,0.0048
3676.00,0.0048
3675.00,0.0048
3674.00,0.0048
3673.00,0.0049
3672.00,0.0049
3671.00,0.0049
3670.00,0.0049
3669.00,0.0049
3668.00,0.0049
3667.00,0.0048
3666.00,0.0049
3665.00,0.0049
3664.00,0.0049
3663.00,0.0049
3662.00,0.0049
3661.00,0.0049
3660.00,0.0049
3659.00,0.0048
3658.00,0.0048
3657.00,0.0048
3656.00,0.0048
3655.00,0.0049
3654.00,0.0049
3653.00,0.0049
3652.00,0.0049
3651.00,0.0049
3650.00,0.0048
3649.00,0.0048
3648.00,0.0048
3647.00,0.0047
3646.00,0.0048
3645.00,0.0048
3644.00,0.0048
3643.00,0.0048
3642.00,0.0048
3641.00,0.0048
3640.00,0.0048
3639.00,0.0048
3638.00,0.0048
3637.00,0.0048
3636.00,0.0048
3635.00,0.0047
3634.00,0.0047
3633.00,0.0047
3632.00,0.0047
3631.00,0.0047
3630.00,0.0047
3629.00,0.0048
3628.00,0.0048
3627.00,0.0048
3626.00,0.0048
3625.00,0.0048
3624.00,0.0048
3623.00,0.0048
3622.00,0.0048
3621.00,0.0048
3620.00,0.0048
3619.00,0.0048
3618.00,0.0048
3617.00,0.0048
3616.00,0.0049
3615.00,0.0049
3614.00,0.0049
3613.00,0.0049
3612.00,0.0049
3611.00,0.0049
3610.00,0.0049
3609.00,0.0049
3608.00,0.0049
3607.00,0.0049
3606.00,0.0049
3605.00,0.0049
3604.00,0.0049
3603.00,0.0048
3602.00,0.0048
3601.00,0.0048
3600.00,0.0049
3599.00,0.0049
3598.00,0.0049
3597.00,0.0049
3596.00,0.0049
3595.00,0.0049
3594.00,0.0049
3593.00,0.0049
3592.00,0.0049
3591.00,0.0049
3590.00,0.0049
3589.00,0.0049
3588.00,0.0049
3587.00,0.0049
3586.00,0.0049
3585.00,0.0049
3584.00,0.0049
3583.00,0.0049
3582.00,0.0049
3581.00,0.0049
3580.00,0.0049
3579.00,0.0050
3578.00,0.0050
3577.00,0.0049
3576.00,0.0049
3575.00,0.0049
3574.00,0.0049
3573.00,0.0049
3572.00,0.0050
3571.00,0.0050
3570.00,0.0050
3569.00,0.0050
3568.00,0.0050
3567.00,0.0051
3566.00,0.0051
3565.00,0.0051
3564.00,0.0051
3563.00,0.0051
3562.00,0.0052
3561.00,0.0052
3560.00,0.0052
3559.00,0.0052
3558.00,0.0053
3557.00,0.0053
3556.00,0.0053
3555.00,0.0054
3554.00,0.0054
3553.00,0.0054
3552.00,0.0054
3551.00,0.0055
3550.00,0.0055
3549.00,0.0055
3548.00,0.0056
3547.00,0.0056
3546.00,0.0056
3545.00,0.0056
3544.00,0.0057
3543.00,0.0057
3542.00,0.0057
3541.00,0.0058
3540.00,0.0058
3539.00,0.0058
3538.00,0.0059
3537.00,0.0059
3536.00,0.0059
3535.00,0.0060
3534.00,0.0060
3533.00,0.0060
3532.00,0.0060
3531.00,0.0061
3530.00,0.0061
3529.00,0.0061
3528.00,0.0062
3527.00,0.0062
3526.00,0.0063
3525.00,0.0064
3524.00,0.0064
3523.00,0.0065
3522.00,0.0065
3521.00,0.0065
3520.00,0.0066
3519.00,0.0067
3518.00,0.0067
3517.00,0.0068
3516.00,0.0068
3515.00,0.0069
3514.00,0.0069
3513.00,0.0069
3512.00,0.0069
3511.00,0.0070
3510.00,0.0071
3509.00,0.0071
3508.00,0.0072
3507.00,0.0073
3506.00,0.0073
3505.00,0.0074
3504.00,0.0074
3503.00,0.0074
3502.00,0.0075
3501.00,0.0076
3500.00,0.0076
3499.00,0.0077
3498.00,0.0078
3497.00,0.0079
3496.00,0.0080
3495.00,0.0081
3494.00,0.0082
3493.00,0.0083
3492.00,0.0084
3491.00,0.0084
3490.00,0.0085
3489.00,0.0086
3488.00,0.0087
3487.00,0.0088
3486.00,0.0090
3485.00,0.0091
3484.00,0.0092
3483.00,0.0093
3482.00,0.0094
3481.00,0.0095
3480.00,0.0097
3479.00,0.0098
3478.00,0.0099
3477.00,0.0101
3476.00,0.0102
3475.00,0.0104
3474.00,0.0105
3473.00,0.0106
3472.00,0.0108
3471.00,0.0109
3470.00,0.0111
3469.00,0.0113
3468.00,0.0114
3467.00,0.0116
3466.00,0.0117
3465.00,0.0118
3464.00,0.0120
3463.00,0.0122
3462.00,0.0123
3461.00,0.0125
3460.00,0.0127
3459.00,0.0129
3458.00,0.0131
3457.00,0.0132
3456.00,0.0134
3455.00,0.0136
3454.00,0.0138
3453.00,0.0140
3452.00,0.0142
3451.00,0.0144
3450.00,0.0145
3449.00,0.0147
3448.00,0.0149
3447.00,0.0151
3446.00,0.0153
3445.00,0.0155
3444.00,0.0157
3443.00,0.0159
3442.00,0.0162
3441.00,0.0164
3440.00,0.0167
3439.00,0.0169
3438.00,0.0172
3437.00,0.0175
3436.00,0.0177
3435.00,0.0180
3434.00,0.0182
3433.00,0.0185
3432.00,0.0187
3431.00,0.0190
3430.00,0.0193
3429.00,0.0196
3428.00,0.0200
3427.00,0.0203
3426.00,0.0206
3425.00,0.0209
3424.00,0.0212
3423.00,0.0215
3422.00,0.0219
3421.00,0.0222
3420.00,0.0226
3419.00,0.0229
3418.00,0.0233
3417.00,0.0236
3416.00,0.0239
3415.00,0.0242
3414.00,0.0245
3413.00,0.0248
3412.00,0.0250
3411.00,0.0253
3410.00,0.0256
3409.00,0.0258
3408.00,0.0260
3407.00,0.0262
3406.00,0.0264
3405.00,0.0265
3404.00,0.0267
3403.00,0.0269
3402.00,0.0270
3401.00,0.0271
3400.00,0.0272
3399.00,0.0272
3398.00,0.0272
3397.00,0.0272
3396.00,0.0272
3395.00,0.0271
3394.00,0.0271
3393.00,0.0270
3392.00,0.0269
3391.00,0.0269
3390.00,0.0268
3389.00,0.0266
3388.00,0.0264
3387.00,0.0263
3386.00,0.0261
3385.00,0.0259
3384.00,0.0257
3383.00,0.0255
3382.00,0.0253
3381.00,0.0251
3380.00,0.0249
3379.00,0.0248
3378.00,0.0246
3377.00,0.0244
3376.00,0.0241
3375.00,0.0239
3374.00,0.0237
3373.00,0.0235
3372.00,0.0233
3371.00,0.0232
3370.00,0.0230
3369.00,0.0228
3368.00,0.0226
3367.00,0.0224
3366.00,0.0222
3365.00,0.0220
3364.00,0.0218
3363.00,0.0217
3362.00,0.0215
3361.00,0.0214
3360.00,0.0212
3359.00,0.0211
3358.00,0.0209
3357.00,0.0208
3356.00,0.0206
3355.00,0.0205
3354.00,0.0204
3353.00,0.0204
3352.00,0.0203
3351.00,0.0202
3350.00,0.0201
3349.00,0.0200
3348.00,0.0199
3347.00,0.0198
3346.00,0.0197
3345.00,0.0196
3344.00,0.0196
3343.00,0.0195
3342.00,0.0195
3341.00,0.0194
3340.00,0.0193
3339.00,0.0193
3338.00,0.0192
3337.00,0.0192
3336.00,0.0191
3335.00,0.0191
3334.00,0.0191
3333.00,0.0191
3332.00,0.0191
3331.00,0.0191
3330.00,0.0191
3329.00,0.0191
3328.00,0.0191
3327.00,0.0191
3326.00,0.0191
3325.00,0.0191
3324.00,0.0191
3323.00,0.0192
3322.00,0.0192
3321.00,0.0192
3320.00,0.0192
3319.00,0.0193
3318.00,0.0193
3317.00,0.0194
3316.00,0.0194
3315.00,0.0195
3314.00,0.0195
3313.00,0.0196
3312.00,0.0197
3311.00,0.0198
3310.00,0.0199
3309.00,0.0200
3308.00,0.0201
3307.00,0.0201
3306.00,0.0202
3305.00,0.0203
3304.00,0.0203
3303.00,0.0204
3302.00,0.0205
3301.00,0.0206
3300.00,0.0207
3299.00,0.0208
3298.00,0.0209
3297.00,0.0210
3296.00,0.0211
3295.00,0.0212
3294.00,0.0213
3293.00,0.0214
3292.00,0.0215
3291.00,0.0216
3290.00,0.0217
3289.00,0.0218
3288.00,0.0219
3287.00,0.0221
3286.00,0.0222
3285.00,0.0223
3284.00,0.0225
3283.00,0.0226
3282.00,0.0228
3281.00,0.0229
3280.00,0.0230
3279.00,0.0232
3278.00,0.0233
3277.00,0.0234
3276.00,0.0236
3275.00,0.0237
3274.00,0.0238
3273.00,0.0240
3272.00,0.0241
3271.00,0.0242
3270.00,0.0243
3269.00,0.0245
3268.00,0.0246
3267.00,0.0247
3266.00,0.0248
3265.00,0.0249
3264.00,0.0251
3263.00,0.0252
3262.00,0.0254
3261.00,0.0255
3260.00,0.0257
3259.00,0.0258
3258.00,0.0259
3257.00,0.0261
3256.00,0.0262
3255.00,0.0264
3254.00,0.0266
3253.00,0.0267
3252.00,0.0269
3251.00,0.0270
3250.00,0.0271
3249.00,0.0271
3248.00,0.0272
3247.00,0.0274
3246.00,0.0275
3245.00,0.0277
3244.00,0.0278
3243.00,0.0279
3242.00,0.0280
3241.00,0.0281
3240.00,0.0282
3239.00,0.0282
3238.00,0.0282
3237.00,0.0282
3236.00,0.0282
3235.00,0.0282
3234.00,0.0282
3233.00,0.0282
3232.00,0.0283
3231.00,0.0284
3230.00,0.0284
3229.00,0.0285
3228.00,0.0285
3227.00,0.0285
3226.00,0.0286
3225.00,0.0286
3224.00,0.0286
3223.00,0.0286
3222.00,0.0286
3221.00,0.0285
3220.00,0.0284
3219.00,0.0284
3218.00,0.0283
3217.00,0.0282
3216.00,0.0281
3215.00,0.0281
3214.00,0.0280
3213.00,0.0279
3212.00,0.0279
3211.00,0.0278
3210.00,0.0277
3209.00,0.0275
3208.00,0.0274
3207.00,0.0273
3206.00,0.0271
3205.00,0.0270
3204.00,0.0269
3203.00,0.0268
3202.00,0.0267
3201.00,0.0265
3200.00,0.0263
3199.00,0.0262
3198.00,0.0260
3197.00,0.0258
3196.00,0.0256
3195.00,0.0255
3194.00,0.0253
3193.00,0.0251
3192.00,0.0250
3191.00,0.0249
3190.00,0.0247
3189.00,0.0245
3188.00,0.0244
3187.00,0.0242
3186.00,0.0240
3185.00,0.0238
3184.00,0.0237
3183.00,0.0236
3182.00,0.0234
3181.00,0.0232
3180.00,0.0230
3179.00,0.0228
3178.00,0.0226
3177.00,0.0225
3176.00,0.0223
3175.00,0.0221
3174.00,0.0219
3173.00,0.0217
3172.00,0.0215
3171.00,0.0214
3170.00,0.0212
3169.00,0.0210
3168.00,0.0208
3167.00,0.0206
3166.00,0.0205
3165.00,0.0203
3164.00,0.0201
3163.00,0.0199
3162.00,0.0197
3161.00,0.0195
3160.00,0.0193
3159.00,0.0191
3158.00,0.0189
3157.00,0.0187
3156.00,0.0185
3155.00,0.0182
3154.00,0.0180
3153.00,0.0178
3152.00,0.0177
3151.00,0.0175
3150.00,0.0174
3149.00,0.0173
3148.00,0.0172
3147.00,0.0170
3146.00,0.0169
3145.00,0.0167
3144.00,0.0165
3143.00,0.0163
3142.00,0.0161
3141.00,0.0159
3140.00,0.0158
3139.00,0.0157
3138.00,0.0156
3137.00,0.0155
3136.00,0.0154
3135.00,0.0152
3134.00,0.0151
3133.00,0.0149
3132.00,0.0148
3131.00,0.0147
3130.00,0.0146
3129.00,0.0145
3128.00,0.0144
3127.00,0.0143
3126.00,0.0142
3125.00,0.0141
3124.00,0.0141
3123.00,0.0140
3122.00,0.0139
3121.00,0.0138
3120.00,0.0137
3119.00,0.0136
3118.00,0.0135
3117.00,0.0134
3116.00,0.0133
3115.00,0.0131
3114.00,0.0130
3113.00,0.0129
3112.00,0.0128
3111.00,0.0126
3110.00,0.0125
3109.00,0.0124
3108.00,0.0123
3107.00,0.0122
3106.00,0.0121
3105.00,0.0120
3104.00,0.0119
3103.00,0.0118
3102.00,0.0117
3101.00,0.0116
3100.00,0.0116
3099.00,0.0115
3098.00,0.0115
3097.00,0.0114
3096.00,0.0114
3095.00,0.0114
3094.00,0.0114
3093.00,0.0114
3092.00,0.0115
3091.00,0.0115
3090.00,0.0116
3089.00,0.0117
3088.00,0.0117
3087.00,0.0117
3086.00,0.0117
3085.00,0.0117
3084.00,0.0117
3083.00,0.0117
3082.00,0.0116
3081.00,0.0116
3080.00,0.0115
3079.00,0.0114
3078.00,0.0114
3077.00,0.0113
3076.00,0.0113
3075.00,0.0112
3074.00,0.0112
3073.00,0.0112
3072.00,0.0111
3071.00,0.0111
3070.00,0.0111
3069.00,0.0110
3068.00,0.0110
3067.00,0.0110
3066.00,0.0110
3065.00,0.0110
3064.00,0.0110
3063.00,0.0111
3062.00,0.0111
3061.00,0.0112
3060.00,0.0112
3059.00,0.0112
3058.00,0.0113
3057.00,0.0113
3056.00,0.0113
3055.00,0.0113
3054.00,0.0113
3053.00,0.0113
3052.00,0.0113
3051.00,0.0112
3050.00,0.0112
3049.00,0.0111
3048.00,0.0111
3047.00,0.0111
3046.00,0.0111
3045.00,0.0110
3044.00,0.0110
3043.00,0.0111
3042.00,0.0111
3041.00,0.0112
3040.00,0.0113
3039.00,0.0115
3038.00,0.0116
3037.00,0.0118
3036.00,0.0119
3035.00,0.0121
3034.00,0.0121
3033.00,0.0122
3032.00,0.0121
3031.00,0.0121
3030.00,0.0120
3029.00,0.0119
3028.00,0.0117
3027.00,0.0115
3026.00,0.0113
3025.00,0.0111
3024.00,0.0110
3023.00,0.0108
3022.00,0.0107
3021.00,0.0105
3020.00,0.0104
3019.00,0.0103
3018.00,0.0102
3017.00,0.0101
3016.00,0.0101
3015.00,0.0101
3014.00,0.0100
3013.00,0.0100
3012.00,0.0101
3011.00,0.0101
3010.00,0.0102
3009.00,0.0103
3008.00,0.0104
3007.00,0.0106
3006.00,0.0108
3005.00,0.0111
3004.00,0.0114
3003.00,0.0117
3002.00,0.0120
3001.00,0.0125
3000.00,0.0129
2999.00,0.0134
2998.00,0.0140
2997.00,0.0146
2996.00,0.0152
2995.00,0.0157
2994.00,0.0162
2993.00,0.0165
2992.00,0.0169
2991.00,0.0171
2990.00,0.0174
2989.00,0.0177
2988.00,0.0180
2987.00,0.0185
2986.00,0.0191
2985.00,0.0198
2984.00,0.0208
2983.00,0.0219
2982.00,0.0232
2981.00,0.0245
2980.00,0.0256
2979.00,0.0264
2978.00,0.0269
2977.00,0.0272
2976.00,0.0276
2975.00,0.0283
2974.00,0.0294
2973.00,0.0308
2972.00,0.0324
2971.00,0.0338
2970.00,0.0348
2969.00,0.0356
2968.00,0.0361
2967.00,0.0365
2966.00,0.0370
2965.00,0.0377
2964.00,0.0385
2963.00,0.0392
2962.00,0.0399
2961.00,0.0402
2960.00,0.0402
2959.00,0.0397
2958.00,0.0389
2957.00,0.0377
2956.00,0.0363
2955.00,0.0348
2954.00,0.0334
2953.00,0.0321
2952.00,0.0310
2951.00,0.0301
2950.00,0.0295
2949.00,0.0291
2948.00,0.0291
2947.00,0.0293
2946.00,0.0298
2945.00,0.0305
2944.00,0.0313
2943.00,0.0323
2942.00,0.0335
2941.00,0.0348
2940.00,0.0363
2939.00,0.0380
2938.00,0.0400
2937.00,0.0423
2936.00,0.0449
2935.00,0.0477
2934.00,0.0506
2933.00,0.0536
2932.00,0.0566
2931.00,0.0594
2930.00,0.0619
2929.00,0.0640
2928.00,0.0655
2927.00,0.0664
2926.00,0.0666
2925.00,0.0662
2924.00,0.0653
2923.00,0.0640
2922.00,0.0624
2921.00,0.0606
2920.00,0.0587
2919.00,0.0566
2918.00,0.0546
2917.00,0.0526
2916.00,0.0506
2915.00,0.0487
2914.00,0.0469
2913.00,0.0452
2912.00,0.0437
2911.00,0.0423
2910.00,0.0411
2909.00,0.0399
2908.00,0.0388
2907.00,0.0377
2906.00,0.0367
2905.00,0.0358
2904.00,0.0348
2903.00,0.0340
2902.00,0.0331
2901.00,0.0323
2900.00,0.0314
2899.00,0.0307
2898.00,0.0299
2897.00,0.0293
2896.00,0.0287
2895.00,0.0281
2894.00,0.0276
2893.00,0.0271
2892.00,0.0266
2891.00,0.0262
2890.00,0.0257
2889.00,0.0253
2888.00,0.0249
2887.00,0.0245
2886.00,0.0242
2885.00,0.0239
2884.00,0.0237
2883.00,0.0237
2882.00,0.0238
2881.00,0.0240
2880.00,0.0245
2879.00,0.0251
2878.00,0.0260
2877.00,0.0269
2876.00,0.0280
2875.00,0.0290
2874.00,0.0298
2873.00,0.0304
2872.00,0.0307
2871.00,0.0307
2870.00,0.0306
2869.00,0.0304
2868.00,0.0303
2867.00,0.0304
2866.00,0.0308
2865.00,0.0316
2864.00,0.0329
2863.00,0.0346
2862.00,0.0367
2861.00,0.0391
2860.00,0.0416
2859.00,0.0440
2858.00,0.0460
2857.00,0.0474
2856.00,0.0484
2855.00,0.0488
2854.00,0.0489
2853.00,0.0486
2852.00,0.0478
2851.00,0.0466
2850.00,0.0448
2849.00,0.0426
2848.00,0.0400
2847.00,0.0374
2846.00,0.0349
2845.00,0.0325
2844.00,0.0304
2843.00,0.0285
2842.00,0.0268
2841.00,0.0253
2840.00,0.0239
2839.00,0.0228
2838.00,0.0218
2837.00,0.0210
2836.00,0.0203
2835.00,0.0197
2834.00,0.0191
2833.00,0.0186
2832.00,0.0181
2831.00,0.0177
2830.00,0.0172
2829.00,0.0169
2828.00,0.0165
2827.00,0.0162
2826.00,0.0159
2825.00,0.0156
2824.00,0.0153
2823.00,0.0151
2822.00,0.0149
2821.00,0.0146
2820.00,0.0145
2819.00,0.0143
2818.00,0.0141
2817.00,0.0139
2816.00,0.0138
2815.00,0.0136
2814.00,0.0135
2813.00,0.0134
2812.00,0.0132
2811.00,0.0131
2810.00,0.0130
2809.00,0.0129
2808.00,0.0128
2807.00,0.0127
2806.00,0.0127
2805.00,0.0126
2804.00,0.0125
2803.00,0.0124
2802.00,0.0123
2801.00,0.0122
2800.00,0.0121
2799.00,0.0120
2798.00,0.0119
2797.00,0.0118
2796.00,0.0117
2795.00,0.0117
2794.00,0.0116
2793.00,0.0115
2792.00,0.0114
2791.00,0.0113
2790.00,0.0112
2789.00,0.0111
2788.00,0.0111
2787.00,0.0110
2786.00,0.0110
2785.00,0.0109
2784.00,0.0108
2783.00,0.0107
2782.00,0.0107
2781.00,0.0106
2780.00,0.0105
2779.00,0.0105
2778.00,0.0104
2777.00,0.0104
2776.00,0.0103
2775.00,0.0103
2774.00,0.0103
2773.00,0.0102
2772.00,0.0102
2771.00,0.0102
2770.00,0.0102
2769.00,0.0101
2768.00,0.0101
2767.00,0.0101
2766.00,0.0101
2765.00,0.0101
2764.00,0.0101
2763.00,0.0101
2762.00,0.0101
2761.00,0.0101
2760.00,0.0101
2759.00,0.0101
2758.00,0.0101
2757.00,0.0101
2756.00,0.0101
2755.00,0.0101
2754.00,0.0101
2753.00,0.0101
2752.00,0.0101
2751.00,0.0101
2750.00,0.0101
2749.00,0.0101
2748.00,0.0101
2747.00,0.0101
2746.00,0.0101
2745.00,0.0102
2744.00,0.0102
2743.00,0.0103
2742.00,0.0103
2741.00,0.0103
2740.00,0.0104
2739.00,0.0104
2738.00,0.0105
2737.00,0.0106
2736.00,0.0107
2735.00,0.0108
2734.00,0.0109
2733.00,0.0110
2732.00,0.0111
2731.00,0.0111
2730.00,0.0112
2729.00,0.0112
2728.00,0.0112
2727.00,0.0111
2726.00,0.0110
2725.00,0.0110
2724.00,0.0109
2723.00,0.0108
2722.00,0.0108
2721.00,0.0107
2720.00,0.0107
2719.00,0.0106
2718.00,0.0106
2717.00,0.0105
2716.00,0.0104
2715.00,0.0104
2714.00,0.0103
2713.00,0.0103
2712.00,0.0103
2711.00,0.0103
2710.00,0.0102
2709.00,0.0102
2708.00,0.0102
2707.00,0.0102
2706.00,0.0102
2705.00,0.0102
2704.00,0.0102
2703.00,0.0102
2702.00,0.0101
2701.00,0.0101
2700.00,0.0101
2699.00,0.0101
2698.00,0.0100
2697.00,0.0100
2696.00,0.0099
2695.00,0.0099
2694.00,0.0099
2693.00,0.0098
2692.00,0.0098
2691.00,0.0098
2690.00,0.0097
2689.00,0.0097
2688.00,0.0097
2687.00,0.0096
2686.00,0.0096
2685.00,0.0096
2684.00,0.0095
2683.00,0.0095
2682.00,0.0095
2681.00,0.0095
2680.00,0.0094
2679.00,0.0094
2678.00,0.0094
2677.00,0.0095
2676.00,0.0095
2675.00,0.0095
2674.00,0.0095
2673.00,0.0095
2672.00,0.0096
2671.00,0.0096
2670.00,0.0096
2669.00,0.0097
2668.00,0.0098
2667.00,0.0098
2666.00,0.0099
2665.00,0.0099
2664.00,0.0100
2663.00,0.0101
2662.00,0.0101
2661.00,0.0102
2660.00,0.0103
2659.00,0.0103
2658.00,0.0103
2657.00,0.0103
2656.00,0.0104
2655.00,0.0104
2654.00,0.0104
2653.00,0.0104
2652.00,0.0104
2651.00,0.0104
2650.00,0.0104
2649.00,0.0104
2648.00,0.0103
2647.00,0.0103
2646.00,0.0103
2645.00,0.0103
2644.00,0.0103
2643.00,0.0103
2642.00,0.0103
2641.00,0.0102
2640.00,0.0102
2639.00,0.0101
2638.00,0.0101
2637.00,0.0100
2636.00,0.0100
2635.00,0.0099
2634.00,0.0099
2633.00,0.0098
2632.00,0.0097
2631.00,0.0097
2630.00,0.0096
2629.00,0.0096
2628.00,0.0095
2627.00,0.0095
2626.00,0.0095
2625.00,0.0094
2624.00,0.0094
2623.00,0.0094
2622.00,0.0093
2621.00,0.0093
2620.00,0.0092
2619.00,0.0092
2618.00,0.0092
2617.00,0.0092
2616.00,0.0092
2615.00,0.0092
2614.00,0.0093
2613.00,0.0093
2612.00,0.0093
2611.00,0.0092
2610.00,0.0092
2609.00,0.0092
2608.00,0.0092
2607.00,0.0093
2606.00,0.0093
2605.00,0.0093
2604.00,0.0093
2603.00,0.0093
2602.00,0.0094
2601.00,0.0094
2600.00,0.0095
2599.00,0.0095
2598.00,0.0095
2597.00,0.0095
2596.00,0.0095
2595.00,0.0095
2594.00,0.0095
2593.00,0.0095
2592.00,0.0095
2591.00,0.0095
2590.00,0.0095
2589.00,0.0095
2588.00,0.0095
2587.00,0.0095
2586.00,0.0095
2585.00,0.0095
2584.00,0.0095
2583.00,0.0095
2582.00,0.0095
2581.00,0.0094
2580.00,0.0094
2579.00,0.0093
2578.00,0.0093
2577.00,0.0092
2576.00,0.0092
2575.00,0.0092
2574.00,0.0092
2573.00,0.0091
2572.00,0.0091
2571.00,0.0091
2570.00,0.0092
2569.00,0.0092
2568.00,0.0092
2567.00,0.0092
2566.00,0.0092
2565.00,0.0092
2564.00,0.0092
2563.00,0.0091
2562.00,0.0091
2561.00,0.0090
2560.00,0.0090
2559.00,0.0089
2558.00,0.0089
2557.00,0.0088
2556.00,0.0088
2555.00,0.0087
2554.00,0.0087
2553.00,0.0087
2552.00,0.0087
2551.00,0.0086
2550.00,0.0086
2549.00,0.0086
2548.00,0.0086
2547.00,0.0086
2546.00,0.0086
2545.00,0.0086
2544.00,0.0086
2543.00,0.0086
2542.00,0.0086
2541.00,0.0086
2540.00,0.0086
2539.00,0.0087
2538.00,0.0087
2537.00,0.0087
2536.00,0.0086
2535.00,0.0086
2534.00,0.0086
2533.00,0.0086
2532.00,0.0086
2531.00,0.0085
2530.00,0.0085
2529.00,0.0085
2528.00,0.0085
2527.00,0.0084
2526.00,0.0084
2525.00,0.0084
2524.00,0.0083
2523.00,0.0083
2522.00,0.0083
2521.00,0.0083
2520.00,0.0083
2519.00,0.0083
2518.00,0.0083
2517.00,0.0083
2516.00,0.0082
2515.00,0.0082
2514.00,0.0081
2513.00,0.0081
2512.00,0.0080
2511.00,0.0080
2510.00,0.0080
2509.00,0.0080
2508.00,0.0080
2507.00,0.0079
2506.00,0.0079
2505.00,0.0079
2504.00,0.0079
2503.00,0.0079
2502.00,0.0079
2501.00,0.0078
2500.00,0.0078
2499.00,0.0078
2498.00,0.0078
2497.00,0.0077
2496.00,0.0077
2495.00,0.0077
2494.00,0.0077
2493.00,0.0077
2492.00,0.0077
2491.00,0.0077
2490.00,0.0076
2489.00,0.0076
2488.00,0.0076
2487.00,0.0076
2486.00,0.0076
2485.00,0.0076
2484.00,0.0076
2483.00,0.0076
2482.00,0.0076
2481.00,0.0076
2480.00,0.0077
2479.00,0.0076
2478.00,0.0076
2477.00,0.0076
2476.00,0.0076
2475.00,0.0075
2474.00,0.0075
2473.00,0.0075
2472.00,0.0075
2471.00,0.0075
2470.00,0.0075
2469.00,0.0075
2468.00,0.0074
2467.00,0.0074
2466.00,0.0074
2465.00,0.0074
2464.00,0.0074
2463.00,0.0074
2462.00,0.0074
2461.00,0.0075
2460.00,0.0075
2459.00,0.0075
2458.00,0.0076
2457.00,0.0076
2456.00,0.0076
2455.00,0.0076
2454.00,0.0076
2453.00,0.0075
2452.00,0.0075
2451.00,0.0075
2450.00,0.0075
2449.00,0.0075
2448.00,0.0074
2447.00,0.0074
2446.00,0.0073
2445.00,0.0073
2444.00,0.0072
2443.00,0.0072
2442.00,0.0073
2441.00,0.0073
2440.00,0.0073
2439.00,0.0072
2438.00,0.0072
2437.00,0.0072
2436.00,0.0072
2435.00,0.0072
2434.00,0.0071
2433.00,0.0071
2432.00,0.0071
2431.00,0.0071
2430.00,0.0071
2429.00,0.0071
2428.00,0.0071
2427.00,0.0070
2426.00,0.0070
2425.00,0.0070
2424.00,0.0070
2423.00,0.0069
2422.00,0.0069
2421.00,0.0069
2420.00,0.0069
2419.00,0.0069
2418.00,0.0069
2417.00,0.0069
2416.00,0.0069
2415.00,0.0069
2414.00,0.0069
2413.00,0.0069
2412.00,0.0069
2411.00,0.0069
2410.00,0.0069
2409.00,0.0069
2408.00,0.0068
2407.00,0.0068
2406.00,0.0068
2405.00,0.0067
2404.00,0.0068
2403.00,0.0068
2402.00,0.0068
2401.00,0.0068
2400.00,0.0068
2399.00,0.0068
2398.00,0.0068
2397.00,0.0068
2396.00,0.0068
2395.00,0.0068
2394.00,0.0067
2393.00,0.0067
2392.00,0.0067
2391.00,0.0067
2390.00,0.0067
2389.00,0.0067
2388.00,0.0066
2387.00,0.0066
2386.00,0.0066
2385.00,0.0065
2384.00,0.0064
2383.00,0.0064
2382.00,0.0063
2381.00,0.0063
2380.00,0.0063
2379.00,0.0063
2378.00,0.0063
2377.00,0.0064
2376.00,0.0064
2375.00,0.0064
2374.00,0.0064
2373.00,0.0064
2372.00,0.0064
2371.00,0.0064
2370.00,0.0064
2369.00,0.0063
2368.00,0.0062
2367.00,0.0062
2366.00,0.0062
2365.00,0.0062
2364.00,0.0063
2363.00,0.0063
2362.00,0.0064
2361.00,0.0064
2360.00,0.0064
2359.00,0.0064
2358.00,0.0065
2357.00,0.0065
2356.00,0.0066
2355.00,0.0065
2354.00,0.0065
2353.00,0.0064
2352.00,0.0064
2351.00,0.0064
2350.00,0.0065
2349.00,0.0065
2348.00,0.0065
2347.00,0.0065
2346.00,0.0065
2345.00,0.0066
2344.00,0.0066
2343.00,0.0066
2342.00,0.0067
2341.00,0.0067
2340.00,0.0067
2339.00,0.0067
2338.00,0.0067
2337.00,0.0067
2336.00,0.0067
2335.00,0.0067
2334.00,0.0066
2333.00,0.0066
2332.00,0.0065
2331.00,0.0065
2330.00,0.0066
2329.00,0.0069
2328.00,0.0072
2327.00,0.0076
2326.00,0.0079
2325.00,0.0080
2324.00,0.0079
2323.00,0.0077
2322.00,0.0075
2321.00,0.0073
2320.00,0.0073
2319.00,0.0072
2318.00,0.0072
2317.00,0.0071
2316.00,0.0069
2315.00,0.0068
2314.00,0.0067
2313.00,0.0066
2312.00,0.0065
2311.00,0.0065
2310.00,0.0065
2309.00,0.0066
2308.00,0.0066
2307.00,0.0067
2306.00,0.0067
2305.00,0.0068
2304.00,0.0068
2303.00,0.0067
2302.00,0.0067
2301.00,0.0067
2300.00,0.0068
2299.00,0.0068
2298.00,0.0069
2297.00,0.0070
2296.00,0.0071
2295.00,0.0072
2294.00,0.0073
2293.00,0.0074
2292.00,0.0074
2291.00,0.0075
2290.00,0.0075
2289.00,0.0076
2288.00,0.0076
2287.00,0.0077
2286.00,0.0076
2285.00,0.0076
2284.00,0.0075
2283.00,0.0074
2282.00,0.0073
2281.00,0.0073
2280.00,0.0072
2279.00,0.0071
2278.00,0.0070
2277.00,0.0070
2276.00,0.0069
2275.00,0.0068
2274.00,0.0068
2273.00,0.0067
2272.00,0.0066
2271.00,0.0066
2270.00,0.0066
2269.00,0.0065
2268.00,0.0065
2267.00,0.0064
2266.00,0.0063
2265.00,0.0063
2264.00,0.0063
2263.00,0.0063
2262.00,0.0063
2261.00,0.0063
2260.00,0.0063
2259.00,0.0062
2258.00,0.0060
2257.00,0.0059
2256.00,0.0058
2255.00,0.0057
2254.00,0.0057
2253.00,0.0058
2252.00,0.0059
2251.00,0.0060
2250.00,0.0061
2249.00,0.0062
2248.00,0.0062
2247.00,0.0062
2246.00,0.0062
2245.00,0.0062
2244.00,0.0061
2243.00,0.0061
2242.00,0.0061
2241.00,0.0061
2240.00,0.0061
2239.00,0.0061
2238.00,0.0061
2237.00,0.0062
2236.00,0.0062
2235.00,0.0063
2234.00,0.0063
2233.00,0.0063
2232.00,0.0062
2231.00,0.0061
2230.00,0.0062
2229.00,0.0062
2228.00,0.0062
2227.00,0.0062
2226.00,0.0061
2225.00,0.0061
2224.00,0.0062
2223.00,0.0062
2222.00,0.0062
2221.00,0.0062
2220.00,0.0061
2219.00,0.0060
2218.00,0.0059
2217.00,0.0058
2216.00,0.0059
2215.00,0.0060
2214.00,0.0061
2213.00,0.0062
2212.00,0.0062
2211.00,0.0062
2210.00,0.0062
2209.00,0.0062
2208.00,0.0061
2207.00,0.0060
2206.00,0.0060
2205.00,0.0059
2204.00,0.0059
2203.00,0.0059
2202.00,0.0059
2201.00,0.0059
2200.00,0.0058
2199.00,0.0058
2198.00,0.0057
2197.00,0.0057
2196.00,0.0058
2195.00,0.0060
2194.00,0.0061
2193.00,0.0062
2192.00,0.0062
2191.00,0.0062
2190.00,0.0062
2189.00,0.0063
2188.00,0.0063
2187.00,0.0062
2186.00,0.0062
2185.00,0.0061
2184.00,0.0060
2183.00,0.0059
2182.00,0.0058
2181.00,0.0058
2180.00,0.0060
2179.00,0.0060
2178.00,0.0059
2177.00,0.0057
2176.00,0.0055
2175.00,0.0055
2174.00,0.0056
2173.00,0.0058
2172.00,0.0061
2171.00,0.0062
2170.00,0.0064
2169.00,0.0064
2168.00,0.0065
2167.00,0.0065
2166.00,0.0066
2165.00,0.0068
2164.00,0.0070
2163.00,0.0069
2162.00,0.0063
2161.00,0.0050
2160.00,0.0035
2159.00,0.0024
2158.00,0.0021
2157.00,0.0023
2156.00,0.0027
2155.00,0.0030
2154.00,0.0032
2153.00,0.0034
2152.00,0.0036
2151.00,0.0037
2150.00,0.0038
2149.00,0.0037
2148.00,0.0035
2147.00,0.0034
2146.00,0.0033
2145.00,0.0034
2144.00,0.0036
2143.00,0.0037
2142.00,0.0038
2141.00,0.0038
2140.00,0.0038
2139.00,0.0037
2138.00,0.0035
2137.00,0.0033
2136.00,0.0032
2135.00,0.0031
2134.00,0.0031
2133.00,0.0032
2132.00,0.0034
2131.00,0.0036
2130.00,0.0038
2129.00,0.0039
2128.00,0.0040
2127.00,0.0041
2126.00,0.0043
2125.00,0.0044
2124.00,0.0045
2123.00,0.0045
2122.00,0.0046
2121.00,0.0047
2120.00,0.0048
2119.00,0.0049
2118.00,0.0051
2117.00,0.0053
2116.00,0.0053
2115.00,0.0053
2114.00,0.0052
2113.00,0.0051
2112.00,0.0050
2111.00,0.0050
2110.00,0.0050
2109.00,0.0050
2108.00,0.0050
2107.00,0.0050
2106.00,0.0050
2105.00,0.0050
2104.00,0.0049
2103.00,0.0049
2102.00,0.0048
2101.00,0.0048
2100.00,0.0048
2099.00,0.0048
2098.00,0.0047
2097.00,0.0046
2096.00,0.0045
2095.00,0.0045
2094.00,0.0045
2093.00,0.0046
2092.00,0.0047
2091.00,0.0047
2090.00,0.0047
2089.00,0.0047
2088.00,0.0047
2087.00,0.0048
2086.00,0.0048
2085.00,0.0049
2084.00,0.0050
2083.00,0.0050
2082.00,0.0051
2081.00,0.0051
2080.00,0.0051
2079.00,0.0052
2078.00,0.0052
2077.00,0.0053
2076.00,0.0053
2075.00,0.0052
2074.00,0.0052
2073.00,0.0052
2072.00,0.0051
2071.00,0.0051
2070.00,0.0051
2069.00,0.0051
2068.00,0.0051
2067.00,0.0051
2066.00,0.0051
2065.00,0.0051
2064.00,0.0050
2063.00,0.0050
2062.00,0.0050
2061.00,0.0049
2060.00,0.0049
2059.00,0.0049
2058.00,0.0049
2057.00,0.0048
2056.00,0.0047
2055.00,0.0047
2054.00,0.0049
2053.00,0.0052
2052.00,0.0055
2051.00,0.0055
2050.00,0.0052
2049.00,0.0049
2048.00,0.0047
2047.00,0.0047
2046.00,0.0047
2045.00,0.0048
2044.00,0.0048
2043.00,0.0049
2042.00,0.0049
2041.00,0.0049
2040.00,0.0049
2039.00,0.0050
2038.00,0.0051
2037.00,0.0050
2036.00,0.0049
2035.00,0.0047
2034.00,0.0046
2033.00,0.0044
2032.00,0.0043
2031.00,0.0042
2030.00,0.0041
2029.00,0.0041
2028.00,0.0043
2027.00,0.0044
2026.00,0.0045
2025.00,0.0045
2024.00,0.0044
2023.00,0.0044
2022.00,0.0043
2021.00,0.0044
2020.00,0.0045
2019.00,0.0046
2018.00,0.0047
2017.00,0.0047
2016.00,0.0045
2015.00,0.0042
2014.00,0.0040
2013.00,0.0038
2012.00,0.0039
2011.00,0.0040
2010.00,0.0039
2009.00,0.0038
2008.00,0.0035
2007.00,0.0032
2006.00,0.0031
2005.00,0.0032
2004.00,0.0034
2003.00,0.0035
2002.00,0.0037
2001.00,0.0038
2000.00,0.0040
1999.00,0.0042
1998.00,0.0044
1997.00,0.0045
1996.00,0.0047
1995.00,0.0048
1994.00,0.0050
1993.00,0.0050
1992.00,0.0050
1991.00,0.0048
1990.00,0.0047
1989.00,0.0047
1988.00,0.0048
1987.00,0.0049
1986.00,0.0051
1985.00,0.0053
1984.00,0.0055
1983.00,0.0058
1982.00,0.0060
1981.00,0.0060
1980.00,0.0057
1979.00,0.0050
1978.00,0.0044
1977.00,0.0040
1976.00,0.0039
1975.00,0.0039
1974.00,0.0040
1973.00,0.0040
1972.00,0.0040
1971.00,0.0040
1970.00,0.0040
1969.00,0.0039
1968.00,0.0040
1967.00,0.0040
1966.00,0.0041
1965.00,0.0041
1964.00,0.0042
1963.00,0.0041
1962.00,0.0039
1961.00,0.0037
1960.00,0.0036
1959.00,0.0036
1958.00,0.0037
1957.00,0.0038
1956.00,0.0038
1955.00,0.0038
1954.00,0.0038
1953.00,0.0038
1952.00,0.0039
1951.00,0.0040
1950.00,0.0040
1949.00,0.0041
1948.00,0.0041
1947.00,0.0042
1946.00,0.0042
1945.00,0.0042
1944.00,0.0042
1943.00,0.0041
1942.00,0.0041
1941.00,0.0042
1940.00,0.0042
1939.00,0.0043
1938.00,0.0044
1937.00,0.0044
1936.00,0.0045
1935.00,0.0045
1934.00,0.0045
1933.00,0.0046
1932.00,0.0046
1931.00,0.0046
1930.00,0.0046
1929.00,0.0046
1928.00,0.0046
1927.00,0.0045
1926.00,0.0045
1925.00,0.0046
1924.00,0.0047
1923.00,0.0048
1922.00,0.0049
1921.00,0.0050
1920.00,0.0051
1919.00,0.0051
1918.00,0.0051
1917.00,0.0051
1916.00,0.0052
1915.00,0.0053
1914.00,0.0054
1913.00,0.0057
1912.00,0.0060
1911.00,0.0065
1910.00,0.0069
1909.00,0.0072
1908.00,0.0073
1907.00,0.0071
1906.00,0.0068
1905.00,0.0064
1904.00,0.0060
1903.00,0.0057
1902.00,0.0056
1901.00,0.0055
1900.00,0.0055
1899.00,0.0055
1898.00,0.0055
1897.00,0.0056
1896.00,0.0057
1895.00,0.0059
1894.00,0.0060
1893.00,0.0060
1892.00,0.0059
1891.00,0.0057
1890.00,0.0055
1889.00,0.0054
1888.00,0.0053
1887.00,0.0052
1886.00,0.0052
1885.00,0.0052
1884.00,0.0051
1883.00,0.0051
1882.00,0.0050
1881.00,0.0050
1880.00,0.0050
1879.00,0.0051
1878.00,0.0051
1877.00,0.0050
1876.00,0.0050
1875.00,0.0050
1874.00,0.0050
1873.00,0.0051
1872.00,0.0051
1871.00,0.0051
1870.00,0.0050
1869.00,0.0050
1868.00,0.0050
1867.00,0.0051
1866.00,0.0051
1865.00,0.0051
1864.00,0.0051
1863.00,0.0051
1862.00,0.0051
1861.00,0.0052
1860.00,0.0052
1859.00,0.0052
1858.00,0.0052
1857.00,0.0052
1856.00,0.0052
1855.00,0.0053
1854.00,0.0053
1853.00,0.0053
1852.00,0.0053
1851.00,0.0054
1850.00,0.0055
1849.00,0.0056
1848.00,0.0058
1847.00,0.0058
1846.00,0.0059
1845.00,0.0059
1844.00,0.0059
1843.00,0.0058
1842.00,0.0056
1841.00,0.0055
1840.00,0.0053
1839.00,0.0052
1838.00,0.0051
1837.00,0.0051
1836.00,0.0051
1835.00,0.0050
1834.00,0.0050
1833.00,0.0050
1832.00,0.0050
1831.00,0.0050
1830.00,0.0050
1829.00,0.0050
1828.00,0.0050
1827.00,0.0051
1826.00,0.0051
1825.00,0.0051
1824.00,0.0051
1823.00,0.0051
1822.00,0.0050
1821.00,0.0050
1820.00,0.0049
1819.00,0.0048
1818.00,0.0047
1817.00,0.0046
1816.00,0.0046
1815.00,0.0047
1814.00,0.0048
1813.00,0.0049
1812.00,0.0049
1811.00,0.0049
1810.00,0.0049
1809.00,0.0049
1808.00,0.0050
1807.00,0.0050
1806.00,0.0050
1805.00,0.0051
1804.00,0.0051
1803.00,0.0052
1802.00,0.0052
1801.00,0.0052
1800.00,0.0052
1799.00,0.0053
1798.00,0.0054
1797.00,0.0055
1796.00,0.0055
1795.00,0.0056
1794.00,0.0056
1793.00,0.0056
1792.00,0.0056
1791.00,0.0056
1790.00,0.0055
1789.00,0.0055
1788.00,0.0054
1787.00,0.0054
1786.00,0.0054
1785.00,0.0053
1784.00,0.0053
1783.00,0.0053
1782.00,0.0052
1781.00,0.0052
1780.00,0.0053
1779.00,0.0053
1778.00,0.0054
1777.00,0.0056
1776.00,0.0057
1775.00,0.0058
1774.00,0.0060
1773.00,0.0060
1772.00,0.0061
1771.00,0.0060
1770.00,0.0060
1769.00,0.0059
1768.00,0.0059
1767.00,0.0057
1766.00,0.0056
1765.00,0.0056
1764.00,0.0056
1763.00,0.0057
1762.00,0.0059
1761.00,0.0060
1760.00,0.0061
1759.00,0.0060
1758.00,0.0059
1757.00,0.0058
1756.00,0.0056
1755.00,0.0055
1754.00,0.0055
1753.00,0.0054
1752.00,0.0054
1751.00,0.0053
1750.00,0.0052
1749.00,0.0052
1748.00,0.0052
1747.00,0.0052
1746.00,0.0052
1745.00,0.0052
1744.00,0.0053
1743.00,0.0053
1742.00,0.0053
1741.00,0.0053
1740.00,0.0053
1739.00,0.0053
1738.00,0.0053
1737.00,0.0053
1736.00,0.0053
1735.00,0.0054
1734.00,0.0054
1733.00,0.0055
1732.00,0.0056
1731.00,0.0057
1730.00,0.0057
1729.00,0.0059
1728.00,0.0060
1727.00,0.0061
1726.00,0.0062
1725.00,0.0063
1724.00,0.0064
1723.00,0.0065
1722.00,0.0065
1721.00,0.0065
1720.00,0.0065
1719.00,0.0065
1718.00,0.0066
1717.00,0.0067
1716.00,0.0068
1715.00,0.0069
1714.00,0.0069
1713.00,0.0070
1712.00,0.0071
1711.00,0.0071
1710.00,0.0071
1709.00,0.0071
1708.00,0.0071
1707.00,0.0070
1706.00,0.0069
1705.00,0.0069
1704.00,0.0069
1703.00,0.0069
1702.00,0.0069
1701.00,0.0068
1700.00,0.0068
1699.00,0.0068
1698.00,0.0068
1697.00,0.0069
1696.00,0.0069
1695.00,0.0070
1694.00,0.0069
1693.00,0.0069
1692.00,0.0069
1691.00,0.0069
1690.00,0.0069
1689.00,0.0068
1688.00,0.0068
1687.00,0.0068
1686.00,0.0068
1685.00,0.0067
1684.00,0.0067
1683.00,0.0066
1682.00,0.0066
1681.00,0.0066
1680.00,0.0066
1679.00,0.0066
1678.00,0.0066
1677.00,0.0066
1676.00,0.0067
1675.00,0.0067
1674.00,0.0067
1673.00,0.0066
1672.00,0.0066
1671.00,0.0066
1670.00,0.0066
1669.00,0.0066
1668.00,0.0067
1667.00,0.0068
1666.00,0.0068
1665.00,0.0068
1664.00,0.0069
1663.00,0.0069
1662.00,0.0070
1661.00,0.0070
1660.00,0.0070
1659.00,0.0071
1658.00,0.0071
1657.00,0.0071
1656.00,0.0072
1655.00,0.0072
1654.00,0.0072
1653.00,0.0073
1652.00,0.0074
1651.00,0.0075
1650.00,0.0075
1649.00,0.0076
1648.00,0.0078
1647.00,0.0081
1646.00,0.0085
1645.00,0.0089
1644.00,0.0093
1643.00,0.0098
1642.00,0.0102
1641.00,0.0106
1640.00,0.0110
1639.00,0.0114
1638.00,0.0117
1637.00,0.0122
1636.00,0.0134
1635.00,0.0151
1634.00,0.0170
1633.00,0.0192
1632.00,0.0220
1631.00,0.0255
1630.00,0.0300
1629.00,0.0358
1628.00,0.0428
1627.00,0.0498
1626.00,0.0561
1625.00,0.0615
1624.00,0.0668
1623.00,0.0715
1622.00,0.0746
1621.00,0.0759
1620.00,0.0757
1619.00,0.0741
1618.00,0.0709
1617.00,0.0663
1616.00,0.0620
1615.00,0.0594
1614.00,0.0585
1613.00,0.0587
1612.00,0.0596
1611.00,0.0606
1610.00,0.0608
1609.00,0.0600
1608.00,0.0580
1607.00,0.0552
1606.00,0.0517
1605.00,0.0480
1604.00,0.0444
1603.00,0.0409
1602.00,0.0377
1601.00,0.0349
1600.00,0.0326
1599.00,0.0308
1598.00,0.0295
1597.00,0.0287
1596.00,0.0285
1595.00,0.0289
1594.00,0.0301
1593.00,0.0321
1592.00,0.0349
1591.00,0.0386
1590.00,0.0430
1589.00,0.0477
1588.00,0.0525
1587.00,0.0569
1586.00,0.0605
1585.00,0.0632
1584.00,0.0648
1583.00,0.0654
1582.00,0.0649
1581.00,0.0637
1580.00,0.0621
1579.00,0.0602
1578.00,0.0578
1577.00,0.0549
1576.00,0.0516
1575.00,0.0488
1574.00,0.0466
1573.00,0.0449
1572.00,0.0435
1571.00,0.0422
1570.00,0.0410
1569.00,0.0398
1568.00,0.0386
1567.00,0.0372
1566.00,0.0353
1565.00,0.0330
1564.00,0.0307
1563.00,0.0287
1562.00,0.0269
1561.00,0.0253
1560.00,0.0233
1559.00,0.0212
1558.00,0.0198
1557.00,0.0189
1556.00,0.0183
1555.00,0.0178
1554.00,0.0173
1553.00,0.0168
1552.00,0.0164
1551.00,0.0161
1550.00,0.0159
1549.00,0.0156
1548.00,0.0153
1547.00,0.0151
1546.00,0.0149
1545.00,0.0146
1544.00,0.0143
1543.00,0.0141
1542.00,0.0139
1541.00,0.0136
1540.00,0.0134
1539.00,0.0133
1538.00,0.0132
1537.00,0.0131
1536.00,0.0129
1535.00,0.0127
1534.00,0.0125
1533.00,0.0124
1532.00,0.0123
1531.00,0.0122
1530.00,0.0122
1529.00,0.0122
1528.00,0.0123
1527.00,0.0124
1526.00,0.0126
1525.00,0.0128
1524.00,0.0130
1523.00,0.0132
1522.00,0.0137
1521.00,0.0143
1520.00,0.0149
1519.00,0.0154
1518.00,0.0160
1517.00,0.0168
1516.00,0.0177
1515.00,0.0186
1514.00,0.0193
1513.00,0.0199
1512.00,0.0204
1511.00,0.0208
1510.00,0.0210
1509.00,0.0210
1508.00,0.0210
1507.00,0.0210
1506.00,0.0213
1505.00,0.0216
1504.00,0.0220
1503.00,0.0226
1502.00,0.0237
1501.00,0.0255
1500.00,0.0285
1499.00,0.0326
1498.00,0.0376
1497.00,0.0421
1496.00,0.0447
1495.00,0.0448
1494.00,0.0429
1493.00,0.0400
1492.00,0.0365
1491.00,0.0327
1490.00,0.0290
1489.00,0.0261
1488.00,0.0237
1487.00,0.0220
1486.00,0.0206
1485.00,0.0194
1484.00,0.0186
1483.00,0.0178
1482.00,0.0173
1481.00,0.0169
1480.00,0.0167
1479.00,0.0166
1478.00,0.0166
1477.00,0.0168
1476.00,0.0171
1475.00,0.0175
1474.00,0.0183
1473.00,0.0200
1472.00,0.0226
1471.00,0.0259
1470.00,0.0295
1469.00,0.0335
1468.00,0.0375
1467.00,0.0409
1466.00,0.0431
1465.00,0.0438
1464.00,0.0433
1463.00,0.0423
1462.00,0.0415
1461.00,0.0412
1460.00,0.0411
1459.00,0.0412
1458.00,0.0412
1457.00,0.0408
1456.00,0.0400
1455.00,0.0390
1454.00,0.0382
1453.00,0.0377
1452.00,0.0376
1451.00,0.0378
1450.00,0.0383
1449.00,0.0389
1448.00,0.0397
1447.00,0.0407
1446.00,0.0419
1445.00,0.0433
1444.00,0.0450
1443.00,0.0467
1442.00,0.0484
1441.00,0.0498
1440.00,0.0509
1439.00,0.0519
1438.00,0.0528
1437.00,0.0543
1436.00,0.0561
1435.00,0.0581
1434.00,0.0600
1433.00,0.0619
1432.00,0.0637
1431.00,0.0652
1430.00,0.0662
1429.00,0.0666
1428.00,0.0662
1427.00,0.0651
1426.00,0.0635
1425.00,0.0617
1424.00,0.0597
1423.00,0.0578
1422.00,0.0561
1421.00,0.0544
1420.00,0.0527
1419.00,0.0507
1418.00,0.0489
1417.00,0.0474
1416.00,0.0462
1415.00,0.0452
1414.00,0.0447
1413.00,0.0445
1412.00,0.0449
1411.00,0.0460
1410.00,0.0477
1409.00,0.0499
1408.00,0.0528
1407.00,0.0562
1406.00,0.0604
1405.00,0.0650
1404.00,0.0696
1403.00,0.0735
1402.00,0.0763
1401.00,0.0782
1400.00,0.0792
1399.00,0.0788
1398.00,0.0771
1397.00,0.0745
1396.00,0.0709
1395.00,0.0666
1394.00,0.0621
1393.00,0.0581
1392.00,0.0549
1391.00,0.0525
1390.00,0.0512
1389.00,0.0514
1388.00,0.0528
1387.00,0.0542
1386.00,0.0544
1385.00,0.0531
1384.00,0.0510
1383.00,0.0491
1382.00,0.0482
1381.00,0.0480
1380.00,0.0482
1379.00,0.0483
1378.00,0.0481
1377.00,0.0475
1376.00,0.0459
1375.00,0.0434
1374.00,0.0403
1373.00,0.0376
1372.00,0.0358
1371.00,0.0354
1370.00,0.0365
1369.00,0.0391
1368.00,0.0429
1367.00,0.0470
1366.00,0.0506
1365.00,0.0529
1364.00,0.0543
1363.00,0.0560
1362.00,0.0591
1361.00,0.0631
1360.00,0.0661
1359.00,0.0665
1358.00,0.0644
1357.00,0.0607
1356.00,0.0569
1355.00,0.0539
1354.00,0.0519
1353.00,0.0506
1352.00,0.0499
1351.00,0.0498
1350.00,0.0501
1349.00,0.0506
1348.00,0.0510
1347.00,0.0512
1346.00,0.0509
1345.00,0.0502
1344.00,0.0490
1343.00,0.0474
1342.00,0.0455
1341.00,0.0434
1340.00,0.0412
1339.00,0.0392
1338.00,0.0376
1337.00,0.0367
1336.00,0.0363
1335.00,0.0366
1334.00,0.0373
1333.00,0.0383
1332.00,0.0392
1331.00,0.0400
1330.00,0.0405
1329.00,0.0405
1328.00,0.0402
1327.00,0.0395
1326.00,0.0386
1325.00,0.0376
1324.00,0.0365
1323.00,0.0356
1322.00,0.0349
1321.00,0.0343
1320.00,0.0337
1319.00,0.0330
1318.00,0.0321
1317.00,0.0311
1316.00,0.0301
1315.00,0.0292
1314.00,0.0286
1313.00,0.0283
1312.00,0.0285
1311.00,0.0292
1310.00,0.0304
1309.00,0.0322
1308.00,0.0344
1307.00,0.0372
1306.00,0.0407
1305.00,0.0447
1304.00,0.0494
1303.00,0.0540
1302.00,0.0580
1301.00,0.0604
1300.00,0.0608
1299.00,0.0595
1298.00,0.0573
1297.00,0.0551
1296.00,0.0533
1295.00,0.0521
1294.00,0.0510
1293.00,0.0498
1292.00,0.0483
1291.00,0.0469
1290.00,0.0460
1289.00,0.0461
1288.00,0.0472
1287.00,0.0493
1286.00,0.0519
1285.00,0.0546
1284.00,0.0567
1283.00,0.0578
1282.00,0.0575
1281.00,0.0557
1280.00,0.0527
1279.00,0.0489
1278.00,0.0450
1277.00,0.0414
1276.00,0.0382
1275.00,0.0355
1274.00,0.0334
1273.00,0.0315
1272.00,0.0299
1271.00,0.0285
1270.00,0.0273
1269.00,0.0264
1268.00,0.0257
1267.00,0.0252
1266.00,0.0249
1265.00,0.0245
1264.00,0.0241
1263.00,0.0236
1262.00,0.0230
1261.00,0.0225
1260.00,0.0219
1259.00,0.0215
1258.00,0.0212
1257.00,0.0210
1256.00,0.0209
1255.00,0.0210
1254.00,0.0212
1253.00,0.0217
1252.00,0.0224
1251.00,0.0234
1250.00,0.0249
1249.00,0.0267
1248.00,0.0290
1247.00,0.0316
1246.00,0.0344
1245.00,0.0370
1244.00,0.0394
1243.00,0.0414
1242.00,0.0431
1241.00,0.0448
1240.00,0.0468
1239.00,0.0492
1238.00,0.0521
1237.00,0.0555
1236.00,0.0588
1235.00,0.0617
1234.00,0.0635
1233.00,0.0639
1232.00,0.0628
1231.00,0.0605
1230.00,0.0574
1229.00,0.0539
1228.00,0.0505
1227.00,0.0475
1226.00,0.0449
1225.00,0.0427
1224.00,0.0410
1223.00,0.0397
1222.00,0.0389
1221.00,0.0387
1220.00,0.0390
1219.00,0.0398
1218.00,0.0411
1217.00,0.0426
1216.00,0.0441
1215.00,0.0452
1214.00,0.0456
1213.00,0.0451
1212.00,0.0435
1211.00,0.0413
1210.00,0.0388
1209.00,0.0363
1208.00,0.0342
1207.00,0.0328
1206.00,0.0322
1205.00,0.0325
1204.00,0.0336
1203.00,0.0358
1202.00,0.0387
1201.00,0.0423
1200.00,0.0463
1199.00,0.0507
1198.00,0.0555
1197.00,0.0603
1196.00,0.0647
1195.00,0.0679
1194.00,0.0695
1193.00,0.0693
1192.00,0.0675
1191.00,0.0644
1190.00,0.0604
1189.00,0.0558
1188.00,0.0510
1187.00,0.0463
1186.00,0.0420
1185.00,0.0382
1184.00,0.0349
1183.00,0.0322
1182.00,0.0300
1181.00,0.0283
1180.00,0.0268
1179.00,0.0257
1178.00,0.0248
1177.00,0.0240
1176.00,0.0233
1175.00,0.0227
1174.00,0.0223
1173.00,0.0219
1172.00,0.0216
1171.00,0.0214
1170.00,0.0212
1169.00,0.0211
1168.00,0.0211
1167.00,0.0212
1166.00,0.0216
1165.00,0.0222
1164.00,0.0232
1163.00,0.0246
1162.00,0.0267
1161.00,0.0297
1160.00,0.0338
1159.00,0.0393
1158.00,0.0459
1157.00,0.0532
1156.00,0.0598
1155.00,0.0644
1154.00,0.0659
1153.00,0.0636
1152.00,0.0582
1151.00,0.0510
1150.00,0.0437
1149.00,0.0373
1148.00,0.0324
1147.00,0.0289
1146.00,0.0267
1145.00,0.0252
1144.00,0.0243
1143.00,0.0238
1142.00,0.0237
1141.00,0.0238
1140.00,0.0243
1139.00,0.0252
1138.00,0.0267
1137.00,0.0288
1136.00,0.0318
1135.00,0.0361
1134.00,0.0420
1133.00,0.0494
1132.00,0.0581
1131.00,0.0672
1130.00,0.0753
1129.00,0.0813
1128.00,0.0844
1127.00,0.0848
1126.00,0.0830
1125.00,0.0793
1124.00,0.0741
1123.00,0.0680
1122.00,0.0614
1121.00,0.0552
1120.00,0.0498
1119.00,0.0456
1118.00,0.0426
1117.00,0.0408
1116.00,0.0397
1115.00,0.0390
1114.00,0.0384
1113.00,0.0375
1112.00,0.0363
1111.00,0.0348
1110.00,0.0334
1109.00,0.0322
1108.00,0.0315
1107.00,0.0315
1106.00,0.0324
1105.00,0.0345
1104.00,0.0379
1103.00,0.0427
1102.00,0.0482
1101.00,0.0534
1100.00,0.0570
1099.00,0.0580
1098.00,0.0563
1097.00,0.0523
1096.00,0.0470
1095.00,0.0414
1094.00,0.0364
1093.00,0.0322
1092.00,0.0289
1091.00,0.0265
1090.00,0.0247
1089.00,0.0233
1088.00,0.0223
1087.00,0.0214
1086.00,0.0208
1085.00,0.0203
1084.00,0.0200
1083.00,0.0197
1082.00,0.0197
1081.00,0.0196
1080.00,0.0196
1079.00,0.0197
1078.00,0.0198
1077.00,0.0199
1076.00,0.0201
1075.00,0.0204
1074.00,0.0208
1073.00,0.0214
1072.00,0.0221
1071.00,0.0229
1070.00,0.0239
1069.00,0.0249
1068.00,0.0260
1067.00,0.0272
1066.00,0.0287
1065.00,0.0304
1064.00,0.0326
1063.00,0.0356
1062.00,0.0396
1061.00,0.0448
1060.00,0.0513
1059.00,0.0593
1058.00,0.0685
1057.00,0.0783
1056.00,0.0878
1055.00,0.0960
1054.00,0.1023
1053.00,0.1064
1052.00,0.1089
1051.00,0.1102
1050.00,0.1106
1049.00,0.1099
1048.00,0.1078
1047.00,0.1042
1046.00,0.0992
1045.00,0.0932
1044.00,0.0866
1043.00,0.0797
1042.00,0.0732
1041.00,0.0675
1040.00,0.0628
1039.00,0.0596
1038.00,0.0578
1037.00,0.0573
1036.00,0.0575
1035.00,0.0582
1034.00,0.0594
1033.00,0.0612
1032.00,0.0645
1031.00,0.0698
1030.00,0.0771
1029.00,0.0854
1028.00,0.0930
1027.00,0.0982
1026.00,0.0996
1025.00,0.0970
1024.00,0.0911
1023.00,0.0835
1022.00,0.0754
1021.00,0.0677
1020.00,0.0608
1019.00,0.0549
1018.00,0.0499
1017.00,0.0458
1016.00,0.0424
1015.00,0.0396
1014.00,0.0375
1013.00,0.0361
1012.00,0.0352
1011.00,0.0352
1010.00,0.0362
1009.00,0.0381
1008.00,0.0408
1007.00,0.0441
1006.00,0.0476
1005.00,0.0507
1004.00,0.0530
1003.00,0.0540
1002.00,0.0538
1001.00,0.0526
1000.00,0.0510
999.00,0.0492
998.00,0.0477
997.00,0.0463
996.00,0.0451
995.00,0.0441
994.00,0.0432
993.00,0.0419
992.00,0.0401
991.00,0.0380
990.00,0.0357
989.00,0.0335
988.00,0.0315
987.00,0.0298
986.00,0.0284
985.00,0.0272
984.00,0.0263
983.00,0.0255
982.00,0.0250
981.00,0.0246
980.00,0.0244
979.00,0.0243
978.00,0.0244
977.00,0.0245
976.00,0.0245
975.00,0.0245
974.00,0.0245
973.00,0.0243
972.00,0.0241
971.00,0.0240
970.00,0.0239
969.00,0.0238
968.00,0.0238
967.00,0.0239
966.00,0.0243
965.00,0.0248
964.00,0.0255
963.00,0.0261
962.00,0.0264
961.00,0.0261
960.00,0.0250
959.00,0.0236
958.00,0.0221
957.00,0.0208
956.00,0.0196
955.00,0.0188
954.00,0.0181
953.00,0.0176
952.00,0.0173
951.00,0.0175
950.00,0.0182
949.00,0.0190
948.00,0.0195
947.00,0.0195
946.00,0.0192
945.00,0.0189
944.00,0.0188
943.00,0.0193
942.00,0.0201
941.00,0.0211
940.00,0.0220
939.00,0.0227
938.00,0.0233
937.00,0.0238
936.00,0.0244
935.00,0.0251
934.00,0.0260
933.00,0.0268
932.00,0.0272
931.00,0.0270
930.00,0.0264
929.00,0.0257
928.00,0.0251
927.00,0.0251
926.00,0.0256
925.00,0.0268
924.00,0.0284
923.00,0.0301
922.00,0.0314
921.00,0.0317
920.00,0.0306
919.00,0.0286
918.00,0.0261
917.00,0.0236
916.00,0.0214
915.00,0.0197
914.00,0.0185
913.00,0.0176
912.00,0.0169
911.00,0.0165
910.00,0.0163
909.00,0.0163
908.00,0.0164
907.00,0.0167
906.00,0.0175
905.00,0.0187
904.00,0.0205
903.00,0.0229
902.00,0.0259
901.00,0.0290
900.00,0.0315
899.00,0.0327
898.00,0.0324
897.00,0.0307
896.00,0.0283
895.00,0.0263
894.00,0.0255
893.00,0.0264
892.00,0.0288
891.00,0.0319
890.00,0.0339
889.00,0.0334
888.00,0.0304
887.00,0.0263
886.00,0.0229
885.00,0.0207
884.00,0.0196
883.00,0.0193
882.00,0.0196
881.00,0.0204
880.00,0.0217
879.00,0.0237
878.00,0.0268
877.00,0.0311
876.00,0.0366
875.00,0.0432
874.00,0.0507
873.00,0.0584
872.00,0.0657
871.00,0.0716
870.00,0.0752
869.00,0.0759
868.00,0.0737
867.00,0.0698
866.00,0.0652
865.00,0.0604
864.00,0.0555
863.00,0.0506
862.00,0.0459
861.00,0.0416
860.00,0.0382
859.00,0.0360
858.00,0.0356
857.00,0.0369
856.00,0.0397
855.00,0.0433
854.00,0.0472
853.00,0.0509
852.00,0.0549
851.00,0.0593
850.00,0.0635
849.00,0.0662
848.00,0.0662
847.00,0.0635
846.00,0.0592
845.00,0.0543
844.00,0.0498
843.00,0.0461
842.00,0.0436
841.00,0.0424
840.00,0.0424
839.00,0.0441
838.00,0.0476
837.00,0.0524
836.00,0.0577
835.00,0.0624
834.00,0.0658
833.00,0.0674
832.00,0.0667
831.00,0.0639
830.00,0.0593
829.00,0.0533
828.00,0.0469
827.00,0.0413
826.00,0.0376
825.00,0.0365
824.00,0.0391
823.00,0.0463
822.00,0.0575
821.00,0.0697
820.00,0.0788
819.00,0.0838
818.00,0.0871
817.00,0.0912
816.00,0.0952
815.00,0.0949
814.00,0.0879
813.00,0.0756
812.00,0.0623
811.00,0.0511
810.00,0.0429
809.00,0.0370
808.00,0.0328
807.00,0.0298
806.00,0.0275
805.00,0.0257
804.00,0.0243
803.00,0.0232
802.00,0.0223
801.00,0.0215
800.00,0.0209
799.00,0.0204
798.00,0.0200
797.00,0.0197
796.00,0.0193
795.00,0.0190
794.00,0.0187
793.00,0.0185
792.00,0.0182
791.00,0.0180
790.00,0.0178
789.00,0.0176
788.00,0.0173
787.00,0.0172
786.00,0.0171
785.00,0.0171
784.00,0.0171
783.00,0.0171
782.00,0.0173
781.00,0.0174
780.00,0.0177
779.00,0.0183
778.00,0.0197
777.00,0.0220
776.00,0.0248
775.00,0.0275
774.00,0.0289
773.00,0.0284
772.00,0.0263
771.00,0.0239
770.00,0.0219
769.00,0.0207
768.00,0.0200
767.00,0.0195
766.00,0.0194
765.00,0.0196
764.00,0.0201
763.00,0.0210
762.00,0.0222
761.00,0.0234
760.00,0.0243
759.00,0.0247
758.00,0.0244
757.00,0.0236
756.00,0.0225
755.00,0.0214
754.00,0.0206
753.00,0.0201
752.00,0.0197
751.00,0.0196
750.00,0.0196
749.00,0.0197
748.00,0.0198
747.00,0.0200
746.00,0.0203
745.00,0.0208
744.00,0.0213
743.00,0.0222
742.00,0.0235
741.00,0.0252
740.00,0.0277
739.00,0.0313
738.00,0.0363
737.00,0.0422
736.00,0.0478
735.00,0.0516
734.00,0.0528
733.00,0.0518
732.00,0.0502
731.00,0.0498
730.00,0.0508
729.00,0.0521
728.00,0.0523
727.00,0.0504
726.00,0.0467
725.00,0.0420
724.00,0.0375
723.00,0.0341
722.00,0.0320
721.00,0.0311
720.00,0.0311
719.00,0.0323
718.00,0.0346
717.00,0.0375
716.00,0.0402
715.00,0.0421
714.00,0.0427
713.00,0.0421
712.00,0.0404
711.00,0.0384
710.00,0.0364
709.00,0.0347
708.00,0.0335
707.00,0.0328
706.00,0.0328
705.00,0.0332
704.00,0.0338
703.00,0.0348
702.00,0.0361
701.00,0.0374
700.00,0.0386
699.00,0.0396
698.00,0.0402
697.00,0.0400
696.00,0.0390
695.00,0.0377
694.00,0.0366
693.00,0.0361
692.00,0.0368
691.00,0.0387
690.00,0.0415
689.00,0.0441
688.00,0.0454
687.00,0.0452
686.00,0.0436
685.00,0.0414
684.00,0.0393
683.00,0.0379
682.00,0.0372
681.00,0.0370
680.00,0.0373
679.00,0.0380
678.00,0.0392
677.00,0.0408
676.00,0.0427
675.00,0.0450
674.00,0.0474
673.00,0.0497
672.00,0.0514
671.00,0.0526
670.00,0.0530
669.00,0.0524
668.00,0.0508
667.00,0.0491
666.00,0.0480
665.00,0.0478
664.00,0.0482
663.00,0.0491
662.00,0.0499
661.00,0.0502
660.00,0.0494
659.00,0.0478
658.00,0.0456
657.00,0.0433
656.00,0.0411
655.00,0.0393
654.00,0.0380
653.00,0.0370
652.00,0.0361
651.00,0.0354
650.00,0.0350
649.00,0.0346
648.00,0.0341
647.00,0.0337
646.00,0.0334
645.00,0.0331
644.00,0.0328
643.00,0.0325
642.00,0.0324
641.00,0.0323
640.00,0.0322
639.00,0.0320
638.00,0.0320
637.00,0.0320
636.00,0.0319
635.00,0.0319
634.00,0.0320
633.00,0.0320
632.00,0.0320
631.00,0.0320
630.00,0.0324
629.00,0.0329
628.00,0.0334
627.00,0.0341
626.00,0.0352
625.00,0.0366
624.00,0.0383
623.00,0.0403
622.00,0.0425
621.00,0.0444
620.00,0.0456
619.00,0.0459
618.00,0.0452
617.00,0.0434
616.00,0.0407
615.00,0.0378
614.00,0.0354
613.00,0.0336
612.00,0.0326
611.00,0.0325
610.00,0.0337
609.00,0.0360
608.00,0.0393
607.00,0.0435
606.00,0.0482
605.00,0.0528
604.00,0.0565
603.00,0.0594
602.00,0.0613
601.00,0.0625
600.00,0.0629
599.00,0.0630
598.00,0.0630
597.00,0.0628
596.00,0.0623
595.00,0.0618
594.00,0.0613
593.00,0.0605
592.00,0.0594
591.00,0.0581
590.00,0.0568
589.00,0.0555
588.00,0.0540
587.00,0.0526
586.00,0.0517
585.00,0.0509
584.00,0.0504
583.00,0.0503
582.00,0.0509
581.00,0.0521
580.00,0.0540
579.00,0.0570
578.00,0.0608
577.00,0.0642
576.00,0.0658
575.00,0.0650
574.00,0.0621
573.00,0.0581
572.00,0.0539
571.00,0.0502
570.00,0.0473
569.00,0.0451
568.00,0.0436
567.00,0.0432
566.00,0.0440
565.00,0.0458
564.00,0.0482
563.00,0.0512
562.00,0.0546
561.00,0.0578
560.00,0.0599
559.00,0.0605
558.00,0.0598
557.00,0.0579
556.00,0.0553
555.00,0.0529
554.00,0.0514
553.00,0.0509
552.00,0.0514
551.00,0.0531
550.00,0.0560
549.00,0.0597
548.00,0.0633
547.00,0.0664
546.00,0.0683
545.00,0.0685
544.00,0.0670
543.00,0.0647
542.00,0.0621
541.00,0.0594
540.00,0.0567
539.00,0.0547
538.00,0.0536
537.00,0.0534
536.00,0.0539
535.00,0.0555
534.00,0.0581
533.00,0.0612
532.00,0.0637
531.00,0.0649
530.00,0.0646
529.00,0.0625
528.00,0.0591
527.00,0.0553
526.00,0.0518
525.00,0.0485
524.00,0.0455
523.00,0.0432
522.00,0.0415
521.00,0.0402
520.00,0.0387
519.00,0.0374
518.00,0.0366
517.00,0.0359
516.00,0.0351
515.00,0.0345
514.00,0.0343
513.00,0.0341
512.00,0.0339
511.00,0.0340
510.00,0.0348
509.00,0.0357
508.00,0.0363
507.00,0.0369
506.00,0.0374
505.00,0.0374
504.00,0.0367
503.00,0.0354
502.00,0.0342
501.00,0.0330
500.00,0.0318
499.00,0.0310
498.00,0.0308
497.00,0.0310
496.00,0.0314
495.00,0.0324
494.00,0.0340
493.00,0.0354
492.00,0.0357
491.00,0.0354
490.00,0.0349
489.00,0.0342
488.00,0.0330
487.00,0.0319
486.00,0.0311
485.00,0.0304
484.00,0.0293
483.00,0.0285
482.00,0.0282
481.00,0.0279
480.00,0.0271
479.00,0.0264
478.00,0.0260
477.00,0.0255
476.00,0.0248
475.00,0.0242
474.00,0.0243
473.00,0.0243
472.00,0.0240
471.00,0.0237
470.00,0.0237
469.00,0.0235
468.00,0.0229
467.00,0.0225
466.00,0.0226
465.00,0.0225
464.00,0.0219
463.00,0.0217
462.00,0.0222
461.00,0.0227
460.00,0.0225
459.00,0.0222
458.00,0.0226
457.00,0.0232
456.00,0.0233
455.00,0.0234
454.00,0.0237
453.00,0.0236
452.00,0.0227
451.00,0.0219
450.00,0.0218
449.00,0.0217
448.00,0.0210
447.00,0.0204
446.00,0.0206
445.00,0.0211
444.00,0.0211
443.00,0.0214
442.00,0.0222
441.00,0.0228
440.00,0.0225
439.00,0.0221
438.00,0.0222
437.00,0.0222
436.00,0.0215
435.00,0.0209
434.00,0.0209
433.00,0.0209
432.00,0.0203
431.00,0.0200
430.00,0.0205
429.00,0.0209
428.00,0.0203
427.00,0.0196
426.00,0.0194
425.00,0.0193
424.00,0.0184
423.00,0.0179
422.00,0.0185
421.00,0.0190
420.00,0.0183
419.00,0.0177
418.00,0.0187
417.00,0.0199
416.00,0.0201
415.00,0.0209
414.00,0.0231
413.00,0.0255
412.00,0.0273
411.00,0.0292
410.00,0.0314
409.00,0.0322
408.00,0.0304
407.00,0.0281
406.00,0.0269
405.00,0.0255
404.00,0.0229
403.00,0.0210
402.00,0.0217
401.00,0.0228
400.00,0.0223
