Created as New Dataset,Sample 1005 By YargerLab Date Thursday, July 31 2025
cm-1,A
4000.00,0.0060
3999.00,0.0060
3998.00,0.0060
3997.00,0.0060
3996.00,0.0060
3995.00,0.0060
3994.00,0.0060
3993.00,0.0060
3992.00,0.0059
3991.00,0.0059
3990.00,0.0059
3989.00,0.0059
3988.00,0.0059
3987.00,0.0059
3986.00,0.0059
3985.00,0.0059
3984.00,0.0059
3983.00,0.0059
3982.00,0.0059
3981.00,0.0059
3980.00,0.0059
3979.00,0.0059
3978.00,0.0059
3977.00,0.0059
3976.00,0.0059
3975.00,0.0059
3974.00,0.0059
3973.00,0.0059
3972.00,0.0059
3971.00,0.0059
3970.00,0.0059
3969.00,0.0059
3968.00,0.0059
3967.00,0.0059
3966.00,0.0059
3965.00,0.0059
3964.00,0.0059
3963.00,0.0059
3962.00,0.0059
3961.00,0.0059
3960.00,0.0058
3959.00,0.0058
3958.00,0.0058
3957.00,0.0058
3956.00,0.0059
3955.00,0.0059
3954.00,0.0059
3953.00,0.0059
3952.00,0.0059
3951.00,0.0059
3950.00,0.0059
3949.00,0.0059
3948.00,0.0059
3947.00,0.0059
3946.00,0.0059
3945.00,0.0059
3944.00,0.0059
3943.00,0.0059
3942.00,0.0059
3941.00,0.0059
3940.00,0.0059
3939.00,0.0059
3938.00,0.0059
3937.00,0.0059
3936.00,0.0058
3935.00,0.0058
3934.00,0.0058
3933.00,0.0059
3932.00,0.0059
3931.00,0.0059
3930.00,0.0059
3929.00,0.0059
3928.00,0.0059
3927.00,0.0058
3926.00,0.0058
3925.00,0.0058
3924.00,0.0058
3923.00,0.0058
3922.00,0.0058
3921.00,0.0058
3920.00,0.0058
3919.00,0.0058
3918.00,0.0059
3917.00,0.0059
3916.00,0.0059
3915.00,0.0059
3914.00,0.0059
3913.00,0.0059
3912.00,0.0059
3911.00,0.0059
3910.00,0.0059
3909.00,0.0059
3908.00,0.0058
3907.00,0.0058
3906.00,0.0058
3905.00,0.0058
3904.00,0.0059
3903.00,0.0059
3902.00,0.0059
3901.00,0.0059
3900.00,0.0059
3899.00,0.0058
3898.00,0.0058
3897.00,0.0058
3896.00,0.0058
3895.00,0.0058
3894.00,0.0058
3893.00,0.0058
3892.00,0.0058
3891.00,0.0058
3890.00,0.0059
3889.00,0.0059
3888.00,0.0059
3887.00,0.0059
3886.00,0.0059
3885.00,0.0059
3884.00,0.0058
3883.00,0.0058
3882.00,0.0058
3881.00,0.0058
3880.00,0.0058
3879.00,0.0058
3878.00,0.0058
3877.00,0.0058
3876.00,0.0058
3875.00,0.0058
3874.00,0.0058
3873.00,0.0058
3872.00,0.0058
3871.00,0.0058
3870.00,0.0058
3869.00,0.0058
3868.00,0.0058
3867.00,0.0058
3866.00,0.0058
3865.00,0.0058
3864.00,0.0058
3863.00,0.0058
3862.00,0.0058
3861.00,0.0058
3860.00,0.0058
3859.00,0.0058
3858.00,0.0057
3857.00,0.0057
3856.00,0.0057
3855.00,0.0057
3854.00,0.0057
3853.00,0.0057
3852.00,0.0057
3851.00,0.0057
3850.00,0.0057
3849.00,0.0058
3848.00,0.0058
3847.00,0.0058
3846.00,0.0058
3845.00,0.0058
3844.00,0.0058
3843.00,0.0058
3842.00,0.0058
3841.00,0.0058
3840.00,0.0058
3839.00,0.0057
3838.00,0.0057
3837.00,0.0057
3836.00,0.0057
3835.00,0.0057
3834.00,0.0057
3833.00,0.0057
3832.00,0.0057
3831.00,0.0058
3830.00,0.0058
3829.00,0.0058
3828.00,0.0058
3827.00,0.0058
3826.00,0.0057
3825.00,0.0057
3824.00,0.0057
3823.00,0.0057
3822.00,0.0057
3821.00,0.0057
3820.00,0.0057
3819.00,0.0057
3818.00,0.0057
3817.00,0.0057
3816.00,0.0057
3815.00,0.0057
3814.00,0.0057
3813.00,0.0057
3812.00,0.0057
3811.00,0.0057
3810.00,0.0057
3809.00,0.0057
3808.00,0.0057
3807.00,0.0057
3806.00,0.0057
3805.00,0.0058
3804.00,0.0058
3803.00,0.0058
3802.00,0.0058
3801.00,0.0058
3800.00,0.0058
3799.00,0.0057
3798.00,0.0057
3797.00,0.0057
3796.00,0.0057
3795.00,0.0058
3794.00,0.0057
3793.00,0.0057
3792.00,0.0057
3791.00,0.0057
3790.00,0.0057
3789.00,0.0057
3788.00,0.0057
3787.00,0.0057
3786.00,0.0057
3785.00,0.0057
3784.00,0.0057
3783.00,0.0057
3782.00,0.0057
3781.00,0.0057
3780.00,0.0056
3779.00,0.0056
3778.00,0.0056
3777.00,0.0056
3776.00,0.0056
3775.00,0.0056
3774.00,0.0056
3773.00,0.0056
3772.00,0.0057
3771.00,0.0057
3770.00,0.0057
3769.00,0.0057
3768.00,0.0057
3767.00,0.0057
3766.00,0.0057
3765.00,0.0057
3764.00,0.0057
3763.00,0.0057
3762.00,0.0057
3761.00,0.0057
3760.00,0.0057
3759.00,0.0057
3758.00,0.0057
3757.00,0.0057
3756.00,0.0057
3755.00,0.0057
3754.00,0.0057
3753.00,0.0057
3752.00,0.0057
3751.00,0.0057
3750.00,0.0057
3749.00,0.0057
3748.00,0.0057
3747.00,0.0057
3746.00,0.0057
3745.00,0.0056
3744.00,0.0056
3743.00,0.0056
3742.00,0.0056
3741.00,0.0056
3740.00,0.0056
3739.00,0.0057
3738.00,0.0057
3737.00,0.0057
3736.00,0.0057
3735.00,0.0057
3734.00,0.0057
3733.00,0.0057
3732.00,0.0056
3731.00,0.0056
3730.00,0.0056
3729.00,0.0055
3728.00,0.0055
3727.00,0.0055
3726.00,0.0055
3725.00,0.0055
3724.00,0.0055
3723.00,0.0055
3722.00,0.0055
3721.00,0.0055
3720.00,0.0056
3719.00,0.0056
3718.00,0.0056
3717.00,0.0055
3716.00,0.0055
3715.00,0.0055
3714.00,0.0055
3713.00,0.0055
3712.00,0.0055
3711.00,0.0055
3710.00,0.0055
3709.00,0.0055
3708.00,0.0055
3707.00,0.0055
3706.00,0.0055
3705.00,0.0055
3704.00,0.0054
3703.00,0.0054
3702.00,0.0054
3701.00,0.0054
3700.00,0.0054
3699.00,0.0054
3698.00,0.0054
3697.00,0.0054
3696.00,0.0054
3695.00,0.0055
3694.00,0.0055
3693.00,0.0055
3692.00,0.0055
3691.00,0.0055
3690.00,0.0055
3689.00,0.0056
3688.00,0.0056
3687.00,0.0056
3686.00,0.0055
3685.00,0.0055
3684.00,0.0055
3683.00,0.0055
3682.00,0.0056
3681.00,0.0056
3680.00,0.0056
3679.00,0.0056
3678.00,0.0057
3677.00,0.0057
3676.00,0.0056
3675.00,0.0056
3674.00,0.0056
3673.00,0.0056
3672.00,0.0056
3671.00,0.0056
3670.00,0.0056
3669.00,0.0056
3668.00,0.0057
3667.00,0.0057
3666.00,0.0057
3665.00,0.0057
3664.00,0.0057
3663.00,0.0057
3662.00,0.0057
3661.00,0.0057
3660.00,0.0057
3659.00,0.0057
3658.00,0.0057
3657.00,0.0057
3656.00,0.0057
3655.00,0.0057
3654.00,0.0058
3653.00,0.0058
3652.00,0.0058
3651.00,0.0058
3650.00,0.0059
3649.00,0.0059
3648.00,0.0059
3647.00,0.0058
3646.00,0.0058
3645.00,0.0058
3644.00,0.0059
3643.00,0.0059
3642.00,0.0059
3641.00,0.0059
3640.00,0.0060
3639.00,0.0060
3638.00,0.0060
3637.00,0.0060
3636.00,0.0060
3635.00,0.0061
3634.00,0.0061
3633.00,0.0061
3632.00,0.0061
3631.00,0.0061
3630.00,0.0061
3629.00,0.0061
3628.00,0.0061
3627.00,0.0061
3626.00,0.0061
3625.00,0.0062
3624.00,0.0062
3623.00,0.0063
3622.00,0.0063
3621.00,0.0063
3620.00,0.0063
3619.00,0.0063
3618.00,0.0064
3617.00,0.0064
3616.00,0.0065
3615.00,0.0066
3614.00,0.0066
3613.00,0.0066
3612.00,0.0066
3611.00,0.0066
3610.00,0.0067
3609.00,0.0067
3608.00,0.0067
3607.00,0.0067
3606.00,0.0067
3605.00,0.0067
3604.00,0.0068
3603.00,0.0068
3602.00,0.0069
3601.00,0.0069
3600.00,0.0069
3599.00,0.0070
3598.00,0.0070
3597.00,0.0070
3596.00,0.0070
3595.00,0.0071
3594.00,0.0071
3593.00,0.0072
3592.00,0.0072
3591.00,0.0073
3590.00,0.0073
3589.00,0.0073
3588.00,0.0073
3587.00,0.0073
3586.00,0.0074
3585.00,0.0074
3584.00,0.0075
3583.00,0.0075
3582.00,0.0075
3581.00,0.0076
3580.00,0.0076
3579.00,0.0077
3578.00,0.0077
3577.00,0.0078
3576.00,0.0078
3575.00,0.0078
3574.00,0.0079
3573.00,0.0079
3572.00,0.0080
3571.00,0.0081
3570.00,0.0081
3569.00,0.0082
3568.00,0.0083
3567.00,0.0083
3566.00,0.0082
3565.00,0.0082
3564.00,0.0082
3563.00,0.0083
3562.00,0.0084
3561.00,0.0084
3560.00,0.0085
3559.00,0.0085
3558.00,0.0086
3557.00,0.0086
3556.00,0.0087
3555.00,0.0087
3554.00,0.0088
3553.00,0.0088
3552.00,0.0089
3551.00,0.0089
3550.00,0.0090
3549.00,0.0090
3548.00,0.0091
3547.00,0.0091
3546.00,0.0091
3545.00,0.0091
3544.00,0.0091
3543.00,0.0091
3542.00,0.0091
3541.00,0.0092
3540.00,0.0092
3539.00,0.0093
3538.00,0.0093
3537.00,0.0093
3536.00,0.0093
3535.00,0.0094
3534.00,0.0094
3533.00,0.0094
3532.00,0.0095
3531.00,0.0095
3530.00,0.0095
3529.00,0.0095
3528.00,0.0096
3527.00,0.0096
3526.00,0.0097
3525.00,0.0097
3524.00,0.0097
3523.00,0.0097
3522.00,0.0097
3521.00,0.0097
3520.00,0.0097
3519.00,0.0097
3518.00,0.0098
3517.00,0.0098
3516.00,0.0098
3515.00,0.0098
3514.00,0.0099
3513.00,0.0099
3512.00,0.0100
3511.00,0.0100
3510.00,0.0100
3509.00,0.0100
3508.00,0.0100
3507.00,0.0100
3506.00,0.0101
3505.00,0.0101
3504.00,0.0101
3503.00,0.0101
3502.00,0.0102
3501.00,0.0102
3500.00,0.0103
3499.00,0.0103
3498.00,0.0103
3497.00,0.0103
3496.00,0.0103
3495.00,0.0103
3494.00,0.0103
3493.00,0.0103
3492.00,0.0103
3491.00,0.0103
3490.00,0.0104
3489.00,0.0104
3488.00,0.0104
3487.00,0.0105
3486.00,0.0105
3485.00,0.0105
3484.00,0.0105
3483.00,0.0105
3482.00,0.0105
3481.00,0.0106
3480.00,0.0106
3479.00,0.0106
3478.00,0.0107
3477.00,0.0107
3476.00,0.0107
3475.00,0.0107
3474.00,0.0107
3473.00,0.0107
3472.00,0.0107
3471.00,0.0108
3470.00,0.0108
3469.00,0.0108
3468.00,0.0108
3467.00,0.0108
3466.00,0.0108
3465.00,0.0108
3464.00,0.0108
3463.00,0.0108
3462.00,0.0109
3461.00,0.0109
3460.00,0.0109
3459.00,0.0109
3458.00,0.0109
3457.00,0.0109
3456.00,0.0109
3455.00,0.0109
3454.00,0.0109
3453.00,0.0109
3452.00,0.0109
3451.00,0.0109
3450.00,0.0110
3449.00,0.0110
3448.00,0.0110
3447.00,0.0110
3446.00,0.0109
3445.00,0.0109
3444.00,0.0109
3443.00,0.0110
3442.00,0.0110
3441.00,0.0110
3440.00,0.0110
3439.00,0.0110
3438.00,0.0110
3437.00,0.0110
3436.00,0.0110
3435.00,0.0110
3434.00,0.0110
3433.00,0.0110
3432.00,0.0110
3431.00,0.0110
3430.00,0.0110
3429.00,0.0110
3428.00,0.0110
3427.00,0.0110
3426.00,0.0110
3425.00,0.0110
3424.00,0.0110
3423.00,0.0110
3422.00,0.0110
3421.00,0.0109
3420.00,0.0109
3419.00,0.0109
3418.00,0.0109
3417.00,0.0109
3416.00,0.0109
3415.00,0.0109
3414.00,0.0109
3413.00,0.0109
3412.00,0.0109
3411.00,0.0109
3410.00,0.0109
3409.00,0.0108
3408.00,0.0108
3407.00,0.0108
3406.00,0.0108
3405.00,0.0108
3404.00,0.0108
3403.00,0.0108
3402.00,0.0108
3401.00,0.0109
3400.00,0.0109
3399.00,0.0109
3398.00,0.0108
3397.00,0.0108
3396.00,0.0108
3395.00,0.0108
3394.00,0.0108
3393.00,0.0108
3392.00,0.0108
3391.00,0.0108
3390.00,0.0107
3389.00,0.0107
3388.00,0.0107
3387.00,0.0107
3386.00,0.0107
3385.00,0.0107
3384.00,0.0107
3383.00,0.0107
3382.00,0.0106
3381.00,0.0106
3380.00,0.0106
3379.00,0.0106
3378.00,0.0106
3377.00,0.0106
3376.00,0.0106
3375.00,0.0106
3374.00,0.0106
3373.00,0.0105
3372.00,0.0105
3371.00,0.0105
3370.00,0.0105
3369.00,0.0105
3368.00,0.0105
3367.00,0.0104
3366.00,0.0104
3365.00,0.0104
3364.00,0.0104
3363.00,0.0104
3362.00,0.0104
3361.00,0.0104
3360.00,0.0104
3359.00,0.0104
3358.00,0.0104
3357.00,0.0104
3356.00,0.0104
3355.00,0.0104
3354.00,0.0103
3353.00,0.0103
3352.00,0.0103
3351.00,0.0103
3350.00,0.0103
3349.00,0.0103
3348.00,0.0103
3347.00,0.0103
3346.00,0.0103
3345.00,0.0102
3344.00,0.0102
3343.00,0.0102
3342.00,0.0102
3341.00,0.0101
3340.00,0.0101
3339.00,0.0101
3338.00,0.0101
3337.00,0.0101
3336.00,0.0101
3335.00,0.0101
3334.00,0.0101
3333.00,0.0101
3332.00,0.0101
3331.00,0.0101
3330.00,0.0101
3329.00,0.0101
3328.00,0.0100
3327.00,0.0100
3326.00,0.0100
3325.00,0.0100
3324.00,0.0100
3323.00,0.0100
3322.00,0.0100
3321.00,0.0100
3320.00,0.0100
3319.00,0.0100
3318.00,0.0100
3317.00,0.0100
3316.00,0.0100
3315.00,0.0100
3314.00,0.0100
3313.00,0.0100
3312.00,0.0099
3311.00,0.0099
3310.00,0.0098
3309.00,0.0098
3308.00,0.0098
3307.00,0.0098
3306.00,0.0098
3305.00,0.0098
3304.00,0.0098
3303.00,0.0098
3302.00,0.0098
3301.00,0.0098
3300.00,0.0098
3299.00,0.0098
3298.00,0.0098
3297.00,0.0097
3296.00,0.0097
3295.00,0.0097
3294.00,0.0097
3293.00,0.0097
3292.00,0.0098
3291.00,0.0098
3290.00,0.0098
3289.00,0.0098
3288.00,0.0098
3287.00,0.0098
3286.00,0.0098
3285.00,0.0098
3284.00,0.0098
3283.00,0.0097
3282.00,0.0097
3281.00,0.0097
3280.00,0.0097
3279.00,0.0097
3278.00,0.0096
3277.00,0.0096
3276.00,0.0096
3275.00,0.0096
3274.00,0.0096
3273.00,0.0096
3272.00,0.0096
3271.00,0.0096
3270.00,0.0096
3269.00,0.0096
3268.00,0.0096
3267.00,0.0095
3266.00,0.0095
3265.00,0.0095
3264.00,0.0095
3263.00,0.0095
3262.00,0.0095
3261.00,0.0095
3260.00,0.0095
3259.00,0.0095
3258.00,0.0095
3257.00,0.0095
3256.00,0.0095
3255.00,0.0095
3254.00,0.0094
3253.00,0.0094
3252.00,0.0094
3251.00,0.0094
3250.00,0.0094
3249.00,0.0093
3248.00,0.0093
3247.00,0.0093
3246.00,0.0093
3245.00,0.0093
3244.00,0.0093
3243.00,0.0093
3242.00,0.0093
3241.00,0.0093
3240.00,0.0093
3239.00,0.0093
3238.00,0.0092
3237.00,0.0092
3236.00,0.0092
3235.00,0.0092
3234.00,0.0091
3233.00,0.0091
3232.00,0.0091
3231.00,0.0091
3230.00,0.0091
3229.00,0.0091
3228.00,0.0091
3227.00,0.0091
3226.00,0.0091
3225.00,0.0091
3224.00,0.0091
3223.00,0.0091
3222.00,0.0091
3221.00,0.0091
3220.00,0.0091
3219.00,0.0091
3218.00,0.0090
3217.00,0.0090
3216.00,0.0089
3215.00,0.0089
3214.00,0.0089
3213.00,0.0089
3212.00,0.0089
3211.00,0.0089
3210.00,0.0089
3209.00,0.0089
3208.00,0.0089
3207.00,0.0089
3206.00,0.0089
3205.00,0.0088
3204.00,0.0088
3203.00,0.0088
3202.00,0.0088
3201.00,0.0088
3200.00,0.0087
3199.00,0.0087
3198.00,0.0087
3197.00,0.0087
3196.00,0.0087
3195.00,0.0087
3194.00,0.0087
3193.00,0.0087
3192.00,0.0087
3191.00,0.0087
3190.00,0.0087
3189.00,0.0087
3188.00,0.0086
3187.00,0.0086
3186.00,0.0086
3185.00,0.0086
3184.00,0.0086
3183.00,0.0086
3182.00,0.0085
3181.00,0.0085
3180.00,0.0085
3179.00,0.0085
3178.00,0.0085
3177.00,0.0085
3176.00,0.0085
3175.00,0.0085
3174.00,0.0085
3173.00,0.0085
3172.00,0.0085
3171.00,0.0085
3170.00,0.0085
3169.00,0.0085
3168.00,0.0084
3167.00,0.0084
3166.00,0.0084
3165.00,0.0084
3164.00,0.0084
3163.00,0.0084
3162.00,0.0083
3161.00,0.0083
3160.00,0.0083
3159.00,0.0084
3158.00,0.0084
3157.00,0.0084
3156.00,0.0084
3155.00,0.0083
3154.00,0.0083
3153.00,0.0083
3152.00,0.0083
3151.00,0.0083
3150.00,0.0082
3149.00,0.0082
3148.00,0.0082
3147.00,0.0082
3146.00,0.0082
3145.00,0.0082
3144.00,0.0082
3143.00,0.0082
3142.00,0.0082
3141.00,0.0082
3140.00,0.0082
3139.00,0.0082
3138.00,0.0081
3137.00,0.0081
3136.00,0.0081
3135.00,0.0081
3134.00,0.0081
3133.00,0.0081
3132.00,0.0081
3131.00,0.0081
3130.00,0.0081
3129.00,0.0081
3128.00,0.0081
3127.00,0.0080
3126.00,0.0080
3125.00,0.0080
3124.00,0.0080
3123.00,0.0080
3122.00,0.0080
3121.00,0.0080
3120.00,0.0080
3119.00,0.0080
3118.00,0.0080
3117.00,0.0080
3116.00,0.0079
3115.00,0.0079
3114.00,0.0079
3113.00,0.0079
3112.00,0.0079
3111.00,0.0079
3110.00,0.0079
3109.00,0.0079
3108.00,0.0078
3107.00,0.0078
3106.00,0.0078
3105.00,0.0078
3104.00,0.0078
3103.00,0.0078
3102.00,0.0078
3101.00,0.0078
3100.00,0.0078
3099.00,0.0078
3098.00,0.0078
3097.00,0.0078
3096.00,0.0078
3095.00,0.0078
3094.00,0.0078
3093.00,0.0078
3092.00,0.0078
3091.00,0.0078
3090.00,0.0078
3089.00,0.0078
3088.00,0.0077
3087.00,0.0077
3086.00,0.0077
3085.00,0.0077
3084.00,0.0077
3083.00,0.0077
3082.00,0.0077
3081.00,0.0077
3080.00,0.0077
3079.00,0.0077
3078.00,0.0077
3077.00,0.0077
3076.00,0.0077
3075.00,0.0077
3074.00,0.0077
3073.00,0.0077
3072.00,0.0077
3071.00,0.0076
3070.00,0.0076
3069.00,0.0076
3068.00,0.0076
3067.00,0.0076
3066.00,0.0076
3065.00,0.0076
3064.00,0.0075
3063.00,0.0075
3062.00,0.0075
3061.00,0.0075
3060.00,0.0075
3059.00,0.0075
3058.00,0.0075
3057.00,0.0075
3056.00,0.0075
3055.00,0.0075
3054.00,0.0075
3053.00,0.0075
3052.00,0.0075
3051.00,0.0074
3050.00,0.0074
3049.00,0.0074
3048.00,0.0074
3047.00,0.0074
3046.00,0.0074
3045.00,0.0074
3044.00,0.0074
3043.00,0.0074
3042.00,0.0074
3041.00,0.0074
3040.00,0.0073
3039.00,0.0073
3038.00,0.0073
3037.00,0.0073
3036.00,0.0073
3035.00,0.0073
3034.00,0.0074
3033.00,0.0074
3032.00,0.0073
3031.00,0.0073
3030.00,0.0073
3029.00,0.0073
3028.00,0.0072
3027.00,0.0072
3026.00,0.0072
3025.00,0.0072
3024.00,0.0072
3023.00,0.0072
3022.00,0.0072
3021.00,0.0072
3020.00,0.0072
3019.00,0.0072
3018.00,0.0073
3017.00,0.0073
3016.00,0.0073
3015.00,0.0073
3014.00,0.0074
3013.00,0.0074
3012.00,0.0074
3011.00,0.0074
3010.00,0.0074
3009.00,0.0074
3008.00,0.0075
3007.00,0.0075
3006.00,0.0076
3005.00,0.0076
3004.00,0.0077
3003.00,0.0078
3002.00,0.0078
3001.00,0.0079
3000.00,0.0081
2999.00,0.0082
2998.00,0.0083
2997.00,0.0085
2996.00,0.0087
2995.00,0.0088
2994.00,0.0090
2993.00,0.0092
2992.00,0.0094
2991.00,0.0096
2990.00,0.0098
2989.00,0.0099
2988.00,0.0101
2987.00,0.0103
2986.00,0.0104
2985.00,0.0106
2984.00,0.0107
2983.00,0.0108
2982.00,0.0109
2981.00,0.0110
2980.00,0.0111
2979.00,0.0113
2978.00,0.0115
2977.00,0.0116
2976.00,0.0118
2975.00,0.0119
2974.00,0.0120
2973.00,0.0120
2972.00,0.0121
2971.00,0.0122
2970.00,0.0123
2969.00,0.0123
2968.00,0.0124
2967.00,0.0125
2966.00,0.0127
2965.00,0.0128
2964.00,0.0128
2963.00,0.0129
2962.00,0.0130
2961.00,0.0131
2960.00,0.0131
2959.00,0.0132
2958.00,0.0133
2957.00,0.0134
2956.00,0.0135
2955.00,0.0136
2954.00,0.0137
2953.00,0.0137
2952.00,0.0138
2951.00,0.0138
2950.00,0.0138
2949.00,0.0138
2948.00,0.0138
2947.00,0.0138
2946.00,0.0137
2945.00,0.0137
2944.00,0.0137
2943.00,0.0136
2942.00,0.0136
2941.00,0.0135
2940.00,0.0135
2939.00,0.0134
2938.00,0.0134
2937.00,0.0134
2936.00,0.0133
2935.00,0.0133
2934.00,0.0133
2933.00,0.0132
2932.00,0.0132
2931.00,0.0132
2930.00,0.0131
2929.00,0.0131
2928.00,0.0130
2927.00,0.0130
2926.00,0.0129
2925.00,0.0128
2924.00,0.0127
2923.00,0.0126
2922.00,0.0125
2921.00,0.0123
2920.00,0.0121
2919.00,0.0120
2918.00,0.0119
2917.00,0.0118
2916.00,0.0118
2915.00,0.0118
2914.00,0.0119
2913.00,0.0119
2912.00,0.0120
2911.00,0.0121
2910.00,0.0121
2909.00,0.0120
2908.00,0.0120
2907.00,0.0119
2906.00,0.0118
2905.00,0.0117
2904.00,0.0117
2903.00,0.0116
2902.00,0.0116
2901.00,0.0116
2900.00,0.0116
2899.00,0.0116
2898.00,0.0116
2897.00,0.0116
2896.00,0.0116
2895.00,0.0116
2894.00,0.0116
2893.00,0.0116
2892.00,0.0117
2891.00,0.0117
2890.00,0.0117
2889.00,0.0117
2888.00,0.0118
2887.00,0.0118
2886.00,0.0118
2885.00,0.0118
2884.00,0.0118
2883.00,0.0118
2882.00,0.0118
2881.00,0.0119
2880.00,0.0120
2879.00,0.0120
2878.00,0.0120
2877.00,0.0120
2876.00,0.0120
2875.00,0.0120
2874.00,0.0120
2873.00,0.0120
2872.00,0.0120
2871.00,0.0121
2870.00,0.0121
2869.00,0.0121
2868.00,0.0120
2867.00,0.0120
2866.00,0.0119
2865.00,0.0119
2864.00,0.0118
2863.00,0.0117
2862.00,0.0117
2861.00,0.0116
2860.00,0.0115
2859.00,0.0114
2858.00,0.0113
2857.00,0.0112
2856.00,0.0110
2855.00,0.0108
2854.00,0.0105
2853.00,0.0102
2852.00,0.0099
2851.00,0.0096
2850.00,0.0094
2849.00,0.0092
2848.00,0.0091
2847.00,0.0091
2846.00,0.0092
2845.00,0.0092
2844.00,0.0092
2843.00,0.0092
2842.00,0.0092
2841.00,0.0091
2840.00,0.0090
2839.00,0.0089
2838.00,0.0089
2837.00,0.0088
2836.00,0.0087
2835.00,0.0086
2834.00,0.0085
2833.00,0.0085
2832.00,0.0084
2831.00,0.0083
2830.00,0.0082
2829.00,0.0081
2828.00,0.0081
2827.00,0.0080
2826.00,0.0079
2825.00,0.0079
2824.00,0.0078
2823.00,0.0077
2822.00,0.0077
2821.00,0.0076
2820.00,0.0075
2819.00,0.0075
2818.00,0.0074
2817.00,0.0074
2816.00,0.0074
2815.00,0.0073
2814.00,0.0073
2813.00,0.0073
2812.00,0.0072
2811.00,0.0072
2810.00,0.0071
2809.00,0.0071
2808.00,0.0071
2807.00,0.0070
2806.00,0.0070
2805.00,0.0070
2804.00,0.0069
2803.00,0.0069
2802.00,0.0069
2801.00,0.0068
2800.00,0.0068
2799.00,0.0068
2798.00,0.0067
2797.00,0.0067
2796.00,0.0067
2795.00,0.0067
2794.00,0.0067
2793.00,0.0067
2792.00,0.0067
2791.00,0.0067
2790.00,0.0066
2789.00,0.0066
2788.00,0.0066
2787.00,0.0066
2786.00,0.0065
2785.00,0.0065
2784.00,0.0065
2783.00,0.0065
2782.00,0.0065
2781.00,0.0065
2780.00,0.0065
2779.00,0.0064
2778.00,0.0064
2777.00,0.0064
2776.00,0.0064
2775.00,0.0063
2774.00,0.0064
2773.00,0.0064
2772.00,0.0064
2771.00,0.0064
2770.00,0.0063
2769.00,0.0063
2768.00,0.0063
2767.00,0.0063
2766.00,0.0063
2765.00,0.0063
2764.00,0.0062
2763.00,0.0062
2762.00,0.0062
2761.00,0.0062
2760.00,0.0062
2759.00,0.0062
2758.00,0.0062
2757.00,0.0062
2756.00,0.0062
2755.00,0.0062
2754.00,0.0062
2753.00,0.0062
2752.00,0.0062
2751.00,0.0062
2750.00,0.0062
2749.00,0.0062
2748.00,0.0062
2747.00,0.0062
2746.00,0.0062
2745.00,0.0062
2744.00,0.0062
2743.00,0.0062
2742.00,0.0062
2741.00,0.0063
2740.00,0.0062
2739.00,0.0062
2738.00,0.0062
2737.00,0.0062
2736.00,0.0062
2735.00,0.0062
2734.00,0.0062
2733.00,0.0062
2732.00,0.0062
2731.00,0.0062
2730.00,0.0062
2729.00,0.0062
2728.00,0.0062
2727.00,0.0062
2726.00,0.0062
2725.00,0.0062
2724.00,0.0062
2723.00,0.0062
2722.00,0.0062
2721.00,0.0062
2720.00,0.0061
2719.00,0.0061
2718.00,0.0061
2717.00,0.0061
2716.00,0.0060
2715.00,0.0060
2714.00,0.0060
2713.00,0.0060
2712.00,0.0060
2711.00,0.0060
2710.00,0.0060
2709.00,0.0060
2708.00,0.0060
2707.00,0.0060
2706.00,0.0060
2705.00,0.0060
2704.00,0.0060
2703.00,0.0060
2702.00,0.0060
2701.00,0.0060
2700.00,0.0060
2699.00,0.0059
2698.00,0.0059
2697.00,0.0059
2696.00,0.0059
2695.00,0.0059
2694.00,0.0059
2693.00,0.0059
2692.00,0.0059
2691.00,0.0059
2690.00,0.0059
2689.00,0.0059
2688.00,0.0059
2687.00,0.0058
2686.00,0.0058
2685.00,0.0058
2684.00,0.0058
2683.00,0.0058
2682.00,0.0058
2681.00,0.0058
2680.00,0.0058
2679.00,0.0058
2678.00,0.0058
2677.00,0.0058
2676.00,0.0058
2675.00,0.0057
2674.00,0.0057
2673.00,0.0057
2672.00,0.0057
2671.00,0.0057
2670.00,0.0057
2669.00,0.0058
2668.00,0.0058
2667.00,0.0058
2666.00,0.0058
2665.00,0.0059
2664.00,0.0059
2663.00,0.0059
2662.00,0.0060
2661.00,0.0060
2660.00,0.0060
2659.00,0.0060
2658.00,0.0060
2657.00,0.0060
2656.00,0.0060
2655.00,0.0060
2654.00,0.0060
2653.00,0.0060
2652.00,0.0060
2651.00,0.0060
2650.00,0.0060
2649.00,0.0060
2648.00,0.0060
2647.00,0.0060
2646.00,0.0059
2645.00,0.0059
2644.00,0.0059
2643.00,0.0059
2642.00,0.0059
2641.00,0.0059
2640.00,0.0059
2639.00,0.0059
2638.00,0.0059
2637.00,0.0059
2636.00,0.0059
2635.00,0.0059
2634.00,0.0059
2633.00,0.0058
2632.00,0.0058
2631.00,0.0058
2630.00,0.0058
2629.00,0.0058
2628.00,0.0058
2627.00,0.0058
2626.00,0.0058
2625.00,0.0058
2624.00,0.0057
2623.00,0.0057
2622.00,0.0057
2621.00,0.0057
2620.00,0.0057
2619.00,0.0057
2618.00,0.0057
2617.00,0.0057
2616.00,0.0056
2615.00,0.0056
2614.00,0.0056
2613.00,0.0056
2612.00,0.0056
2611.00,0.0056
2610.00,0.0056
2609.00,0.0056
2608.00,0.0056
2607.00,0.0056
2606.00,0.0056
2605.00,0.0055
2604.00,0.0055
2603.00,0.0055
2602.00,0.0055
2601.00,0.0055
2600.00,0.0055
2599.00,0.0055
2598.00,0.0055
2597.00,0.0055
2596.00,0.0055
2595.00,0.0055
2594.00,0.0054
2593.00,0.0054
2592.00,0.0053
2591.00,0.0053
2590.00,0.0053
2589.00,0.0053
2588.00,0.0054
2587.00,0.0054
2586.00,0.0054
2585.00,0.0054
2584.00,0.0054
2583.00,0.0053
2582.00,0.0053
2581.00,0.0053
2580.00,0.0053
2579.00,0.0053
2578.00,0.0052
2577.00,0.0052
2576.00,0.0052
2575.00,0.0052
2574.00,0.0052
2573.00,0.0052
2572.00,0.0052
2571.00,0.0052
2570.00,0.0052
2569.00,0.0052
2568.00,0.0051
2567.00,0.0051
2566.00,0.0051
2565.00,0.0051
2564.00,0.0051
2563.00,0.0052
2562.00,0.0052
2561.00,0.0052
2560.00,0.0052
2559.00,0.0052
2558.00,0.0051
2557.00,0.0051
2556.00,0.0050
2555.00,0.0050
2554.00,0.0050
2553.00,0.0050
2552.00,0.0050
2551.00,0.0050
2550.00,0.0050
2549.00,0.0050
2548.00,0.0050
2547.00,0.0050
2546.00,0.0050
2545.00,0.0050
2544.00,0.0050
2543.00,0.0050
2542.00,0.0050
2541.00,0.0050
2540.00,0.0050
2539.00,0.0049
2538.00,0.0049
2537.00,0.0049
2536.00,0.0050
2535.00,0.0049
2534.00,0.0049
2533.00,0.0049
2532.00,0.0049
2531.00,0.0049
2530.00,0.0048
2529.00,0.0048
2528.00,0.0048
2527.00,0.0048
2526.00,0.0048
2525.00,0.0047
2524.00,0.0047
2523.00,0.0047
2522.00,0.0047
2521.00,0.0047
2520.00,0.0047
2519.00,0.0047
2518.00,0.0047
2517.00,0.0047
2516.00,0.0047
2515.00,0.0047
2514.00,0.0047
2513.00,0.0047
2512.00,0.0047
2511.00,0.0047
2510.00,0.0046
2509.00,0.0046
2508.00,0.0046
2507.00,0.0046
2506.00,0.0046
2505.00,0.0046
2504.00,0.0046
2503.00,0.0046
2502.00,0.0046
2501.00,0.0046
2500.00,0.0046
2499.00,0.0046
2498.00,0.0046
2497.00,0.0046
2496.00,0.0046
2495.00,0.0046
2494.00,0.0046
2493.00,0.0046
2492.00,0.0046
2491.00,0.0046
2490.00,0.0046
2489.00,0.0045
2488.00,0.0045
2487.00,0.0045
2486.00,0.0045
2485.00,0.0045
2484.00,0.0045
2483.00,0.0045
2482.00,0.0045
2481.00,0.0045
2480.00,0.0045
2479.00,0.0045
2478.00,0.0045
2477.00,0.0045
2476.00,0.0045
2475.00,0.0045
2474.00,0.0045
2473.00,0.0044
2472.00,0.0044
2471.00,0.0044
2470.00,0.0044
2469.00,0.0044
2468.00,0.0044
2467.00,0.0045
2466.00,0.0045
2465.00,0.0045
2464.00,0.0045
2463.00,0.0045
2462.00,0.0045
2461.00,0.0046
2460.00,0.0046
2459.00,0.0046
2458.00,0.0046
2457.00,0.0046
2456.00,0.0046
2455.00,0.0046
2454.00,0.0046
2453.00,0.0046
2452.00,0.0045
2451.00,0.0045
2450.00,0.0045
2449.00,0.0045
2448.00,0.0045
2447.00,0.0045
2446.00,0.0045
2445.00,0.0044
2444.00,0.0044
2443.00,0.0044
2442.00,0.0044
2441.00,0.0044
2440.00,0.0044
2439.00,0.0044
2438.00,0.0045
2437.00,0.0045
2436.00,0.0044
2435.00,0.0044
2434.00,0.0044
2433.00,0.0044
2432.00,0.0044
2431.00,0.0045
2430.00,0.0045
2429.00,0.0044
2428.00,0.0044
2427.00,0.0044
2426.00,0.0044
2425.00,0.0044
2424.00,0.0044
2423.00,0.0044
2422.00,0.0044
2421.00,0.0044
2420.00,0.0044
2419.00,0.0044
2418.00,0.0043
2417.00,0.0043
2416.00,0.0043
2415.00,0.0043
2414.00,0.0043
2413.00,0.0043
2412.00,0.0043
2411.00,0.0043
2410.00,0.0043
2409.00,0.0043
2408.00,0.0042
2407.00,0.0041
2406.00,0.0041
2405.00,0.0041
2404.00,0.0041
2403.00,0.0041
2402.00,0.0041
2401.00,0.0041
2400.00,0.0041
2399.00,0.0041
2398.00,0.0041
2397.00,0.0041
2396.00,0.0041
2395.00,0.0041
2394.00,0.0041
2393.00,0.0041
2392.00,0.0041
2391.00,0.0041
2390.00,0.0041
2389.00,0.0041
2388.00,0.0040
2387.00,0.0040
2386.00,0.0040
2385.00,0.0039
2384.00,0.0038
2383.00,0.0038
2382.00,0.0037
2381.00,0.0037
2380.00,0.0037
2379.00,0.0037
2378.00,0.0037
2377.00,0.0038
2376.00,0.0038
2375.00,0.0038
2374.00,0.0038
2373.00,0.0038
2372.00,0.0038
2371.00,0.0038
2370.00,0.0037
2369.00,0.0037
2368.00,0.0036
2367.00,0.0036
2366.00,0.0036
2365.00,0.0037
2364.00,0.0037
2363.00,0.0037
2362.00,0.0037
2361.00,0.0037
2360.00,0.0038
2359.00,0.0039
2358.00,0.0039
2357.00,0.0039
2356.00,0.0039
2355.00,0.0038
2354.00,0.0038
2353.00,0.0038
2352.00,0.0038
2351.00,0.0038
2350.00,0.0039
2349.00,0.0039
2348.00,0.0040
2347.00,0.0040
2346.00,0.0040
2345.00,0.0040
2344.00,0.0041
2343.00,0.0041
2342.00,0.0041
2341.00,0.0041
2340.00,0.0042
2339.00,0.0042
2338.00,0.0042
2337.00,0.0042
2336.00,0.0042
2335.00,0.0041
2334.00,0.0041
2333.00,0.0041
2332.00,0.0041
2331.00,0.0041
2330.00,0.0042
2329.00,0.0043
2328.00,0.0046
2327.00,0.0050
2326.00,0.0052
2325.00,0.0053
2324.00,0.0053
2323.00,0.0051
2322.00,0.0049
2321.00,0.0048
2320.00,0.0048
2319.00,0.0048
2318.00,0.0047
2317.00,0.0047
2316.00,0.0046
2315.00,0.0045
2314.00,0.0045
2313.00,0.0044
2312.00,0.0044
2311.00,0.0045
2310.00,0.0045
2309.00,0.0045
2308.00,0.0045
2307.00,0.0045
2306.00,0.0045
2305.00,0.0045
2304.00,0.0045
2303.00,0.0045
2302.00,0.0045
2301.00,0.0045
2300.00,0.0045
2299.00,0.0046
2298.00,0.0046
2297.00,0.0047
2296.00,0.0047
2295.00,0.0048
2294.00,0.0048
2293.00,0.0049
2292.00,0.0049
2291.00,0.0050
2290.00,0.0050
2289.00,0.0050
2288.00,0.0051
2287.00,0.0051
2286.00,0.0051
2285.00,0.0050
2284.00,0.0049
2283.00,0.0049
2282.00,0.0048
2281.00,0.0048
2280.00,0.0048
2279.00,0.0048
2278.00,0.0048
2277.00,0.0047
2276.00,0.0046
2275.00,0.0045
2274.00,0.0045
2273.00,0.0045
2272.00,0.0045
2271.00,0.0045
2270.00,0.0045
2269.00,0.0045
2268.00,0.0045
2267.00,0.0044
2266.00,0.0043
2265.00,0.0043
2264.00,0.0043
2263.00,0.0044
2262.00,0.0045
2261.00,0.0045
2260.00,0.0046
2259.00,0.0046
2258.00,0.0045
2257.00,0.0044
2256.00,0.0044
2255.00,0.0043
2254.00,0.0043
2253.00,0.0043
2252.00,0.0043
2251.00,0.0043
2250.00,0.0043
2249.00,0.0042
2248.00,0.0042
2247.00,0.0042
2246.00,0.0042
2245.00,0.0042
2244.00,0.0041
2243.00,0.0041
2242.00,0.0040
2241.00,0.0040
2240.00,0.0041
2239.00,0.0041
2238.00,0.0041
2237.00,0.0041
2236.00,0.0040
2235.00,0.0041
2234.00,0.0041
2233.00,0.0042
2232.00,0.0043
2231.00,0.0042
2230.00,0.0041
2229.00,0.0040
2228.00,0.0040
2227.00,0.0040
2226.00,0.0041
2225.00,0.0041
2224.00,0.0041
2223.00,0.0041
2222.00,0.0041
2221.00,0.0041
2220.00,0.0041
2219.00,0.0040
2218.00,0.0039
2217.00,0.0039
2216.00,0.0040
2215.00,0.0041
2214.00,0.0042
2213.00,0.0042
2212.00,0.0042
2211.00,0.0042
2210.00,0.0042
2209.00,0.0041
2208.00,0.0041
2207.00,0.0040
2206.00,0.0040
2205.00,0.0040
2204.00,0.0040
2203.00,0.0041
2202.00,0.0041
2201.00,0.0042
2200.00,0.0042
2199.00,0.0042
2198.00,0.0042
2197.00,0.0042
2196.00,0.0043
2195.00,0.0043
2194.00,0.0044
2193.00,0.0046
2192.00,0.0047
2191.00,0.0047
2190.00,0.0047
2189.00,0.0046
2188.00,0.0045
2187.00,0.0045
2186.00,0.0044
2185.00,0.0043
2184.00,0.0041
2183.00,0.0040
2182.00,0.0040
2181.00,0.0041
2180.00,0.0042
2179.00,0.0042
2178.00,0.0041
2177.00,0.0038
2176.00,0.0036
2175.00,0.0036
2174.00,0.0037
2173.00,0.0038
2172.00,0.0040
2171.00,0.0043
2170.00,0.0045
2169.00,0.0047
2168.00,0.0048
2167.00,0.0048
2166.00,0.0047
2165.00,0.0046
2164.00,0.0046
2163.00,0.0046
2162.00,0.0043
2161.00,0.0035
2160.00,0.0025
2159.00,0.0017
2158.00,0.0012
2157.00,0.0012
2156.00,0.0014
2155.00,0.0016
2154.00,0.0019
2153.00,0.0021
2152.00,0.0023
2151.00,0.0024
2150.00,0.0025
2149.00,0.0024
2148.00,0.0024
2147.00,0.0024
2146.00,0.0024
2145.00,0.0025
2144.00,0.0026
2143.00,0.0026
2142.00,0.0027
2141.00,0.0027
2140.00,0.0028
2139.00,0.0028
2138.00,0.0028
2137.00,0.0026
2136.00,0.0023
2135.00,0.0021
2134.00,0.0021
2133.00,0.0021
2132.00,0.0023
2131.00,0.0025
2130.00,0.0027
2129.00,0.0029
2128.00,0.0030
2127.00,0.0031
2126.00,0.0031
2125.00,0.0031
2124.00,0.0032
2123.00,0.0032
2122.00,0.0033
2121.00,0.0034
2120.00,0.0035
2119.00,0.0036
2118.00,0.0037
2117.00,0.0038
2116.00,0.0038
2115.00,0.0039
2114.00,0.0039
2113.00,0.0039
2112.00,0.0039
2111.00,0.0039
2110.00,0.0039
2109.00,0.0038
2108.00,0.0038
2107.00,0.0038
2106.00,0.0038
2105.00,0.0039
2104.00,0.0039
2103.00,0.0039
2102.00,0.0039
2101.00,0.0039
2100.00,0.0038
2099.00,0.0038
2098.00,0.0037
2097.00,0.0036
2096.00,0.0035
2095.00,0.0034
2094.00,0.0034
2093.00,0.0035
2092.00,0.0036
2091.00,0.0037
2090.00,0.0037
2089.00,0.0038
2088.00,0.0038
2087.00,0.0039
2086.00,0.0040
2085.00,0.0040
2084.00,0.0041
2083.00,0.0041
2082.00,0.0041
2081.00,0.0040
2080.00,0.0041
2079.00,0.0041
2078.00,0.0041
2077.00,0.0040
2076.00,0.0040
2075.00,0.0040
2074.00,0.0039
2073.00,0.0039
2072.00,0.0039
2071.00,0.0039
2070.00,0.0039
2069.00,0.0040
2068.00,0.0040
2067.00,0.0040
2066.00,0.0040
2065.00,0.0040
2064.00,0.0040
2063.00,0.0039
2062.00,0.0038
2061.00,0.0037
2060.00,0.0037
2059.00,0.0037
2058.00,0.0038
2057.00,0.0038
2056.00,0.0038
2055.00,0.0039
2054.00,0.0041
2053.00,0.0044
2052.00,0.0047
2051.00,0.0048
2050.00,0.0047
2049.00,0.0045
2048.00,0.0042
2047.00,0.0041
2046.00,0.0040
2045.00,0.0040
2044.00,0.0041
2043.00,0.0042
2042.00,0.0043
2041.00,0.0042
2040.00,0.0041
2039.00,0.0040
2038.00,0.0039
2037.00,0.0037
2036.00,0.0036
2035.00,0.0035
2034.00,0.0034
2033.00,0.0033
2032.00,0.0033
2031.00,0.0032
2030.00,0.0032
2029.00,0.0032
2028.00,0.0032
2027.00,0.0033
2026.00,0.0034
2025.00,0.0035
2024.00,0.0034
2023.00,0.0033
2022.00,0.0032
2021.00,0.0031
2020.00,0.0031
2019.00,0.0031
2018.00,0.0031
2017.00,0.0031
2016.00,0.0032
2015.00,0.0031
2014.00,0.0030
2013.00,0.0029
2012.00,0.0030
2011.00,0.0030
2010.00,0.0031
2009.00,0.0030
2008.00,0.0028
2007.00,0.0026
2006.00,0.0025
2005.00,0.0026
2004.00,0.0027
2003.00,0.0029
2002.00,0.0030
2001.00,0.0031
2000.00,0.0033
1999.00,0.0034
1998.00,0.0034
1997.00,0.0034
1996.00,0.0034
1995.00,0.0035
1994.00,0.0035
1993.00,0.0035
1992.00,0.0035
1991.00,0.0035
1990.00,0.0034
1989.00,0.0035
1988.00,0.0036
1987.00,0.0037
1986.00,0.0039
1985.00,0.0039
1984.00,0.0040
1983.00,0.0042
1982.00,0.0043
1981.00,0.0045
1980.00,0.0044
1979.00,0.0040
1978.00,0.0035
1977.00,0.0031
1976.00,0.0029
1975.00,0.0028
1974.00,0.0027
1973.00,0.0026
1972.00,0.0027
1971.00,0.0027
1970.00,0.0027
1969.00,0.0026
1968.00,0.0025
1967.00,0.0025
1966.00,0.0025
1965.00,0.0025
1964.00,0.0025
1963.00,0.0025
1962.00,0.0024
1961.00,0.0023
1960.00,0.0022
1959.00,0.0022
1958.00,0.0023
1957.00,0.0025
1956.00,0.0026
1955.00,0.0026
1954.00,0.0026
1953.00,0.0026
1952.00,0.0026
1951.00,0.0026
1950.00,0.0026
1949.00,0.0027
1948.00,0.0028
1947.00,0.0028
1946.00,0.0028
1945.00,0.0028
1944.00,0.0028
1943.00,0.0028
1942.00,0.0028
1941.00,0.0028
1940.00,0.0028
1939.00,0.0028
1938.00,0.0027
1937.00,0.0028
1936.00,0.0028
1935.00,0.0029
1934.00,0.0030
1933.00,0.0030
1932.00,0.0030
1931.00,0.0029
1930.00,0.0029
1929.00,0.0029
1928.00,0.0029
1927.00,0.0030
1926.00,0.0030
1925.00,0.0030
1924.00,0.0030
1923.00,0.0030
1922.00,0.0030
1921.00,0.0031
1920.00,0.0031
1919.00,0.0031
1918.00,0.0031
1917.00,0.0031
1916.00,0.0031
1915.00,0.0031
1914.00,0.0031
1913.00,0.0031
1912.00,0.0031
1911.00,0.0031
1910.00,0.0032
1909.00,0.0032
1908.00,0.0032
1907.00,0.0032
1906.00,0.0032
1905.00,0.0032
1904.00,0.0032
1903.00,0.0032
1902.00,0.0032
1901.00,0.0032
1900.00,0.0032
1899.00,0.0031
1898.00,0.0031
1897.00,0.0031
1896.00,0.0031
1895.00,0.0031
1894.00,0.0031
1893.00,0.0031
1892.00,0.0031
1891.00,0.0031
1890.00,0.0031
1889.00,0.0031
1888.00,0.0031
1887.00,0.0031
1886.00,0.0031
1885.00,0.0031
1884.00,0.0031
1883.00,0.0032
1882.00,0.0032
1881.00,0.0032
1880.00,0.0032
1879.00,0.0032
1878.00,0.0032
1877.00,0.0032
1876.00,0.0032
1875.00,0.0032
1874.00,0.0032
1873.00,0.0032
1872.00,0.0032
1871.00,0.0032
1870.00,0.0031
1869.00,0.0032
1868.00,0.0032
1867.00,0.0032
1866.00,0.0032
1865.00,0.0032
1864.00,0.0032
1863.00,0.0032
1862.00,0.0032
1861.00,0.0032
1860.00,0.0031
1859.00,0.0031
1858.00,0.0031
1857.00,0.0031
1856.00,0.0031
1855.00,0.0032
1854.00,0.0032
1853.00,0.0032
1852.00,0.0032
1851.00,0.0032
1850.00,0.0032
1849.00,0.0032
1848.00,0.0032
1847.00,0.0031
1846.00,0.0031
1845.00,0.0031
1844.00,0.0031
1843.00,0.0031
1842.00,0.0032
1841.00,0.0032
1840.00,0.0031
1839.00,0.0031
1838.00,0.0031
1837.00,0.0031
1836.00,0.0032
1835.00,0.0032
1834.00,0.0032
1833.00,0.0032
1832.00,0.0031
1831.00,0.0031
1830.00,0.0031
1829.00,0.0031
1828.00,0.0031
1827.00,0.0031
1826.00,0.0031
1825.00,0.0031
1824.00,0.0031
1823.00,0.0032
1822.00,0.0032
1821.00,0.0031
1820.00,0.0030
1819.00,0.0030
1818.00,0.0029
1817.00,0.0029
1816.00,0.0029
1815.00,0.0030
1814.00,0.0030
1813.00,0.0030
1812.00,0.0030
1811.00,0.0031
1810.00,0.0031
1809.00,0.0031
1808.00,0.0031
1807.00,0.0031
1806.00,0.0031
1805.00,0.0031
1804.00,0.0031
1803.00,0.0031
1802.00,0.0031
1801.00,0.0031
1800.00,0.0031
1799.00,0.0032
1798.00,0.0032
1797.00,0.0032
1796.00,0.0032
1795.00,0.0032
1794.00,0.0031
1793.00,0.0031
1792.00,0.0032
1791.00,0.0032
1790.00,0.0032
1789.00,0.0033
1788.00,0.0033
1787.00,0.0033
1786.00,0.0033
1785.00,0.0033
1784.00,0.0032
1783.00,0.0032
1782.00,0.0032
1781.00,0.0032
1780.00,0.0032
1779.00,0.0032
1778.00,0.0032
1777.00,0.0031
1776.00,0.0031
1775.00,0.0031
1774.00,0.0031
1773.00,0.0031
1772.00,0.0032
1771.00,0.0032
1770.00,0.0032
1769.00,0.0032
1768.00,0.0033
1767.00,0.0033
1766.00,0.0033
1765.00,0.0033
1764.00,0.0033
1763.00,0.0033
1762.00,0.0033
1761.00,0.0033
1760.00,0.0033
1759.00,0.0033
1758.00,0.0033
1757.00,0.0033
1756.00,0.0033
1755.00,0.0033
1754.00,0.0033
1753.00,0.0032
1752.00,0.0033
1751.00,0.0033
1750.00,0.0033
1749.00,0.0033
1748.00,0.0033
1747.00,0.0033
1746.00,0.0033
1745.00,0.0033
1744.00,0.0033
1743.00,0.0034
1742.00,0.0034
1741.00,0.0034
1740.00,0.0034
1739.00,0.0034
1738.00,0.0034
1737.00,0.0034
1736.00,0.0035
1735.00,0.0035
1734.00,0.0035
1733.00,0.0035
1732.00,0.0036
1731.00,0.0036
1730.00,0.0037
1729.00,0.0037
1728.00,0.0037
1727.00,0.0038
1726.00,0.0038
1725.00,0.0039
1724.00,0.0039
1723.00,0.0040
1722.00,0.0041
1721.00,0.0041
1720.00,0.0042
1719.00,0.0042
1718.00,0.0043
1717.00,0.0044
1716.00,0.0045
1715.00,0.0047
1714.00,0.0049
1713.00,0.0051
1712.00,0.0053
1711.00,0.0055
1710.00,0.0057
1709.00,0.0059
1708.00,0.0063
1707.00,0.0067
1706.00,0.0071
1705.00,0.0076
1704.00,0.0082
1703.00,0.0089
1702.00,0.0097
1701.00,0.0106
1700.00,0.0118
1699.00,0.0129
1698.00,0.0139
1697.00,0.0151
1696.00,0.0167
1695.00,0.0185
1694.00,0.0201
1693.00,0.0218
1692.00,0.0235
1691.00,0.0253
1690.00,0.0271
1689.00,0.0290
1688.00,0.0308
1687.00,0.0326
1686.00,0.0343
1685.00,0.0360
1684.00,0.0376
1683.00,0.0389
1682.00,0.0402
1681.00,0.0416
1680.00,0.0430
1679.00,0.0443
1678.00,0.0456
1677.00,0.0468
1676.00,0.0477
1675.00,0.0483
1674.00,0.0488
1673.00,0.0496
1672.00,0.0505
1671.00,0.0513
1670.00,0.0517
1669.00,0.0519
1668.00,0.0523
1667.00,0.0529
1666.00,0.0538
1665.00,0.0547
1664.00,0.0554
1663.00,0.0558
1662.00,0.0559
1661.00,0.0562
1660.00,0.0567
1659.00,0.0573
1658.00,0.0578
1657.00,0.0585
1656.00,0.0593
1655.00,0.0599
1654.00,0.0594
1653.00,0.0572
1652.00,0.0554
1651.00,0.0551
1650.00,0.0555
1649.00,0.0559
1648.00,0.0554
1647.00,0.0538
1646.00,0.0517
1645.00,0.0501
1644.00,0.0490
1643.00,0.0480
1642.00,0.0470
1641.00,0.0458
1640.00,0.0445
1639.00,0.0434
1638.00,0.0422
1637.00,0.0407
1636.00,0.0384
1635.00,0.0360
1634.00,0.0341
1633.00,0.0330
1632.00,0.0321
1631.00,0.0313
1630.00,0.0304
1629.00,0.0294
1628.00,0.0284
1627.00,0.0277
1626.00,0.0272
1625.00,0.0270
1624.00,0.0268
1623.00,0.0267
1622.00,0.0268
1621.00,0.0269
1620.00,0.0272
1619.00,0.0274
1618.00,0.0272
1617.00,0.0266
1616.00,0.0258
1615.00,0.0252
1614.00,0.0248
1613.00,0.0244
1612.00,0.0241
1611.00,0.0236
1610.00,0.0232
1609.00,0.0226
1608.00,0.0220
1607.00,0.0213
1606.00,0.0204
1605.00,0.0196
1604.00,0.0186
1603.00,0.0177
1602.00,0.0169
1601.00,0.0162
1600.00,0.0155
1599.00,0.0149
1598.00,0.0145
1597.00,0.0141
1596.00,0.0138
1595.00,0.0137
1594.00,0.0137
1593.00,0.0139
1592.00,0.0143
1591.00,0.0147
1590.00,0.0153
1589.00,0.0159
1588.00,0.0165
1587.00,0.0170
1586.00,0.0174
1585.00,0.0175
1584.00,0.0173
1583.00,0.0169
1582.00,0.0164
1581.00,0.0158
1580.00,0.0152
1579.00,0.0146
1578.00,0.0140
1577.00,0.0133
1576.00,0.0127
1575.00,0.0122
1574.00,0.0119
1573.00,0.0117
1572.00,0.0116
1571.00,0.0114
1570.00,0.0111
1569.00,0.0109
1568.00,0.0107
1567.00,0.0105
1566.00,0.0103
1565.00,0.0101
1564.00,0.0099
1563.00,0.0098
1562.00,0.0097
1561.00,0.0095
1560.00,0.0093
1559.00,0.0091
1558.00,0.0090
1557.00,0.0089
1556.00,0.0088
1555.00,0.0087
1554.00,0.0086
1553.00,0.0085
1552.00,0.0084
1551.00,0.0084
1550.00,0.0083
1549.00,0.0083
1548.00,0.0082
1547.00,0.0081
1546.00,0.0080
1545.00,0.0079
1544.00,0.0077
1543.00,0.0076
1542.00,0.0075
1541.00,0.0075
1540.00,0.0074
1539.00,0.0075
1538.00,0.0075
1537.00,0.0075
1536.00,0.0075
1535.00,0.0076
1534.00,0.0076
1533.00,0.0076
1532.00,0.0076
1531.00,0.0077
1530.00,0.0077
1529.00,0.0077
1528.00,0.0077
1527.00,0.0077
1526.00,0.0077
1525.00,0.0078
1524.00,0.0078
1523.00,0.0079
1522.00,0.0079
1521.00,0.0080
1520.00,0.0082
1519.00,0.0083
1518.00,0.0084
1517.00,0.0085
1516.00,0.0086
1515.00,0.0088
1514.00,0.0088
1513.00,0.0089
1512.00,0.0089
1511.00,0.0089
1510.00,0.0090
1509.00,0.0090
1508.00,0.0091
1507.00,0.0094
1506.00,0.0098
1505.00,0.0102
1504.00,0.0106
1503.00,0.0111
1502.00,0.0118
1501.00,0.0125
1500.00,0.0133
1499.00,0.0141
1498.00,0.0150
1497.00,0.0158
1496.00,0.0164
1495.00,0.0168
1494.00,0.0170
1493.00,0.0171
1492.00,0.0170
1491.00,0.0165
1490.00,0.0159
1489.00,0.0151
1488.00,0.0143
1487.00,0.0135
1486.00,0.0128
1485.00,0.0122
1484.00,0.0117
1483.00,0.0112
1482.00,0.0108
1481.00,0.0104
1480.00,0.0102
1479.00,0.0100
1478.00,0.0100
1477.00,0.0101
1476.00,0.0102
1475.00,0.0105
1474.00,0.0109
1473.00,0.0116
1472.00,0.0126
1471.00,0.0136
1470.00,0.0147
1469.00,0.0159
1468.00,0.0173
1467.00,0.0187
1466.00,0.0203
1465.00,0.0220
1464.00,0.0236
1463.00,0.0248
1462.00,0.0258
1461.00,0.0266
1460.00,0.0270
1459.00,0.0270
1458.00,0.0263
1457.00,0.0249
1456.00,0.0234
1455.00,0.0223
1454.00,0.0216
1453.00,0.0210
1452.00,0.0206
1451.00,0.0204
1450.00,0.0204
1449.00,0.0206
1448.00,0.0211
1447.00,0.0218
1446.00,0.0227
1445.00,0.0238
1444.00,0.0249
1443.00,0.0260
1442.00,0.0272
1441.00,0.0283
1440.00,0.0293
1439.00,0.0303
1438.00,0.0312
1437.00,0.0319
1436.00,0.0324
1435.00,0.0328
1434.00,0.0332
1433.00,0.0336
1432.00,0.0340
1431.00,0.0343
1430.00,0.0346
1429.00,0.0351
1428.00,0.0357
1427.00,0.0365
1426.00,0.0375
1425.00,0.0385
1424.00,0.0395
1423.00,0.0401
1422.00,0.0406
1421.00,0.0407
1420.00,0.0399
1419.00,0.0382
1418.00,0.0361
1417.00,0.0341
1416.00,0.0322
1415.00,0.0305
1414.00,0.0287
1413.00,0.0272
1412.00,0.0257
1411.00,0.0245
1410.00,0.0235
1409.00,0.0228
1408.00,0.0223
1407.00,0.0220
1406.00,0.0218
1405.00,0.0217
1404.00,0.0216
1403.00,0.0215
1402.00,0.0214
1401.00,0.0213
1400.00,0.0208
1399.00,0.0201
1398.00,0.0194
1397.00,0.0186
1396.00,0.0178
1395.00,0.0170
1394.00,0.0162
1393.00,0.0157
1392.00,0.0152
1391.00,0.0149
1390.00,0.0147
1389.00,0.0146
1388.00,0.0146
1387.00,0.0147
1386.00,0.0150
1385.00,0.0153
1384.00,0.0157
1383.00,0.0162
1382.00,0.0167
1381.00,0.0171
1380.00,0.0175
1379.00,0.0178
1378.00,0.0180
1377.00,0.0182
1376.00,0.0182
1375.00,0.0182
1374.00,0.0181
1373.00,0.0180
1372.00,0.0179
1371.00,0.0178
1370.00,0.0177
1369.00,0.0175
1368.00,0.0173
1367.00,0.0172
1366.00,0.0171
1365.00,0.0170
1364.00,0.0170
1363.00,0.0170
1362.00,0.0170
1361.00,0.0170
1360.00,0.0168
1359.00,0.0165
1358.00,0.0160
1357.00,0.0154
1356.00,0.0148
1355.00,0.0141
1354.00,0.0136
1353.00,0.0132
1352.00,0.0128
1351.00,0.0126
1350.00,0.0124
1349.00,0.0122
1348.00,0.0121
1347.00,0.0120
1346.00,0.0119
1345.00,0.0119
1344.00,0.0118
1343.00,0.0118
1342.00,0.0117
1341.00,0.0117
1340.00,0.0117
1339.00,0.0118
1338.00,0.0119
1337.00,0.0121
1336.00,0.0122
1335.00,0.0124
1334.00,0.0126
1333.00,0.0128
1332.00,0.0130
1331.00,0.0133
1330.00,0.0135
1329.00,0.0138
1328.00,0.0141
1327.00,0.0145
1326.00,0.0149
1325.00,0.0154
1324.00,0.0158
1323.00,0.0163
1322.00,0.0168
1321.00,0.0173
1320.00,0.0177
1319.00,0.0180
1318.00,0.0183
1317.00,0.0184
1316.00,0.0184
1315.00,0.0182
1314.00,0.0180
1313.00,0.0177
1312.00,0.0174
1311.00,0.0171
1310.00,0.0169
1309.00,0.0167
1308.00,0.0166
1307.00,0.0166
1306.00,0.0167
1305.00,0.0169
1304.00,0.0172
1303.00,0.0177
1302.00,0.0183
1301.00,0.0191
1300.00,0.0202
1299.00,0.0215
1298.00,0.0231
1297.00,0.0250
1296.00,0.0271
1295.00,0.0294
1294.00,0.0319
1293.00,0.0344
1292.00,0.0368
1291.00,0.0390
1290.00,0.0410
1289.00,0.0427
1288.00,0.0440
1287.00,0.0449
1286.00,0.0454
1285.00,0.0454
1284.00,0.0451
1283.00,0.0444
1282.00,0.0436
1281.00,0.0427
1280.00,0.0419
1279.00,0.0412
1278.00,0.0408
1277.00,0.0405
1276.00,0.0405
1275.00,0.0406
1274.00,0.0408
1273.00,0.0409
1272.00,0.0410
1271.00,0.0408
1270.00,0.0404
1269.00,0.0397
1268.00,0.0388
1267.00,0.0377
1266.00,0.0364
1265.00,0.0350
1264.00,0.0336
1263.00,0.0321
1262.00,0.0307
1261.00,0.0293
1260.00,0.0279
1259.00,0.0266
1258.00,0.0255
1257.00,0.0245
1256.00,0.0235
1255.00,0.0226
1254.00,0.0219
1253.00,0.0212
1252.00,0.0207
1251.00,0.0202
1250.00,0.0199
1249.00,0.0197
1248.00,0.0196
1247.00,0.0197
1246.00,0.0198
1245.00,0.0201
1244.00,0.0204
1243.00,0.0207
1242.00,0.0211
1241.00,0.0215
1240.00,0.0217
1239.00,0.0220
1238.00,0.0223
1237.00,0.0225
1236.00,0.0227
1235.00,0.0230
1234.00,0.0232
1233.00,0.0234
1232.00,0.0235
1231.00,0.0236
1230.00,0.0236
1229.00,0.0236
1228.00,0.0236
1227.00,0.0235
1226.00,0.0235
1225.00,0.0235
1224.00,0.0235
1223.00,0.0235
1222.00,0.0236
1221.00,0.0236
1220.00,0.0237
1219.00,0.0237
1218.00,0.0236
1217.00,0.0235
1216.00,0.0232
1215.00,0.0228
1214.00,0.0224
1213.00,0.0218
1212.00,0.0212
1211.00,0.0206
1210.00,0.0200
1209.00,0.0195
1208.00,0.0190
1207.00,0.0186
1206.00,0.0183
1205.00,0.0181
1204.00,0.0179
1203.00,0.0179
1202.00,0.0179
1201.00,0.0181
1200.00,0.0182
1199.00,0.0185
1198.00,0.0188
1197.00,0.0192
1196.00,0.0194
1195.00,0.0196
1194.00,0.0197
1193.00,0.0197
1192.00,0.0194
1191.00,0.0190
1190.00,0.0185
1189.00,0.0180
1188.00,0.0175
1187.00,0.0170
1186.00,0.0165
1185.00,0.0161
1184.00,0.0158
1183.00,0.0155
1182.00,0.0153
1181.00,0.0152
1180.00,0.0151
1179.00,0.0150
1178.00,0.0151
1177.00,0.0152
1176.00,0.0153
1175.00,0.0154
1174.00,0.0155
1173.00,0.0157
1172.00,0.0159
1171.00,0.0160
1170.00,0.0162
1169.00,0.0163
1168.00,0.0164
1167.00,0.0164
1166.00,0.0164
1165.00,0.0164
1164.00,0.0165
1163.00,0.0166
1162.00,0.0168
1161.00,0.0172
1160.00,0.0175
1159.00,0.0178
1158.00,0.0182
1157.00,0.0183
1156.00,0.0184
1155.00,0.0182
1154.00,0.0180
1153.00,0.0176
1152.00,0.0171
1151.00,0.0165
1150.00,0.0159
1149.00,0.0153
1148.00,0.0147
1147.00,0.0141
1146.00,0.0137
1145.00,0.0133
1144.00,0.0129
1143.00,0.0126
1142.00,0.0124
1141.00,0.0122
1140.00,0.0120
1139.00,0.0120
1138.00,0.0121
1137.00,0.0124
1136.00,0.0127
1135.00,0.0133
1134.00,0.0140
1133.00,0.0148
1132.00,0.0155
1131.00,0.0162
1130.00,0.0167
1129.00,0.0168
1128.00,0.0166
1127.00,0.0161
1126.00,0.0154
1125.00,0.0146
1124.00,0.0139
1123.00,0.0133
1122.00,0.0128
1121.00,0.0124
1120.00,0.0121
1119.00,0.0119
1118.00,0.0117
1117.00,0.0116
1116.00,0.0116
1115.00,0.0116
1114.00,0.0116
1113.00,0.0117
1112.00,0.0117
1111.00,0.0118
1110.00,0.0119
1109.00,0.0119
1108.00,0.0120
1107.00,0.0121
1106.00,0.0123
1105.00,0.0126
1104.00,0.0128
1103.00,0.0131
1102.00,0.0134
1101.00,0.0136
1100.00,0.0137
1099.00,0.0136
1098.00,0.0135
1097.00,0.0133
1096.00,0.0130
1095.00,0.0127
1094.00,0.0125
1093.00,0.0122
1092.00,0.0119
1091.00,0.0117
1090.00,0.0115
1089.00,0.0114
1088.00,0.0113
1087.00,0.0113
1086.00,0.0112
1085.00,0.0112
1084.00,0.0112
1083.00,0.0112
1082.00,0.0113
1081.00,0.0114
1080.00,0.0115
1079.00,0.0116
1078.00,0.0118
1077.00,0.0120
1076.00,0.0123
1075.00,0.0125
1074.00,0.0128
1073.00,0.0131
1072.00,0.0133
1071.00,0.0136
1070.00,0.0140
1069.00,0.0144
1068.00,0.0150
1067.00,0.0156
1066.00,0.0165
1065.00,0.0175
1064.00,0.0185
1063.00,0.0195
1062.00,0.0207
1061.00,0.0217
1060.00,0.0226
1059.00,0.0233
1058.00,0.0237
1057.00,0.0237
1056.00,0.0233
1055.00,0.0225
1054.00,0.0215
1053.00,0.0204
1052.00,0.0192
1051.00,0.0181
1050.00,0.0171
1049.00,0.0164
1048.00,0.0157
1047.00,0.0153
1046.00,0.0150
1045.00,0.0148
1044.00,0.0146
1043.00,0.0146
1042.00,0.0146
1041.00,0.0146
1040.00,0.0147
1039.00,0.0147
1038.00,0.0149
1037.00,0.0150
1036.00,0.0151
1035.00,0.0152
1034.00,0.0154
1033.00,0.0156
1032.00,0.0158
1031.00,0.0159
1030.00,0.0159
1029.00,0.0158
1028.00,0.0156
1027.00,0.0153
1026.00,0.0151
1025.00,0.0149
1024.00,0.0146
1023.00,0.0145
1022.00,0.0145
1021.00,0.0144
1020.00,0.0144
1019.00,0.0144
1018.00,0.0144
1017.00,0.0144
1016.00,0.0142
1015.00,0.0140
1014.00,0.0137
1013.00,0.0133
1012.00,0.0129
1011.00,0.0126
1010.00,0.0125
1009.00,0.0125
1008.00,0.0125
1007.00,0.0127
1006.00,0.0130
1005.00,0.0134
1004.00,0.0136
1003.00,0.0138
1002.00,0.0139
1001.00,0.0139
1000.00,0.0137
999.00,0.0135
998.00,0.0132
997.00,0.0129
996.00,0.0126
995.00,0.0124
994.00,0.0122
993.00,0.0120
992.00,0.0117
991.00,0.0115
990.00,0.0113
989.00,0.0112
988.00,0.0109
987.00,0.0107
986.00,0.0106
985.00,0.0104
984.00,0.0103
983.00,0.0102
982.00,0.0102
981.00,0.0101
980.00,0.0100
979.00,0.0100
978.00,0.0099
977.00,0.0099
976.00,0.0099
975.00,0.0098
974.00,0.0098
973.00,0.0098
972.00,0.0097
971.00,0.0096
970.00,0.0095
969.00,0.0094
968.00,0.0093
967.00,0.0092
966.00,0.0091
965.00,0.0091
964.00,0.0091
963.00,0.0090
962.00,0.0090
961.00,0.0090
960.00,0.0089
959.00,0.0088
958.00,0.0088
957.00,0.0087
956.00,0.0086
955.00,0.0085
954.00,0.0085
953.00,0.0085
952.00,0.0084
951.00,0.0084
950.00,0.0084
949.00,0.0085
948.00,0.0085
947.00,0.0085
946.00,0.0085
945.00,0.0086
944.00,0.0087
943.00,0.0088
942.00,0.0090
941.00,0.0093
940.00,0.0095
939.00,0.0098
938.00,0.0102
937.00,0.0106
936.00,0.0110
935.00,0.0113
934.00,0.0116
933.00,0.0118
932.00,0.0118
931.00,0.0117
930.00,0.0116
929.00,0.0114
928.00,0.0113
927.00,0.0112
926.00,0.0112
925.00,0.0112
924.00,0.0111
923.00,0.0110
922.00,0.0110
921.00,0.0109
920.00,0.0107
919.00,0.0105
918.00,0.0104
917.00,0.0103
916.00,0.0102
915.00,0.0101
914.00,0.0101
913.00,0.0101
912.00,0.0100
911.00,0.0100
910.00,0.0100
909.00,0.0100
908.00,0.0100
907.00,0.0101
906.00,0.0103
905.00,0.0105
904.00,0.0107
903.00,0.0110
902.00,0.0113
901.00,0.0116
900.00,0.0118
899.00,0.0120
898.00,0.0122
897.00,0.0123
896.00,0.0123
895.00,0.0122
894.00,0.0120
893.00,0.0118
892.00,0.0115
891.00,0.0113
890.00,0.0111
889.00,0.0110
888.00,0.0108
887.00,0.0107
886.00,0.0107
885.00,0.0107
884.00,0.0108
883.00,0.0109
882.00,0.0111
881.00,0.0112
880.00,0.0113
879.00,0.0114
878.00,0.0117
877.00,0.0120
876.00,0.0123
875.00,0.0127
874.00,0.0130
873.00,0.0133
872.00,0.0135
871.00,0.0137
870.00,0.0138
869.00,0.0139
868.00,0.0139
867.00,0.0139
866.00,0.0140
865.00,0.0140
864.00,0.0140
863.00,0.0141
862.00,0.0142
861.00,0.0144
860.00,0.0145
859.00,0.0146
858.00,0.0148
857.00,0.0150
856.00,0.0152
855.00,0.0154
854.00,0.0157
853.00,0.0160
852.00,0.0163
851.00,0.0165
850.00,0.0168
849.00,0.0171
848.00,0.0172
847.00,0.0174
846.00,0.0176
845.00,0.0177
844.00,0.0177
843.00,0.0177
842.00,0.0177
841.00,0.0177
840.00,0.0176
839.00,0.0175
838.00,0.0174
837.00,0.0174
836.00,0.0173
835.00,0.0173
834.00,0.0173
833.00,0.0173
832.00,0.0172
831.00,0.0171
830.00,0.0171
829.00,0.0170
828.00,0.0169
827.00,0.0168
826.00,0.0167
825.00,0.0167
824.00,0.0166
823.00,0.0165
822.00,0.0165
821.00,0.0165
820.00,0.0165
819.00,0.0164
818.00,0.0165
817.00,0.0165
816.00,0.0165
815.00,0.0164
814.00,0.0163
813.00,0.0162
812.00,0.0158
811.00,0.0154
810.00,0.0150
809.00,0.0145
808.00,0.0139
807.00,0.0134
806.00,0.0129
805.00,0.0125
804.00,0.0121
803.00,0.0118
802.00,0.0117
801.00,0.0115
800.00,0.0114
799.00,0.0113
798.00,0.0112
797.00,0.0113
796.00,0.0113
795.00,0.0113
794.00,0.0114
793.00,0.0114
792.00,0.0114
791.00,0.0113
790.00,0.0113
789.00,0.0113
788.00,0.0113
787.00,0.0114
786.00,0.0115
785.00,0.0116
784.00,0.0116
783.00,0.0116
782.00,0.0117
781.00,0.0118
780.00,0.0119
779.00,0.0121
778.00,0.0122
777.00,0.0123
776.00,0.0123
775.00,0.0122
774.00,0.0123
773.00,0.0123
772.00,0.0123
771.00,0.0123
770.00,0.0123
769.00,0.0124
768.00,0.0124
767.00,0.0125
766.00,0.0127
765.00,0.0128
764.00,0.0129
763.00,0.0130
762.00,0.0132
761.00,0.0134
760.00,0.0136
759.00,0.0138
758.00,0.0140
757.00,0.0143
756.00,0.0145
755.00,0.0147
754.00,0.0149
753.00,0.0151
752.00,0.0153
751.00,0.0155
750.00,0.0157
749.00,0.0160
748.00,0.0162
747.00,0.0165
746.00,0.0167
745.00,0.0170
744.00,0.0173
743.00,0.0176
742.00,0.0180
741.00,0.0185
740.00,0.0189
739.00,0.0194
738.00,0.0198
737.00,0.0201
736.00,0.0202
735.00,0.0201
734.00,0.0199
733.00,0.0197
732.00,0.0193
731.00,0.0189
730.00,0.0186
729.00,0.0182
728.00,0.0177
727.00,0.0173
726.00,0.0170
725.00,0.0168
724.00,0.0164
723.00,0.0161
722.00,0.0159
721.00,0.0156
720.00,0.0153
719.00,0.0152
718.00,0.0153
717.00,0.0153
716.00,0.0153
715.00,0.0153
714.00,0.0153
713.00,0.0153
712.00,0.0152
711.00,0.0151
710.00,0.0151
709.00,0.0150
708.00,0.0149
707.00,0.0149
706.00,0.0149
705.00,0.0149
704.00,0.0149
703.00,0.0149
702.00,0.0149
701.00,0.0150
700.00,0.0150
699.00,0.0151
698.00,0.0153
697.00,0.0155
696.00,0.0157
695.00,0.0159
694.00,0.0163
693.00,0.0166
692.00,0.0168
691.00,0.0170
690.00,0.0172
689.00,0.0174
688.00,0.0175
687.00,0.0175
686.00,0.0176
685.00,0.0176
684.00,0.0175
683.00,0.0176
682.00,0.0177
681.00,0.0179
680.00,0.0179
679.00,0.0180
678.00,0.0181
677.00,0.0182
676.00,0.0183
675.00,0.0184
674.00,0.0187
673.00,0.0190
672.00,0.0193
671.00,0.0197
670.00,0.0201
669.00,0.0206
668.00,0.0211
667.00,0.0214
666.00,0.0217
665.00,0.0219
664.00,0.0221
663.00,0.0224
662.00,0.0229
661.00,0.0233
660.00,0.0237
659.00,0.0241
658.00,0.0246
657.00,0.0251
656.00,0.0255
655.00,0.0260
654.00,0.0265
653.00,0.0269
652.00,0.0272
651.00,0.0274
650.00,0.0276
649.00,0.0278
648.00,0.0278
647.00,0.0278
646.00,0.0278
645.00,0.0276
644.00,0.0274
643.00,0.0271
642.00,0.0269
641.00,0.0266
640.00,0.0261
639.00,0.0256
638.00,0.0253
637.00,0.0250
636.00,0.0247
635.00,0.0243
634.00,0.0241
633.00,0.0238
632.00,0.0235
631.00,0.0233
630.00,0.0233
629.00,0.0232
628.00,0.0231
627.00,0.0230
626.00,0.0230
625.00,0.0229
624.00,0.0227
623.00,0.0225
622.00,0.0224
621.00,0.0223
620.00,0.0222
619.00,0.0221
618.00,0.0221
617.00,0.0221
616.00,0.0219
615.00,0.0218
614.00,0.0218
613.00,0.0218
612.00,0.0219
611.00,0.0220
610.00,0.0222
609.00,0.0224
608.00,0.0224
607.00,0.0223
606.00,0.0225
605.00,0.0226
604.00,0.0227
603.00,0.0228
602.00,0.0230
601.00,0.0232
600.00,0.0232
599.00,0.0233
598.00,0.0234
597.00,0.0235
596.00,0.0235
595.00,0.0235
594.00,0.0236
593.00,0.0237
592.00,0.0238
591.00,0.0239
590.00,0.0242
589.00,0.0246
588.00,0.0251
587.00,0.0257
586.00,0.0265
585.00,0.0272
584.00,0.0278
583.00,0.0284
582.00,0.0289
581.00,0.0294
580.00,0.0295
579.00,0.0296
578.00,0.0297
577.00,0.0298
576.00,0.0298
575.00,0.0298
574.00,0.0299
573.00,0.0299
572.00,0.0299
571.00,0.0299
570.00,0.0300
569.00,0.0301
568.00,0.0299
567.00,0.0297
566.00,0.0296
565.00,0.0295
564.00,0.0293
563.00,0.0291
562.00,0.0289
561.00,0.0287
560.00,0.0282
559.00,0.0279
558.00,0.0278
557.00,0.0277
556.00,0.0275
555.00,0.0274
554.00,0.0274
553.00,0.0273
552.00,0.0270
551.00,0.0267
550.00,0.0266
549.00,0.0265
548.00,0.0264
547.00,0.0263
546.00,0.0261
545.00,0.0258
544.00,0.0254
543.00,0.0251
542.00,0.0252
541.00,0.0252
540.00,0.0251
539.00,0.0250
538.00,0.0252
537.00,0.0253
536.00,0.0253
535.00,0.0254
534.00,0.0256
533.00,0.0259
532.00,0.0261
531.00,0.0262
530.00,0.0264
529.00,0.0264
528.00,0.0262
527.00,0.0258
526.00,0.0257
525.00,0.0255
524.00,0.0251
523.00,0.0249
522.00,0.0249
521.00,0.0250
520.00,0.0248
519.00,0.0246
518.00,0.0246
517.00,0.0246
516.00,0.0244
515.00,0.0244
514.00,0.0247
513.00,0.0249
512.00,0.0248
511.00,0.0247
510.00,0.0248
509.00,0.0248
508.00,0.0247
507.00,0.0246
506.00,0.0247
505.00,0.0248
504.00,0.0246
503.00,0.0246
502.00,0.0249
501.00,0.0250
500.00,0.0249
499.00,0.0246
498.00,0.0246
497.00,0.0247
496.00,0.0246
495.00,0.0245
494.00,0.0246
493.00,0.0245
492.00,0.0243
491.00,0.0243
490.00,0.0247
489.00,0.0250
488.00,0.0250
487.00,0.0250
486.00,0.0252
485.00,0.0252
484.00,0.0249
483.00,0.0247
482.00,0.0250
481.00,0.0253
480.00,0.0254
479.00,0.0254
478.00,0.0255
477.00,0.0255
476.00,0.0252
475.00,0.0251
474.00,0.0253
473.00,0.0255
472.00,0.0255
471.00,0.0254
470.00,0.0256
469.00,0.0258
468.00,0.0258
467.00,0.0259
466.00,0.0261
465.00,0.0260
464.00,0.0254
463.00,0.0250
462.00,0.0252
461.00,0.0256
460.00,0.0256
459.00,0.0255
458.00,0.0256
457.00,0.0255
456.00,0.0249
455.00,0.0244
454.00,0.0244
453.00,0.0244
452.00,0.0241
451.00,0.0241
450.00,0.0243
449.00,0.0243
448.00,0.0235
447.00,0.0228
446.00,0.0227
445.00,0.0228
444.00,0.0225
443.00,0.0222
442.00,0.0223
441.00,0.0225
440.00,0.0223
439.00,0.0222
438.00,0.0226
437.00,0.0228
436.00,0.0224
435.00,0.0219
434.00,0.0218
433.00,0.0216
432.00,0.0210
431.00,0.0208
430.00,0.0214
429.00,0.0218
428.00,0.0214
427.00,0.0209
426.00,0.0209
425.00,0.0208
424.00,0.0198
423.00,0.0189
422.00,0.0191
421.00,0.0200
420.00,0.0206
419.00,0.0215
418.00,0.0232
417.00,0.0244
416.00,0.0243
415.00,0.0239
414.00,0.0238
413.00,0.0233
412.00,0.0222
411.00,0.0217
410.00,0.0226
409.00,0.0236
408.00,0.0230
407.00,0.0217
406.00,0.0211
405.00,0.0209
404.00,0.0205
403.00,0.0210
402.00,0.0231
401.00,0.0248
400.00,0.0241
