Created as New Dataset,Sample 027 By YargerLab Date Saturday, August 09 2025
cm-1,A
4000.00,0.0012
3999.00,0.0013
3998.00,0.0013
3997.00,0.0013
3996.00,0.0013
3995.00,0.0013
3994.00,0.0013
3993.00,0.0013
3992.00,0.0013
3991.00,0.0013
3990.00,0.0013
3989.00,0.0013
3988.00,0.0013
3987.00,0.0013
3986.00,0.0013
3985.00,0.0013
3984.00,0.0013
3983.00,0.0013
3982.00,0.0013
3981.00,0.0013
3980.00,0.0014
3979.00,0.0014
3978.00,0.0014
3977.00,0.0013
3976.00,0.0013
3975.00,0.0013
3974.00,0.0013
3973.00,0.0013
3972.00,0.0013
3971.00,0.0013
3970.00,0.0013
3969.00,0.0013
3968.00,0.0013
3967.00,0.0013
3966.00,0.0013
3965.00,0.0013
3964.00,0.0013
3963.00,0.0012
3962.00,0.0012
3961.00,0.0012
3960.00,0.0012
3959.00,0.0012
3958.00,0.0012
3957.00,0.0012
3956.00,0.0011
3955.00,0.0011
3954.00,0.0011
3953.00,0.0011
3952.00,0.0011
3951.00,0.0011
3950.00,0.0011
3949.00,0.0011
3948.00,0.0011
3947.00,0.0011
3946.00,0.0011
3945.00,0.0011
3944.00,0.0011
3943.00,0.0011
3942.00,0.0010
3941.00,0.0010
3940.00,0.0010
3939.00,0.0010
3938.00,0.0010
3937.00,0.0010
3936.00,0.0010
3935.00,0.0010
3934.00,0.0010
3933.00,0.0010
3932.00,0.0010
3931.00,0.0009
3930.00,0.0009
3929.00,0.0009
3928.00,0.0009
3927.00,0.0009
3926.00,0.0009
3925.00,0.0009
3924.00,0.0009
3923.00,0.0009
3922.00,0.0008
3921.00,0.0008
3920.00,0.0008
3919.00,0.0008
3918.00,0.0008
3917.00,0.0008
3916.00,0.0008
3915.00,0.0008
3914.00,0.0008
3913.00,0.0008
3912.00,0.0008
3911.00,0.0008
3910.00,0.0008
3909.00,0.0008
3908.00,0.0008
3907.00,0.0007
3906.00,0.0007
3905.00,0.0007
3904.00,0.0008
3903.00,0.0008
3902.00,0.0007
3901.00,0.0007
3900.00,0.0007
3899.00,0.0007
3898.00,0.0007
3897.00,0.0007
3896.00,0.0008
3895.00,0.0008
3894.00,0.0008
3893.00,0.0008
3892.00,0.0007
3891.00,0.0008
3890.00,0.0008
3889.00,0.0007
3888.00,0.0007
3887.00,0.0007
3886.00,0.0007
3885.00,0.0008
3884.00,0.0008
3883.00,0.0008
3882.00,0.0008
3881.00,0.0008
3880.00,0.0008
3879.00,0.0008
3878.00,0.0008
3877.00,0.0008
3876.00,0.0008
3875.00,0.0008
3874.00,0.0008
3873.00,0.0008
3872.00,0.0008
3871.00,0.0008
3870.00,0.0008
3869.00,0.0008
3868.00,0.0008
3867.00,0.0008
3866.00,0.0008
3865.00,0.0009
3864.00,0.0009
3863.00,0.0009
3862.00,0.0010
3861.00,0.0010
3860.00,0.0010
3859.00,0.0009
3858.00,0.0009
3857.00,0.0009
3856.00,0.0009
3855.00,0.0008
3854.00,0.0008
3853.00,0.0008
3852.00,0.0007
3851.00,0.0007
3850.00,0.0007
3849.00,0.0007
3848.00,0.0007
3847.00,0.0007
3846.00,0.0008
3845.00,0.0008
3844.00,0.0008
3843.00,0.0008
3842.00,0.0007
3841.00,0.0007
3840.00,0.0007
3839.00,0.0007
3838.00,0.0007
3837.00,0.0007
3836.00,0.0007
3835.00,0.0007
3834.00,0.0007
3833.00,0.0006
3832.00,0.0007
3831.00,0.0007
3830.00,0.0007
3829.00,0.0007
3828.00,0.0006
3827.00,0.0006
3826.00,0.0007
3825.00,0.0007
3824.00,0.0007
3823.00,0.0007
3822.00,0.0006
3821.00,0.0006
3820.00,0.0007
3819.00,0.0007
3818.00,0.0006
3817.00,0.0006
3816.00,0.0006
3815.00,0.0006
3814.00,0.0006
3813.00,0.0006
3812.00,0.0006
3811.00,0.0006
3810.00,0.0006
3809.00,0.0006
3808.00,0.0006
3807.00,0.0006
3806.00,0.0006
3805.00,0.0006
3804.00,0.0007
3803.00,0.0006
3802.00,0.0006
3801.00,0.0007
3800.00,0.0007
3799.00,0.0007
3798.00,0.0007
3797.00,0.0007
3796.00,0.0007
3795.00,0.0007
3794.00,0.0007
3793.00,0.0007
3792.00,0.0007
3791.00,0.0007
3790.00,0.0007
3789.00,0.0007
3788.00,0.0007
3787.00,0.0008
3786.00,0.0008
3785.00,0.0008
3784.00,0.0008
3783.00,0.0008
3782.00,0.0008
3781.00,0.0008
3780.00,0.0008
3779.00,0.0008
3778.00,0.0008
3777.00,0.0008
3776.00,0.0008
3775.00,0.0008
3774.00,0.0008
3773.00,0.0008
3772.00,0.0008
3771.00,0.0008
3770.00,0.0008
3769.00,0.0008
3768.00,0.0008
3767.00,0.0008
3766.00,0.0008
3765.00,0.0008
3764.00,0.0008
3763.00,0.0008
3762.00,0.0008
3761.00,0.0008
3760.00,0.0008
3759.00,0.0008
3758.00,0.0008
3757.00,0.0008
3756.00,0.0008
3755.00,0.0008
3754.00,0.0008
3753.00,0.0008
3752.00,0.0008
3751.00,0.0008
3750.00,0.0008
3749.00,0.0009
3748.00,0.0009
3747.00,0.0009
3746.00,0.0009
3745.00,0.0009
3744.00,0.0010
3743.00,0.0010
3742.00,0.0011
3741.00,0.0010
3740.00,0.0010
3739.00,0.0010
3738.00,0.0010
3737.00,0.0011
3736.00,0.0011
3735.00,0.0011
3734.00,0.0011
3733.00,0.0011
3732.00,0.0011
3731.00,0.0011
3730.00,0.0011
3729.00,0.0011
3728.00,0.0011
3727.00,0.0011
3726.00,0.0011
3725.00,0.0010
3724.00,0.0010
3723.00,0.0010
3722.00,0.0011
3721.00,0.0011
3720.00,0.0012
3719.00,0.0012
3718.00,0.0012
3717.00,0.0013
3716.00,0.0013
3715.00,0.0014
3714.00,0.0014
3713.00,0.0014
3712.00,0.0014
3711.00,0.0014
3710.00,0.0014
3709.00,0.0014
3708.00,0.0015
3707.00,0.0015
3706.00,0.0016
3705.00,0.0016
3704.00,0.0016
3703.00,0.0017
3702.00,0.0017
3701.00,0.0018
3700.00,0.0018
3699.00,0.0019
3698.00,0.0019
3697.00,0.0020
3696.00,0.0020
3695.00,0.0021
3694.00,0.0021
3693.00,0.0022
3692.00,0.0022
3691.00,0.0022
3690.00,0.0023
3689.00,0.0023
3688.00,0.0023
3687.00,0.0024
3686.00,0.0025
3685.00,0.0025
3684.00,0.0026
3683.00,0.0027
3682.00,0.0028
3681.00,0.0028
3680.00,0.0029
3679.00,0.0030
3678.00,0.0030
3677.00,0.0031
3676.00,0.0032
3675.00,0.0033
3674.00,0.0034
3673.00,0.0035
3672.00,0.0035
3671.00,0.0036
3670.00,0.0037
3669.00,0.0038
3668.00,0.0039
3667.00,0.0040
3666.00,0.0040
3665.00,0.0041
3664.00,0.0042
3663.00,0.0043
3662.00,0.0044
3661.00,0.0046
3660.00,0.0047
3659.00,0.0048
3658.00,0.0049
3657.00,0.0050
3656.00,0.0051
3655.00,0.0052
3654.00,0.0053
3653.00,0.0053
3652.00,0.0054
3651.00,0.0054
3650.00,0.0056
3649.00,0.0058
3648.00,0.0060
3647.00,0.0061
3646.00,0.0063
3645.00,0.0064
3644.00,0.0064
3643.00,0.0065
3642.00,0.0066
3641.00,0.0068
3640.00,0.0069
3639.00,0.0070
3638.00,0.0072
3637.00,0.0073
3636.00,0.0075
3635.00,0.0076
3634.00,0.0078
3633.00,0.0079
3632.00,0.0080
3631.00,0.0081
3630.00,0.0083
3629.00,0.0085
3628.00,0.0087
3627.00,0.0089
3626.00,0.0091
3625.00,0.0092
3624.00,0.0093
3623.00,0.0095
3622.00,0.0096
3621.00,0.0098
3620.00,0.0100
3619.00,0.0102
3618.00,0.0105
3617.00,0.0107
3616.00,0.0109
3615.00,0.0111
3614.00,0.0113
3613.00,0.0114
3612.00,0.0116
3611.00,0.0118
3610.00,0.0120
3609.00,0.0123
3608.00,0.0125
3607.00,0.0128
3606.00,0.0130
3605.00,0.0132
3604.00,0.0134
3603.00,0.0136
3602.00,0.0139
3601.00,0.0141
3600.00,0.0143
3599.00,0.0146
3598.00,0.0148
3597.00,0.0150
3596.00,0.0153
3595.00,0.0155
3594.00,0.0158
3593.00,0.0160
3592.00,0.0163
3591.00,0.0165
3590.00,0.0167
3589.00,0.0170
3588.00,0.0173
3587.00,0.0177
3586.00,0.0180
3585.00,0.0183
3584.00,0.0186
3583.00,0.0189
3582.00,0.0192
3581.00,0.0195
3580.00,0.0198
3579.00,0.0201
3578.00,0.0204
3577.00,0.0207
3576.00,0.0210
3575.00,0.0213
3574.00,0.0216
3573.00,0.0220
3572.00,0.0223
3571.00,0.0226
3570.00,0.0228
3569.00,0.0232
3568.00,0.0236
3567.00,0.0241
3566.00,0.0245
3565.00,0.0250
3564.00,0.0253
3563.00,0.0257
3562.00,0.0260
3561.00,0.0264
3560.00,0.0267
3559.00,0.0271
3558.00,0.0275
3557.00,0.0279
3556.00,0.0283
3555.00,0.0287
3554.00,0.0291
3553.00,0.0296
3552.00,0.0300
3551.00,0.0304
3550.00,0.0308
3549.00,0.0313
3548.00,0.0317
3547.00,0.0321
3546.00,0.0326
3545.00,0.0331
3544.00,0.0336
3543.00,0.0340
3542.00,0.0344
3541.00,0.0348
3540.00,0.0353
3539.00,0.0357
3538.00,0.0361
3537.00,0.0366
3536.00,0.0371
3535.00,0.0375
3534.00,0.0380
3533.00,0.0384
3532.00,0.0389
3531.00,0.0393
3530.00,0.0398
3529.00,0.0403
3528.00,0.0408
3527.00,0.0413
3526.00,0.0418
3525.00,0.0423
3524.00,0.0428
3523.00,0.0433
3522.00,0.0438
3521.00,0.0442
3520.00,0.0447
3519.00,0.0452
3518.00,0.0457
3517.00,0.0462
3516.00,0.0467
3515.00,0.0472
3514.00,0.0477
3513.00,0.0481
3512.00,0.0486
3511.00,0.0491
3510.00,0.0496
3509.00,0.0501
3508.00,0.0507
3507.00,0.0512
3506.00,0.0517
3505.00,0.0522
3504.00,0.0528
3503.00,0.0533
3502.00,0.0538
3501.00,0.0544
3500.00,0.0549
3499.00,0.0554
3498.00,0.0559
3497.00,0.0565
3496.00,0.0570
3495.00,0.0575
3494.00,0.0580
3493.00,0.0585
3492.00,0.0591
3491.00,0.0596
3490.00,0.0601
3489.00,0.0607
3488.00,0.0613
3487.00,0.0618
3486.00,0.0624
3485.00,0.0629
3484.00,0.0634
3483.00,0.0640
3482.00,0.0646
3481.00,0.0652
3480.00,0.0658
3479.00,0.0664
3478.00,0.0669
3477.00,0.0675
3476.00,0.0680
3475.00,0.0686
3474.00,0.0693
3473.00,0.0699
3472.00,0.0705
3471.00,0.0711
3470.00,0.0717
3469.00,0.0724
3468.00,0.0730
3467.00,0.0736
3466.00,0.0741
3465.00,0.0747
3464.00,0.0753
3463.00,0.0760
3462.00,0.0766
3461.00,0.0773
3460.00,0.0778
3459.00,0.0784
3458.00,0.0789
3457.00,0.0795
3456.00,0.0801
3455.00,0.0807
3454.00,0.0813
3453.00,0.0820
3452.00,0.0826
3451.00,0.0832
3450.00,0.0839
3449.00,0.0845
3448.00,0.0852
3447.00,0.0858
3446.00,0.0865
3445.00,0.0871
3444.00,0.0878
3443.00,0.0884
3442.00,0.0890
3441.00,0.0897
3440.00,0.0904
3439.00,0.0911
3438.00,0.0918
3437.00,0.0925
3436.00,0.0931
3435.00,0.0938
3434.00,0.0944
3433.00,0.0950
3432.00,0.0956
3431.00,0.0963
3430.00,0.0969
3429.00,0.0975
3428.00,0.0981
3427.00,0.0987
3426.00,0.0993
3425.00,0.0999
3424.00,0.1005
3423.00,0.1012
3422.00,0.1019
3421.00,0.1025
3420.00,0.1032
3419.00,0.1038
3418.00,0.1045
3417.00,0.1051
3416.00,0.1058
3415.00,0.1065
3414.00,0.1072
3413.00,0.1078
3412.00,0.1085
3411.00,0.1091
3410.00,0.1097
3409.00,0.1103
3408.00,0.1109
3407.00,0.1115
3406.00,0.1121
3405.00,0.1127
3404.00,0.1134
3403.00,0.1141
3402.00,0.1148
3401.00,0.1155
3400.00,0.1161
3399.00,0.1166
3398.00,0.1171
3397.00,0.1177
3396.00,0.1183
3395.00,0.1189
3394.00,0.1195
3393.00,0.1202
3392.00,0.1207
3391.00,0.1212
3390.00,0.1217
3389.00,0.1221
3388.00,0.1226
3387.00,0.1230
3386.00,0.1235
3385.00,0.1241
3384.00,0.1246
3383.00,0.1251
3382.00,0.1257
3381.00,0.1262
3380.00,0.1267
3379.00,0.1272
3378.00,0.1276
3377.00,0.1281
3376.00,0.1285
3375.00,0.1290
3374.00,0.1295
3373.00,0.1300
3372.00,0.1305
3371.00,0.1311
3370.00,0.1316
3369.00,0.1320
3368.00,0.1324
3367.00,0.1327
3366.00,0.1329
3365.00,0.1332
3364.00,0.1335
3363.00,0.1338
3362.00,0.1342
3361.00,0.1346
3360.00,0.1349
3359.00,0.1352
3358.00,0.1354
3357.00,0.1357
3356.00,0.1360
3355.00,0.1363
3354.00,0.1366
3353.00,0.1370
3352.00,0.1373
3351.00,0.1375
3350.00,0.1377
3349.00,0.1379
3348.00,0.1380
3347.00,0.1381
3346.00,0.1383
3345.00,0.1386
3344.00,0.1388
3343.00,0.1390
3342.00,0.1392
3341.00,0.1394
3340.00,0.1396
3339.00,0.1398
3338.00,0.1398
3337.00,0.1399
3336.00,0.1399
3335.00,0.1400
3334.00,0.1400
3333.00,0.1400
3332.00,0.1401
3331.00,0.1402
3330.00,0.1402
3329.00,0.1404
3328.00,0.1405
3327.00,0.1406
3326.00,0.1406
3325.00,0.1406
3324.00,0.1406
3323.00,0.1405
3322.00,0.1405
3321.00,0.1405
3320.00,0.1404
3319.00,0.1404
3318.00,0.1403
3317.00,0.1403
3316.00,0.1403
3315.00,0.1402
3314.00,0.1402
3313.00,0.1402
3312.00,0.1402
3311.00,0.1402
3310.00,0.1402
3309.00,0.1402
3308.00,0.1402
3307.00,0.1402
3306.00,0.1401
3305.00,0.1399
3304.00,0.1396
3303.00,0.1394
3302.00,0.1391
3301.00,0.1389
3300.00,0.1388
3299.00,0.1387
3298.00,0.1386
3297.00,0.1385
3296.00,0.1385
3295.00,0.1383
3294.00,0.1381
3293.00,0.1379
3292.00,0.1376
3291.00,0.1373
3290.00,0.1370
3289.00,0.1367
3288.00,0.1364
3287.00,0.1361
3286.00,0.1359
3285.00,0.1356
3284.00,0.1353
3283.00,0.1350
3282.00,0.1348
3281.00,0.1345
3280.00,0.1342
3279.00,0.1339
3278.00,0.1337
3277.00,0.1334
3276.00,0.1332
3275.00,0.1330
3274.00,0.1327
3273.00,0.1324
3272.00,0.1321
3271.00,0.1318
3270.00,0.1314
3269.00,0.1309
3268.00,0.1304
3267.00,0.1299
3266.00,0.1295
3265.00,0.1291
3264.00,0.1287
3263.00,0.1283
3262.00,0.1278
3261.00,0.1274
3260.00,0.1270
3259.00,0.1265
3258.00,0.1261
3257.00,0.1257
3256.00,0.1253
3255.00,0.1248
3254.00,0.1243
3253.00,0.1238
3252.00,0.1233
3251.00,0.1229
3250.00,0.1224
3249.00,0.1220
3248.00,0.1215
3247.00,0.1210
3246.00,0.1205
3245.00,0.1199
3244.00,0.1193
3243.00,0.1187
3242.00,0.1181
3241.00,0.1176
3240.00,0.1170
3239.00,0.1164
3238.00,0.1159
3237.00,0.1154
3236.00,0.1149
3235.00,0.1144
3234.00,0.1139
3233.00,0.1133
3232.00,0.1126
3231.00,0.1119
3230.00,0.1112
3229.00,0.1106
3228.00,0.1099
3227.00,0.1093
3226.00,0.1087
3225.00,0.1080
3224.00,0.1074
3223.00,0.1068
3222.00,0.1062
3221.00,0.1056
3220.00,0.1050
3219.00,0.1043
3218.00,0.1037
3217.00,0.1030
3216.00,0.1024
3215.00,0.1017
3214.00,0.1011
3213.00,0.1004
3212.00,0.0998
3211.00,0.0991
3210.00,0.0984
3209.00,0.0978
3208.00,0.0972
3207.00,0.0965
3206.00,0.0959
3205.00,0.0952
3204.00,0.0945
3203.00,0.0938
3202.00,0.0931
3201.00,0.0924
3200.00,0.0918
3199.00,0.0912
3198.00,0.0905
3197.00,0.0899
3196.00,0.0893
3195.00,0.0886
3194.00,0.0880
3193.00,0.0873
3192.00,0.0867
3191.00,0.0860
3190.00,0.0854
3189.00,0.0847
3188.00,0.0841
3187.00,0.0834
3186.00,0.0827
3185.00,0.0821
3184.00,0.0815
3183.00,0.0808
3182.00,0.0802
3181.00,0.0796
3180.00,0.0790
3179.00,0.0784
3178.00,0.0778
3177.00,0.0771
3176.00,0.0765
3175.00,0.0759
3174.00,0.0753
3173.00,0.0747
3172.00,0.0741
3171.00,0.0735
3170.00,0.0729
3169.00,0.0723
3168.00,0.0717
3167.00,0.0711
3166.00,0.0706
3165.00,0.0700
3164.00,0.0694
3163.00,0.0688
3162.00,0.0682
3161.00,0.0676
3160.00,0.0671
3159.00,0.0665
3158.00,0.0660
3157.00,0.0655
3156.00,0.0650
3155.00,0.0645
3154.00,0.0640
3153.00,0.0635
3152.00,0.0630
3151.00,0.0624
3150.00,0.0619
3149.00,0.0613
3148.00,0.0608
3147.00,0.0603
3146.00,0.0598
3145.00,0.0593
3144.00,0.0588
3143.00,0.0583
3142.00,0.0579
3141.00,0.0574
3140.00,0.0570
3139.00,0.0565
3138.00,0.0560
3137.00,0.0555
3136.00,0.0551
3135.00,0.0546
3134.00,0.0541
3133.00,0.0536
3132.00,0.0532
3131.00,0.0528
3130.00,0.0524
3129.00,0.0519
3128.00,0.0515
3127.00,0.0511
3126.00,0.0507
3125.00,0.0503
3124.00,0.0499
3123.00,0.0495
3122.00,0.0492
3121.00,0.0488
3120.00,0.0484
3119.00,0.0481
3118.00,0.0477
3117.00,0.0473
3116.00,0.0470
3115.00,0.0466
3114.00,0.0462
3113.00,0.0458
3112.00,0.0454
3111.00,0.0451
3110.00,0.0448
3109.00,0.0444
3108.00,0.0441
3107.00,0.0437
3106.00,0.0434
3105.00,0.0431
3104.00,0.0428
3103.00,0.0425
3102.00,0.0422
3101.00,0.0419
3100.00,0.0417
3099.00,0.0414
3098.00,0.0411
3097.00,0.0408
3096.00,0.0405
3095.00,0.0402
3094.00,0.0399
3093.00,0.0397
3092.00,0.0394
3091.00,0.0392
3090.00,0.0389
3089.00,0.0387
3088.00,0.0384
3087.00,0.0382
3086.00,0.0380
3085.00,0.0378
3084.00,0.0376
3083.00,0.0374
3082.00,0.0372
3081.00,0.0370
3080.00,0.0368
3079.00,0.0366
3078.00,0.0364
3077.00,0.0362
3076.00,0.0360
3075.00,0.0358
3074.00,0.0356
3073.00,0.0355
3072.00,0.0353
3071.00,0.0352
3070.00,0.0350
3069.00,0.0349
3068.00,0.0348
3067.00,0.0346
3066.00,0.0345
3065.00,0.0343
3064.00,0.0342
3063.00,0.0341
3062.00,0.0340
3061.00,0.0339
3060.00,0.0338
3059.00,0.0337
3058.00,0.0337
3057.00,0.0336
3056.00,0.0335
3055.00,0.0334
3054.00,0.0333
3053.00,0.0333
3052.00,0.0332
3051.00,0.0331
3050.00,0.0331
3049.00,0.0330
3048.00,0.0330
3047.00,0.0329
3046.00,0.0329
3045.00,0.0329
3044.00,0.0328
3043.00,0.0328
3042.00,0.0328
3041.00,0.0328
3040.00,0.0328
3039.00,0.0328
3038.00,0.0329
3037.00,0.0329
3036.00,0.0329
3035.00,0.0330
3034.00,0.0330
3033.00,0.0330
3032.00,0.0330
3031.00,0.0331
3030.00,0.0331
3029.00,0.0332
3028.00,0.0333
3027.00,0.0334
3026.00,0.0335
3025.00,0.0336
3024.00,0.0338
3023.00,0.0339
3022.00,0.0341
3021.00,0.0343
3020.00,0.0345
3019.00,0.0347
3018.00,0.0349
3017.00,0.0352
3016.00,0.0355
3015.00,0.0358
3014.00,0.0362
3013.00,0.0365
3012.00,0.0369
3011.00,0.0373
3010.00,0.0377
3009.00,0.0382
3008.00,0.0388
3007.00,0.0393
3006.00,0.0399
3005.00,0.0406
3004.00,0.0413
3003.00,0.0420
3002.00,0.0427
3001.00,0.0435
3000.00,0.0443
2999.00,0.0452
2998.00,0.0460
2997.00,0.0469
2996.00,0.0478
2995.00,0.0487
2994.00,0.0497
2993.00,0.0506
2992.00,0.0514
2991.00,0.0523
2990.00,0.0531
2989.00,0.0538
2988.00,0.0546
2987.00,0.0552
2986.00,0.0558
2985.00,0.0563
2984.00,0.0568
2983.00,0.0572
2982.00,0.0576
2981.00,0.0579
2980.00,0.0581
2979.00,0.0584
2978.00,0.0586
2977.00,0.0588
2976.00,0.0590
2975.00,0.0592
2974.00,0.0595
2973.00,0.0598
2972.00,0.0601
2971.00,0.0605
2970.00,0.0609
2969.00,0.0614
2968.00,0.0620
2967.00,0.0626
2966.00,0.0633
2965.00,0.0641
2964.00,0.0650
2963.00,0.0660
2962.00,0.0670
2961.00,0.0682
2960.00,0.0694
2959.00,0.0708
2958.00,0.0722
2957.00,0.0737
2956.00,0.0753
2955.00,0.0770
2954.00,0.0787
2953.00,0.0804
2952.00,0.0821
2951.00,0.0837
2950.00,0.0853
2949.00,0.0866
2948.00,0.0877
2947.00,0.0885
2946.00,0.0891
2945.00,0.0893
2944.00,0.0892
2943.00,0.0889
2942.00,0.0882
2941.00,0.0874
2940.00,0.0864
2939.00,0.0852
2938.00,0.0840
2937.00,0.0826
2936.00,0.0813
2935.00,0.0800
2934.00,0.0788
2933.00,0.0776
2932.00,0.0766
2931.00,0.0756
2930.00,0.0747
2929.00,0.0739
2928.00,0.0732
2927.00,0.0726
2926.00,0.0721
2925.00,0.0717
2924.00,0.0714
2923.00,0.0711
2922.00,0.0708
2921.00,0.0706
2920.00,0.0704
2919.00,0.0702
2918.00,0.0700
2917.00,0.0697
2916.00,0.0694
2915.00,0.0690
2914.00,0.0685
2913.00,0.0679
2912.00,0.0671
2911.00,0.0663
2910.00,0.0654
2909.00,0.0645
2908.00,0.0634
2907.00,0.0624
2906.00,0.0613
2905.00,0.0602
2904.00,0.0591
2903.00,0.0581
2902.00,0.0571
2901.00,0.0562
2900.00,0.0553
2899.00,0.0544
2898.00,0.0536
2897.00,0.0528
2896.00,0.0520
2895.00,0.0513
2894.00,0.0506
2893.00,0.0500
2892.00,0.0494
2891.00,0.0488
2890.00,0.0482
2889.00,0.0476
2888.00,0.0471
2887.00,0.0465
2886.00,0.0460
2885.00,0.0455
2884.00,0.0451
2883.00,0.0447
2882.00,0.0443
2881.00,0.0439
2880.00,0.0436
2879.00,0.0432
2878.00,0.0429
2877.00,0.0425
2876.00,0.0422
2875.00,0.0419
2874.00,0.0416
2873.00,0.0414
2872.00,0.0412
2871.00,0.0410
2870.00,0.0408
2869.00,0.0407
2868.00,0.0406
2867.00,0.0405
2866.00,0.0404
2865.00,0.0403
2864.00,0.0402
2863.00,0.0402
2862.00,0.0401
2861.00,0.0401
2860.00,0.0401
2859.00,0.0402
2858.00,0.0403
2857.00,0.0405
2856.00,0.0408
2855.00,0.0412
2854.00,0.0418
2853.00,0.0424
2852.00,0.0432
2851.00,0.0442
2850.00,0.0454
2849.00,0.0467
2848.00,0.0484
2847.00,0.0502
2846.00,0.0523
2845.00,0.0546
2844.00,0.0572
2843.00,0.0599
2842.00,0.0627
2841.00,0.0657
2840.00,0.0688
2839.00,0.0719
2838.00,0.0748
2837.00,0.0775
2836.00,0.0798
2835.00,0.0816
2834.00,0.0828
2833.00,0.0834
2832.00,0.0833
2831.00,0.0826
2830.00,0.0813
2829.00,0.0796
2828.00,0.0776
2827.00,0.0753
2826.00,0.0729
2825.00,0.0704
2824.00,0.0680
2823.00,0.0656
2822.00,0.0633
2821.00,0.0611
2820.00,0.0590
2819.00,0.0570
2818.00,0.0552
2817.00,0.0534
2816.00,0.0518
2815.00,0.0503
2814.00,0.0488
2813.00,0.0475
2812.00,0.0462
2811.00,0.0451
2810.00,0.0439
2809.00,0.0429
2808.00,0.0419
2807.00,0.0409
2806.00,0.0400
2805.00,0.0391
2804.00,0.0383
2803.00,0.0374
2802.00,0.0366
2801.00,0.0359
2800.00,0.0351
2799.00,0.0344
2798.00,0.0337
2797.00,0.0330
2796.00,0.0324
2795.00,0.0318
2794.00,0.0311
2793.00,0.0305
2792.00,0.0299
2791.00,0.0293
2790.00,0.0287
2789.00,0.0281
2788.00,0.0275
2787.00,0.0270
2786.00,0.0264
2785.00,0.0259
2784.00,0.0254
2783.00,0.0249
2782.00,0.0243
2781.00,0.0238
2780.00,0.0233
2779.00,0.0228
2778.00,0.0223
2777.00,0.0218
2776.00,0.0213
2775.00,0.0209
2774.00,0.0204
2773.00,0.0200
2772.00,0.0196
2771.00,0.0192
2770.00,0.0188
2769.00,0.0184
2768.00,0.0180
2767.00,0.0176
2766.00,0.0172
2765.00,0.0168
2764.00,0.0165
2763.00,0.0161
2762.00,0.0158
2761.00,0.0155
2760.00,0.0151
2759.00,0.0148
2758.00,0.0145
2757.00,0.0142
2756.00,0.0139
2755.00,0.0136
2754.00,0.0133
2753.00,0.0131
2752.00,0.0128
2751.00,0.0125
2750.00,0.0123
2749.00,0.0120
2748.00,0.0118
2747.00,0.0116
2746.00,0.0114
2745.00,0.0112
2744.00,0.0110
2743.00,0.0108
2742.00,0.0106
2741.00,0.0104
2740.00,0.0102
2739.00,0.0100
2738.00,0.0099
2737.00,0.0097
2736.00,0.0095
2735.00,0.0094
2734.00,0.0092
2733.00,0.0091
2732.00,0.0090
2731.00,0.0088
2730.00,0.0087
2729.00,0.0086
2728.00,0.0084
2727.00,0.0083
2726.00,0.0081
2725.00,0.0080
2724.00,0.0079
2723.00,0.0078
2722.00,0.0077
2721.00,0.0076
2720.00,0.0075
2719.00,0.0075
2718.00,0.0074
2717.00,0.0073
2716.00,0.0072
2715.00,0.0071
2714.00,0.0070
2713.00,0.0070
2712.00,0.0069
2711.00,0.0068
2710.00,0.0067
2709.00,0.0067
2708.00,0.0066
2707.00,0.0066
2706.00,0.0065
2705.00,0.0065
2704.00,0.0064
2703.00,0.0063
2702.00,0.0063
2701.00,0.0062
2700.00,0.0062
2699.00,0.0061
2698.00,0.0060
2697.00,0.0060
2696.00,0.0060
2695.00,0.0059
2694.00,0.0059
2693.00,0.0058
2692.00,0.0058
2691.00,0.0058
2690.00,0.0057
2689.00,0.0057
2688.00,0.0057
2687.00,0.0056
2686.00,0.0056
2685.00,0.0056
2684.00,0.0056
2683.00,0.0055
2682.00,0.0055
2681.00,0.0055
2680.00,0.0055
2679.00,0.0054
2678.00,0.0054
2677.00,0.0054
2676.00,0.0054
2675.00,0.0054
2674.00,0.0054
2673.00,0.0054
2672.00,0.0053
2671.00,0.0053
2670.00,0.0053
2669.00,0.0053
2668.00,0.0053
2667.00,0.0053
2666.00,0.0053
2665.00,0.0053
2664.00,0.0053
2663.00,0.0053
2662.00,0.0053
2661.00,0.0054
2660.00,0.0054
2659.00,0.0054
2658.00,0.0054
2657.00,0.0054
2656.00,0.0054
2655.00,0.0054
2654.00,0.0054
2653.00,0.0054
2652.00,0.0054
2651.00,0.0054
2650.00,0.0054
2649.00,0.0054
2648.00,0.0054
2647.00,0.0055
2646.00,0.0055
2645.00,0.0055
2644.00,0.0055
2643.00,0.0055
2642.00,0.0055
2641.00,0.0055
2640.00,0.0056
2639.00,0.0056
2638.00,0.0056
2637.00,0.0057
2636.00,0.0057
2635.00,0.0057
2634.00,0.0057
2633.00,0.0058
2632.00,0.0058
2631.00,0.0058
2630.00,0.0059
2629.00,0.0059
2628.00,0.0060
2627.00,0.0060
2626.00,0.0061
2625.00,0.0061
2624.00,0.0062
2623.00,0.0063
2622.00,0.0063
2621.00,0.0064
2620.00,0.0065
2619.00,0.0065
2618.00,0.0066
2617.00,0.0066
2616.00,0.0067
2615.00,0.0068
2614.00,0.0068
2613.00,0.0069
2612.00,0.0069
2611.00,0.0070
2610.00,0.0070
2609.00,0.0071
2608.00,0.0071
2607.00,0.0071
2606.00,0.0071
2605.00,0.0072
2604.00,0.0072
2603.00,0.0072
2602.00,0.0072
2601.00,0.0073
2600.00,0.0073
2599.00,0.0073
2598.00,0.0073
2597.00,0.0073
2596.00,0.0073
2595.00,0.0073
2594.00,0.0073
2593.00,0.0073
2592.00,0.0073
2591.00,0.0073
2590.00,0.0073
2589.00,0.0073
2588.00,0.0072
2587.00,0.0072
2586.00,0.0072
2585.00,0.0071
2584.00,0.0071
2583.00,0.0071
2582.00,0.0070
2581.00,0.0070
2580.00,0.0070
2579.00,0.0070
2578.00,0.0070
2577.00,0.0070
2576.00,0.0070
2575.00,0.0070
2574.00,0.0070
2573.00,0.0070
2572.00,0.0070
2571.00,0.0070
2570.00,0.0070
2569.00,0.0070
2568.00,0.0071
2567.00,0.0071
2566.00,0.0071
2565.00,0.0071
2564.00,0.0071
2563.00,0.0071
2562.00,0.0071
2561.00,0.0071
2560.00,0.0071
2559.00,0.0071
2558.00,0.0072
2557.00,0.0072
2556.00,0.0073
2555.00,0.0073
2554.00,0.0074
2553.00,0.0074
2552.00,0.0074
2551.00,0.0075
2550.00,0.0075
2549.00,0.0075
2548.00,0.0075
2547.00,0.0076
2546.00,0.0076
2545.00,0.0077
2544.00,0.0077
2543.00,0.0078
2542.00,0.0079
2541.00,0.0079
2540.00,0.0079
2539.00,0.0080
2538.00,0.0080
2537.00,0.0080
2536.00,0.0081
2535.00,0.0081
2534.00,0.0082
2533.00,0.0082
2532.00,0.0083
2531.00,0.0083
2530.00,0.0083
2529.00,0.0083
2528.00,0.0083
2527.00,0.0083
2526.00,0.0084
2525.00,0.0084
2524.00,0.0084
2523.00,0.0084
2522.00,0.0084
2521.00,0.0084
2520.00,0.0084
2519.00,0.0084
2518.00,0.0084
2517.00,0.0083
2516.00,0.0083
2515.00,0.0082
2514.00,0.0082
2513.00,0.0081
2512.00,0.0081
2511.00,0.0080
2510.00,0.0080
2509.00,0.0079
2508.00,0.0079
2507.00,0.0078
2506.00,0.0077
2505.00,0.0076
2504.00,0.0075
2503.00,0.0074
2502.00,0.0074
2501.00,0.0073
2500.00,0.0073
2499.00,0.0072
2498.00,0.0071
2497.00,0.0070
2496.00,0.0069
2495.00,0.0068
2494.00,0.0067
2493.00,0.0066
2492.00,0.0065
2491.00,0.0065
2490.00,0.0064
2489.00,0.0063
2488.00,0.0063
2487.00,0.0062
2486.00,0.0061
2485.00,0.0060
2484.00,0.0059
2483.00,0.0058
2482.00,0.0057
2481.00,0.0056
2480.00,0.0055
2479.00,0.0054
2478.00,0.0053
2477.00,0.0053
2476.00,0.0052
2475.00,0.0051
2474.00,0.0051
2473.00,0.0050
2472.00,0.0049
2471.00,0.0048
2470.00,0.0048
2469.00,0.0047
2468.00,0.0047
2467.00,0.0047
2466.00,0.0047
2465.00,0.0046
2464.00,0.0045
2463.00,0.0045
2462.00,0.0044
2461.00,0.0044
2460.00,0.0044
2459.00,0.0044
2458.00,0.0044
2457.00,0.0044
2456.00,0.0044
2455.00,0.0044
2454.00,0.0043
2453.00,0.0043
2452.00,0.0042
2451.00,0.0042
2450.00,0.0041
2449.00,0.0041
2448.00,0.0041
2447.00,0.0041
2446.00,0.0041
2445.00,0.0040
2444.00,0.0040
2443.00,0.0040
2442.00,0.0040
2441.00,0.0040
2440.00,0.0039
2439.00,0.0039
2438.00,0.0039
2437.00,0.0038
2436.00,0.0038
2435.00,0.0038
2434.00,0.0038
2433.00,0.0037
2432.00,0.0037
2431.00,0.0036
2430.00,0.0036
2429.00,0.0036
2428.00,0.0035
2427.00,0.0035
2426.00,0.0034
2425.00,0.0034
2424.00,0.0034
2423.00,0.0034
2422.00,0.0033
2421.00,0.0033
2420.00,0.0032
2419.00,0.0031
2418.00,0.0031
2417.00,0.0031
2416.00,0.0030
2415.00,0.0030
2414.00,0.0030
2413.00,0.0029
2412.00,0.0029
2411.00,0.0029
2410.00,0.0028
2409.00,0.0028
2408.00,0.0028
2407.00,0.0028
2406.00,0.0027
2405.00,0.0027
2404.00,0.0027
2403.00,0.0026
2402.00,0.0026
2401.00,0.0026
2400.00,0.0026
2399.00,0.0026
2398.00,0.0026
2397.00,0.0025
2396.00,0.0024
2395.00,0.0024
2394.00,0.0024
2393.00,0.0023
2392.00,0.0023
2391.00,0.0023
2390.00,0.0022
2389.00,0.0022
2388.00,0.0022
2387.00,0.0022
2386.00,0.0021
2385.00,0.0021
2384.00,0.0022
2383.00,0.0022
2382.00,0.0022
2381.00,0.0021
2380.00,0.0021
2379.00,0.0021
2378.00,0.0020
2377.00,0.0020
2376.00,0.0020
2375.00,0.0020
2374.00,0.0020
2373.00,0.0019
2372.00,0.0019
2371.00,0.0019
2370.00,0.0018
2369.00,0.0018
2368.00,0.0018
2367.00,0.0017
2366.00,0.0017
2365.00,0.0018
2364.00,0.0018
2363.00,0.0018
2362.00,0.0018
2361.00,0.0018
2360.00,0.0018
2359.00,0.0018
2358.00,0.0018
2357.00,0.0018
2356.00,0.0017
2355.00,0.0017
2354.00,0.0017
2353.00,0.0017
2352.00,0.0017
2351.00,0.0017
2350.00,0.0018
2349.00,0.0018
2348.00,0.0019
2347.00,0.0019
2346.00,0.0019
2345.00,0.0019
2344.00,0.0019
2343.00,0.0019
2342.00,0.0019
2341.00,0.0019
2340.00,0.0019
2339.00,0.0019
2338.00,0.0019
2337.00,0.0019
2336.00,0.0019
2335.00,0.0019
2334.00,0.0019
2333.00,0.0019
2332.00,0.0019
2331.00,0.0019
2330.00,0.0019
2329.00,0.0020
2328.00,0.0021
2327.00,0.0022
2326.00,0.0022
2325.00,0.0023
2324.00,0.0023
2323.00,0.0023
2322.00,0.0023
2321.00,0.0022
2320.00,0.0022
2319.00,0.0021
2318.00,0.0021
2317.00,0.0021
2316.00,0.0022
2315.00,0.0022
2314.00,0.0021
2313.00,0.0021
2312.00,0.0021
2311.00,0.0021
2310.00,0.0021
2309.00,0.0021
2308.00,0.0022
2307.00,0.0022
2306.00,0.0022
2305.00,0.0022
2304.00,0.0022
2303.00,0.0022
2302.00,0.0023
2301.00,0.0023
2300.00,0.0022
2299.00,0.0022
2298.00,0.0022
2297.00,0.0022
2296.00,0.0022
2295.00,0.0022
2294.00,0.0023
2293.00,0.0023
2292.00,0.0023
2291.00,0.0024
2290.00,0.0024
2289.00,0.0025
2288.00,0.0025
2287.00,0.0025
2286.00,0.0025
2285.00,0.0025
2284.00,0.0026
2283.00,0.0026
2282.00,0.0026
2281.00,0.0026
2280.00,0.0026
2279.00,0.0026
2278.00,0.0026
2277.00,0.0026
2276.00,0.0027
2275.00,0.0027
2274.00,0.0027
2273.00,0.0027
2272.00,0.0027
2271.00,0.0027
2270.00,0.0027
2269.00,0.0027
2268.00,0.0027
2267.00,0.0027
2266.00,0.0027
2265.00,0.0027
2264.00,0.0027
2263.00,0.0027
2262.00,0.0027
2261.00,0.0028
2260.00,0.0029
2259.00,0.0030
2258.00,0.0030
2257.00,0.0030
2256.00,0.0030
2255.00,0.0029
2254.00,0.0028
2253.00,0.0028
2252.00,0.0029
2251.00,0.0030
2250.00,0.0030
2249.00,0.0030
2248.00,0.0029
2247.00,0.0029
2246.00,0.0030
2245.00,0.0031
2244.00,0.0032
2243.00,0.0033
2242.00,0.0033
2241.00,0.0033
2240.00,0.0033
2239.00,0.0033
2238.00,0.0034
2237.00,0.0035
2236.00,0.0036
2235.00,0.0037
2234.00,0.0037
2233.00,0.0036
2232.00,0.0036
2231.00,0.0036
2230.00,0.0036
2229.00,0.0035
2228.00,0.0035
2227.00,0.0035
2226.00,0.0035
2225.00,0.0035
2224.00,0.0035
2223.00,0.0035
2222.00,0.0035
2221.00,0.0035
2220.00,0.0035
2219.00,0.0035
2218.00,0.0034
2217.00,0.0033
2216.00,0.0032
2215.00,0.0033
2214.00,0.0033
2213.00,0.0033
2212.00,0.0034
2211.00,0.0034
2210.00,0.0034
2209.00,0.0033
2208.00,0.0032
2207.00,0.0031
2206.00,0.0030
2205.00,0.0029
2204.00,0.0029
2203.00,0.0029
2202.00,0.0030
2201.00,0.0030
2200.00,0.0030
2199.00,0.0030
2198.00,0.0030
2197.00,0.0030
2196.00,0.0030
2195.00,0.0030
2194.00,0.0029
2193.00,0.0030
2192.00,0.0030
2191.00,0.0030
2190.00,0.0030
2189.00,0.0029
2188.00,0.0028
2187.00,0.0027
2186.00,0.0026
2185.00,0.0026
2184.00,0.0027
2183.00,0.0028
2182.00,0.0028
2181.00,0.0028
2180.00,0.0028
2179.00,0.0027
2178.00,0.0027
2177.00,0.0026
2176.00,0.0026
2175.00,0.0026
2174.00,0.0026
2173.00,0.0025
2172.00,0.0026
2171.00,0.0027
2170.00,0.0027
2169.00,0.0027
2168.00,0.0026
2167.00,0.0025
2166.00,0.0025
2165.00,0.0025
2164.00,0.0025
2163.00,0.0026
2162.00,0.0026
2161.00,0.0025
2160.00,0.0022
2159.00,0.0019
2158.00,0.0017
2157.00,0.0016
2156.00,0.0017
2155.00,0.0018
2154.00,0.0019
2153.00,0.0020
2152.00,0.0021
2151.00,0.0022
2150.00,0.0022
2149.00,0.0022
2148.00,0.0022
2147.00,0.0021
2146.00,0.0021
2145.00,0.0020
2144.00,0.0021
2143.00,0.0021
2142.00,0.0021
2141.00,0.0022
2140.00,0.0023
2139.00,0.0024
2138.00,0.0025
2137.00,0.0024
2136.00,0.0023
2135.00,0.0022
2134.00,0.0022
2133.00,0.0022
2132.00,0.0022
2131.00,0.0022
2130.00,0.0022
2129.00,0.0022
2128.00,0.0023
2127.00,0.0023
2126.00,0.0024
2125.00,0.0025
2124.00,0.0025
2123.00,0.0025
2122.00,0.0024
2121.00,0.0024
2120.00,0.0024
2119.00,0.0024
2118.00,0.0024
2117.00,0.0024
2116.00,0.0025
2115.00,0.0025
2114.00,0.0025
2113.00,0.0024
2112.00,0.0024
2111.00,0.0023
2110.00,0.0023
2109.00,0.0023
2108.00,0.0022
2107.00,0.0022
2106.00,0.0022
2105.00,0.0022
2104.00,0.0022
2103.00,0.0022
2102.00,0.0022
2101.00,0.0022
2100.00,0.0022
2099.00,0.0022
2098.00,0.0022
2097.00,0.0022
2096.00,0.0022
2095.00,0.0021
2094.00,0.0020
2093.00,0.0019
2092.00,0.0018
2091.00,0.0018
2090.00,0.0018
2089.00,0.0018
2088.00,0.0019
2087.00,0.0019
2086.00,0.0019
2085.00,0.0018
2084.00,0.0018
2083.00,0.0018
2082.00,0.0018
2081.00,0.0018
2080.00,0.0017
2079.00,0.0017
2078.00,0.0017
2077.00,0.0017
2076.00,0.0016
2075.00,0.0016
2074.00,0.0015
2073.00,0.0015
2072.00,0.0014
2071.00,0.0014
2070.00,0.0014
2069.00,0.0014
2068.00,0.0014
2067.00,0.0014
2066.00,0.0014
2065.00,0.0014
2064.00,0.0014
2063.00,0.0014
2062.00,0.0014
2061.00,0.0014
2060.00,0.0015
2059.00,0.0015
2058.00,0.0015
2057.00,0.0015
2056.00,0.0015
2055.00,0.0016
2054.00,0.0016
2053.00,0.0017
2052.00,0.0018
2051.00,0.0018
2050.00,0.0016
2049.00,0.0014
2048.00,0.0012
2047.00,0.0010
2046.00,0.0007
2045.00,0.0005
2044.00,0.0003
2043.00,0.0003
2042.00,0.0002
2041.00,0.0002
2040.00,0.0001
2039.00,-0.0000
2038.00,-0.0002
2037.00,-0.0004
2036.00,-0.0006
2035.00,-0.0008
2034.00,-0.0010
2033.00,-0.0013
2032.00,-0.0015
2031.00,-0.0017
2030.00,-0.0019
2029.00,-0.0018
2028.00,-0.0017
2027.00,-0.0016
2026.00,-0.0015
2025.00,-0.0014
2024.00,-0.0014
2023.00,-0.0014
2022.00,-0.0015
2021.00,-0.0017
2020.00,-0.0018
2019.00,-0.0018
2018.00,-0.0019
2017.00,-0.0019
2016.00,-0.0019
2015.00,-0.0019
2014.00,-0.0019
2013.00,-0.0019
2012.00,-0.0017
2011.00,-0.0016
2010.00,-0.0015
2009.00,-0.0014
2008.00,-0.0014
2007.00,-0.0014
2006.00,-0.0014
2005.00,-0.0013
2004.00,-0.0011
2003.00,-0.0010
2002.00,-0.0008
2001.00,-0.0006
2000.00,-0.0004
1999.00,-0.0002
1998.00,-0.0001
1997.00,-0.0001
1996.00,-0.0001
1995.00,-0.0001
1994.00,-0.0001
1993.00,-0.0001
1992.00,-0.0001
1991.00,-0.0002
1990.00,-0.0003
1989.00,-0.0003
1988.00,-0.0003
1987.00,-0.0002
1986.00,-0.0002
1985.00,-0.0001
1984.00,-0.0001
1983.00,-0.0001
1982.00,-0.0001
1981.00,-0.0001
1980.00,0.0000
1979.00,0.0000
1978.00,-0.0001
1977.00,-0.0002
1976.00,-0.0002
1975.00,-0.0002
1974.00,-0.0003
1973.00,-0.0002
1972.00,-0.0002
1971.00,-0.0003
1970.00,-0.0003
1969.00,-0.0003
1968.00,-0.0002
1967.00,-0.0001
1966.00,0.0001
1965.00,0.0002
1964.00,0.0004
1963.00,0.0005
1962.00,0.0005
1961.00,0.0005
1960.00,0.0004
1959.00,0.0003
1958.00,0.0003
1957.00,0.0003
1956.00,0.0004
1955.00,0.0004
1954.00,0.0003
1953.00,0.0003
1952.00,0.0003
1951.00,0.0004
1950.00,0.0005
1949.00,0.0006
1948.00,0.0006
1947.00,0.0007
1946.00,0.0006
1945.00,0.0006
1944.00,0.0006
1943.00,0.0006
1942.00,0.0007
1941.00,0.0008
1940.00,0.0008
1939.00,0.0008
1938.00,0.0008
1937.00,0.0008
1936.00,0.0008
1935.00,0.0008
1934.00,0.0008
1933.00,0.0008
1932.00,0.0008
1931.00,0.0009
1930.00,0.0009
1929.00,0.0009
1928.00,0.0010
1927.00,0.0010
1926.00,0.0010
1925.00,0.0010
1924.00,0.0010
1923.00,0.0010
1922.00,0.0010
1921.00,0.0011
1920.00,0.0012
1919.00,0.0012
1918.00,0.0013
1917.00,0.0013
1916.00,0.0013
1915.00,0.0014
1914.00,0.0014
1913.00,0.0013
1912.00,0.0013
1911.00,0.0013
1910.00,0.0013
1909.00,0.0013
1908.00,0.0013
1907.00,0.0013
1906.00,0.0013
1905.00,0.0013
1904.00,0.0013
1903.00,0.0013
1902.00,0.0013
1901.00,0.0012
1900.00,0.0013
1899.00,0.0013
1898.00,0.0014
1897.00,0.0014
1896.00,0.0014
1895.00,0.0014
1894.00,0.0013
1893.00,0.0014
1892.00,0.0014
1891.00,0.0014
1890.00,0.0014
1889.00,0.0014
1888.00,0.0015
1887.00,0.0015
1886.00,0.0015
1885.00,0.0015
1884.00,0.0015
1883.00,0.0016
1882.00,0.0016
1881.00,0.0016
1880.00,0.0016
1879.00,0.0016
1878.00,0.0017
1877.00,0.0017
1876.00,0.0017
1875.00,0.0017
1874.00,0.0017
1873.00,0.0017
1872.00,0.0017
1871.00,0.0018
1870.00,0.0018
1869.00,0.0017
1868.00,0.0017
1867.00,0.0018
1866.00,0.0018
1865.00,0.0018
1864.00,0.0018
1863.00,0.0018
1862.00,0.0019
1861.00,0.0019
1860.00,0.0019
1859.00,0.0019
1858.00,0.0019
1857.00,0.0019
1856.00,0.0019
1855.00,0.0020
1854.00,0.0020
1853.00,0.0020
1852.00,0.0020
1851.00,0.0020
1850.00,0.0019
1849.00,0.0019
1848.00,0.0020
1847.00,0.0020
1846.00,0.0021
1845.00,0.0021
1844.00,0.0021
1843.00,0.0021
1842.00,0.0022
1841.00,0.0022
1840.00,0.0021
1839.00,0.0021
1838.00,0.0022
1837.00,0.0022
1836.00,0.0023
1835.00,0.0023
1834.00,0.0023
1833.00,0.0023
1832.00,0.0023
1831.00,0.0023
1830.00,0.0023
1829.00,0.0023
1828.00,0.0023
1827.00,0.0024
1826.00,0.0024
1825.00,0.0024
1824.00,0.0024
1823.00,0.0024
1822.00,0.0025
1821.00,0.0025
1820.00,0.0025
1819.00,0.0025
1818.00,0.0025
1817.00,0.0025
1816.00,0.0025
1815.00,0.0026
1814.00,0.0026
1813.00,0.0027
1812.00,0.0027
1811.00,0.0028
1810.00,0.0028
1809.00,0.0028
1808.00,0.0028
1807.00,0.0028
1806.00,0.0029
1805.00,0.0029
1804.00,0.0029
1803.00,0.0030
1802.00,0.0030
1801.00,0.0030
1800.00,0.0030
1799.00,0.0030
1798.00,0.0030
1797.00,0.0030
1796.00,0.0031
1795.00,0.0032
1794.00,0.0032
1793.00,0.0032
1792.00,0.0032
1791.00,0.0032
1790.00,0.0032
1789.00,0.0033
1788.00,0.0033
1787.00,0.0033
1786.00,0.0033
1785.00,0.0033
1784.00,0.0033
1783.00,0.0034
1782.00,0.0034
1781.00,0.0034
1780.00,0.0035
1779.00,0.0035
1778.00,0.0035
1777.00,0.0035
1776.00,0.0036
1775.00,0.0036
1774.00,0.0036
1773.00,0.0037
1772.00,0.0037
1771.00,0.0037
1770.00,0.0038
1769.00,0.0038
1768.00,0.0039
1767.00,0.0039
1766.00,0.0039
1765.00,0.0040
1764.00,0.0040
1763.00,0.0040
1762.00,0.0040
1761.00,0.0040
1760.00,0.0040
1759.00,0.0040
1758.00,0.0040
1757.00,0.0040
1756.00,0.0040
1755.00,0.0039
1754.00,0.0039
1753.00,0.0039
1752.00,0.0039
1751.00,0.0038
1750.00,0.0038
1749.00,0.0038
1748.00,0.0038
1747.00,0.0038
1746.00,0.0039
1745.00,0.0039
1744.00,0.0039
1743.00,0.0040
1742.00,0.0041
1741.00,0.0042
1740.00,0.0042
1739.00,0.0043
1738.00,0.0044
1737.00,0.0045
1736.00,0.0046
1735.00,0.0047
1734.00,0.0048
1733.00,0.0048
1732.00,0.0050
1731.00,0.0051
1730.00,0.0053
1729.00,0.0055
1728.00,0.0057
1727.00,0.0059
1726.00,0.0060
1725.00,0.0062
1724.00,0.0063
1723.00,0.0065
1722.00,0.0066
1721.00,0.0067
1720.00,0.0068
1719.00,0.0070
1718.00,0.0071
1717.00,0.0072
1716.00,0.0074
1715.00,0.0076
1714.00,0.0078
1713.00,0.0079
1712.00,0.0080
1711.00,0.0081
1710.00,0.0083
1709.00,0.0084
1708.00,0.0086
1707.00,0.0088
1706.00,0.0090
1705.00,0.0092
1704.00,0.0094
1703.00,0.0096
1702.00,0.0099
1701.00,0.0101
1700.00,0.0103
1699.00,0.0104
1698.00,0.0105
1697.00,0.0107
1696.00,0.0111
1695.00,0.0113
1694.00,0.0115
1693.00,0.0117
1692.00,0.0119
1691.00,0.0121
1690.00,0.0123
1689.00,0.0126
1688.00,0.0129
1687.00,0.0131
1686.00,0.0133
1685.00,0.0136
1684.00,0.0140
1683.00,0.0144
1682.00,0.0146
1681.00,0.0148
1680.00,0.0151
1679.00,0.0155
1678.00,0.0158
1677.00,0.0161
1676.00,0.0164
1675.00,0.0167
1674.00,0.0169
1673.00,0.0171
1672.00,0.0173
1671.00,0.0175
1670.00,0.0178
1669.00,0.0180
1668.00,0.0182
1667.00,0.0184
1666.00,0.0185
1665.00,0.0187
1664.00,0.0188
1663.00,0.0189
1662.00,0.0190
1661.00,0.0190
1660.00,0.0191
1659.00,0.0191
1658.00,0.0191
1657.00,0.0192
1656.00,0.0192
1655.00,0.0193
1654.00,0.0193
1653.00,0.0193
1652.00,0.0192
1651.00,0.0191
1650.00,0.0190
1649.00,0.0190
1648.00,0.0189
1647.00,0.0188
1646.00,0.0187
1645.00,0.0186
1644.00,0.0184
1643.00,0.0183
1642.00,0.0181
1641.00,0.0180
1640.00,0.0179
1639.00,0.0177
1638.00,0.0176
1637.00,0.0175
1636.00,0.0173
1635.00,0.0171
1634.00,0.0168
1633.00,0.0166
1632.00,0.0164
1631.00,0.0162
1630.00,0.0160
1629.00,0.0158
1628.00,0.0156
1627.00,0.0154
1626.00,0.0152
1625.00,0.0150
1624.00,0.0148
1623.00,0.0147
1622.00,0.0145
1621.00,0.0143
1620.00,0.0142
1619.00,0.0141
1618.00,0.0140
1617.00,0.0138
1616.00,0.0137
1615.00,0.0135
1614.00,0.0134
1613.00,0.0134
1612.00,0.0133
1611.00,0.0132
1610.00,0.0131
1609.00,0.0130
1608.00,0.0130
1607.00,0.0130
1606.00,0.0129
1605.00,0.0129
1604.00,0.0129
1603.00,0.0128
1602.00,0.0128
1601.00,0.0128
1600.00,0.0127
1599.00,0.0127
1598.00,0.0127
1597.00,0.0127
1596.00,0.0127
1595.00,0.0127
1594.00,0.0127
1593.00,0.0127
1592.00,0.0127
1591.00,0.0127
1590.00,0.0128
1589.00,0.0128
1588.00,0.0129
1587.00,0.0129
1586.00,0.0129
1585.00,0.0130
1584.00,0.0130
1583.00,0.0131
1582.00,0.0131
1581.00,0.0132
1580.00,0.0132
1579.00,0.0133
1578.00,0.0134
1577.00,0.0134
1576.00,0.0135
1575.00,0.0136
1574.00,0.0136
1573.00,0.0137
1572.00,0.0138
1571.00,0.0139
1570.00,0.0140
1569.00,0.0141
1568.00,0.0141
1567.00,0.0142
1566.00,0.0142
1565.00,0.0143
1564.00,0.0144
1563.00,0.0145
1562.00,0.0146
1561.00,0.0147
1560.00,0.0148
1559.00,0.0150
1558.00,0.0152
1557.00,0.0152
1556.00,0.0153
1555.00,0.0154
1554.00,0.0154
1553.00,0.0155
1552.00,0.0156
1551.00,0.0157
1550.00,0.0158
1549.00,0.0159
1548.00,0.0161
1547.00,0.0162
1546.00,0.0162
1545.00,0.0163
1544.00,0.0165
1543.00,0.0166
1542.00,0.0167
1541.00,0.0169
1540.00,0.0171
1539.00,0.0173
1538.00,0.0174
1537.00,0.0175
1536.00,0.0176
1535.00,0.0178
1534.00,0.0179
1533.00,0.0181
1532.00,0.0183
1531.00,0.0185
1530.00,0.0186
1529.00,0.0187
1528.00,0.0189
1527.00,0.0191
1526.00,0.0193
1525.00,0.0194
1524.00,0.0196
1523.00,0.0198
1522.00,0.0200
1521.00,0.0203
1520.00,0.0206
1519.00,0.0208
1518.00,0.0210
1517.00,0.0213
1516.00,0.0216
1515.00,0.0219
1514.00,0.0221
1513.00,0.0223
1512.00,0.0226
1511.00,0.0228
1510.00,0.0230
1509.00,0.0232
1508.00,0.0236
1507.00,0.0243
1506.00,0.0250
1505.00,0.0255
1504.00,0.0258
1503.00,0.0261
1502.00,0.0264
1501.00,0.0268
1500.00,0.0273
1499.00,0.0278
1498.00,0.0283
1497.00,0.0290
1496.00,0.0298
1495.00,0.0305
1494.00,0.0310
1493.00,0.0316
1492.00,0.0322
1491.00,0.0329
1490.00,0.0338
1489.00,0.0348
1488.00,0.0358
1487.00,0.0367
1486.00,0.0375
1485.00,0.0384
1484.00,0.0392
1483.00,0.0400
1482.00,0.0409
1481.00,0.0419
1480.00,0.0428
1479.00,0.0437
1478.00,0.0444
1477.00,0.0452
1476.00,0.0459
1475.00,0.0466
1474.00,0.0473
1473.00,0.0481
1472.00,0.0489
1471.00,0.0496
1470.00,0.0500
1469.00,0.0504
1468.00,0.0508
1467.00,0.0512
1466.00,0.0518
1465.00,0.0526
1464.00,0.0534
1463.00,0.0540
1462.00,0.0545
1461.00,0.0550
1460.00,0.0555
1459.00,0.0562
1458.00,0.0573
1457.00,0.0589
1456.00,0.0604
1455.00,0.0615
1454.00,0.0625
1453.00,0.0634
1452.00,0.0644
1451.00,0.0652
1450.00,0.0658
1449.00,0.0660
1448.00,0.0657
1447.00,0.0648
1446.00,0.0636
1445.00,0.0621
1444.00,0.0605
1443.00,0.0590
1442.00,0.0577
1441.00,0.0566
1440.00,0.0559
1439.00,0.0553
1438.00,0.0550
1437.00,0.0550
1436.00,0.0552
1435.00,0.0555
1434.00,0.0557
1433.00,0.0560
1432.00,0.0563
1431.00,0.0566
1430.00,0.0571
1429.00,0.0576
1428.00,0.0580
1427.00,0.0584
1426.00,0.0587
1425.00,0.0590
1424.00,0.0594
1423.00,0.0597
1422.00,0.0599
1421.00,0.0601
1420.00,0.0603
1419.00,0.0606
1418.00,0.0609
1417.00,0.0610
1416.00,0.0611
1415.00,0.0611
1414.00,0.0611
1413.00,0.0611
1412.00,0.0610
1411.00,0.0609
1410.00,0.0607
1409.00,0.0605
1408.00,0.0602
1407.00,0.0599
1406.00,0.0596
1405.00,0.0592
1404.00,0.0588
1403.00,0.0584
1402.00,0.0579
1401.00,0.0574
1400.00,0.0568
1399.00,0.0561
1398.00,0.0555
1397.00,0.0549
1396.00,0.0542
1395.00,0.0535
1394.00,0.0528
1393.00,0.0521
1392.00,0.0513
1391.00,0.0506
1390.00,0.0498
1389.00,0.0491
1388.00,0.0482
1387.00,0.0474
1386.00,0.0466
1385.00,0.0458
1384.00,0.0451
1383.00,0.0443
1382.00,0.0436
1381.00,0.0429
1380.00,0.0421
1379.00,0.0414
1378.00,0.0408
1377.00,0.0401
1376.00,0.0395
1375.00,0.0388
1374.00,0.0382
1373.00,0.0376
1372.00,0.0370
1371.00,0.0365
1370.00,0.0359
1369.00,0.0354
1368.00,0.0349
1367.00,0.0344
1366.00,0.0339
1365.00,0.0334
1364.00,0.0330
1363.00,0.0325
1362.00,0.0321
1361.00,0.0318
1360.00,0.0314
1359.00,0.0310
1358.00,0.0306
1357.00,0.0302
1356.00,0.0299
1355.00,0.0295
1354.00,0.0292
1353.00,0.0289
1352.00,0.0286
1351.00,0.0283
1350.00,0.0280
1349.00,0.0278
1348.00,0.0275
1347.00,0.0272
1346.00,0.0270
1345.00,0.0268
1344.00,0.0265
1343.00,0.0262
1342.00,0.0260
1341.00,0.0258
1340.00,0.0255
1339.00,0.0254
1338.00,0.0252
1337.00,0.0251
1336.00,0.0249
1335.00,0.0247
1334.00,0.0246
1333.00,0.0244
1332.00,0.0242
1331.00,0.0240
1330.00,0.0239
1329.00,0.0237
1328.00,0.0235
1327.00,0.0234
1326.00,0.0233
1325.00,0.0231
1324.00,0.0230
1323.00,0.0229
1322.00,0.0228
1321.00,0.0227
1320.00,0.0225
1319.00,0.0224
1318.00,0.0223
1317.00,0.0221
1316.00,0.0220
1315.00,0.0219
1314.00,0.0218
1313.00,0.0217
1312.00,0.0217
1311.00,0.0216
1310.00,0.0215
1309.00,0.0214
1308.00,0.0213
1307.00,0.0212
1306.00,0.0212
1305.00,0.0211
1304.00,0.0210
1303.00,0.0208
1302.00,0.0208
1301.00,0.0207
1300.00,0.0206
1299.00,0.0206
1298.00,0.0205
1297.00,0.0205
1296.00,0.0204
1295.00,0.0203
1294.00,0.0202
1293.00,0.0202
1292.00,0.0201
1291.00,0.0200
1290.00,0.0199
1289.00,0.0198
1288.00,0.0197
1287.00,0.0197
1286.00,0.0196
1285.00,0.0196
1284.00,0.0195
1283.00,0.0194
1282.00,0.0194
1281.00,0.0193
1280.00,0.0192
1279.00,0.0192
1278.00,0.0191
1277.00,0.0191
1276.00,0.0190
1275.00,0.0189
1274.00,0.0189
1273.00,0.0189
1272.00,0.0188
1271.00,0.0187
1270.00,0.0187
1269.00,0.0186
1268.00,0.0185
1267.00,0.0185
1266.00,0.0184
1265.00,0.0184
1264.00,0.0184
1263.00,0.0183
1262.00,0.0183
1261.00,0.0183
1260.00,0.0182
1259.00,0.0181
1258.00,0.0181
1257.00,0.0181
1256.00,0.0180
1255.00,0.0180
1254.00,0.0180
1253.00,0.0180
1252.00,0.0179
1251.00,0.0179
1250.00,0.0179
1249.00,0.0179
1248.00,0.0179
1247.00,0.0179
1246.00,0.0179
1245.00,0.0179
1244.00,0.0179
1243.00,0.0179
1242.00,0.0179
1241.00,0.0179
1240.00,0.0179
1239.00,0.0179
1238.00,0.0180
1237.00,0.0180
1236.00,0.0180
1235.00,0.0180
1234.00,0.0180
1233.00,0.0180
1232.00,0.0180
1231.00,0.0181
1230.00,0.0181
1229.00,0.0181
1228.00,0.0181
1227.00,0.0181
1226.00,0.0182
1225.00,0.0182
1224.00,0.0182
1223.00,0.0182
1222.00,0.0182
1221.00,0.0183
1220.00,0.0183
1219.00,0.0183
1218.00,0.0183
1217.00,0.0184
1216.00,0.0184
1215.00,0.0184
1214.00,0.0185
1213.00,0.0185
1212.00,0.0185
1211.00,0.0185
1210.00,0.0185
1209.00,0.0186
1208.00,0.0186
1207.00,0.0186
1206.00,0.0186
1205.00,0.0186
1204.00,0.0186
1203.00,0.0186
1202.00,0.0187
1201.00,0.0187
1200.00,0.0187
1199.00,0.0187
1198.00,0.0187
1197.00,0.0187
1196.00,0.0187
1195.00,0.0187
1194.00,0.0187
1193.00,0.0187
1192.00,0.0187
1191.00,0.0187
1190.00,0.0187
1189.00,0.0188
1188.00,0.0188
1187.00,0.0188
1186.00,0.0188
1185.00,0.0188
1184.00,0.0188
1183.00,0.0188
1182.00,0.0189
1181.00,0.0189
1180.00,0.0189
1179.00,0.0189
1178.00,0.0190
1177.00,0.0190
1176.00,0.0190
1175.00,0.0190
1174.00,0.0190
1173.00,0.0191
1172.00,0.0191
1171.00,0.0192
1170.00,0.0193
1169.00,0.0193
1168.00,0.0194
1167.00,0.0195
1166.00,0.0196
1165.00,0.0197
1164.00,0.0198
1163.00,0.0199
1162.00,0.0200
1161.00,0.0201
1160.00,0.0202
1159.00,0.0203
1158.00,0.0205
1157.00,0.0207
1156.00,0.0208
1155.00,0.0210
1154.00,0.0213
1153.00,0.0215
1152.00,0.0218
1151.00,0.0221
1150.00,0.0224
1149.00,0.0227
1148.00,0.0230
1147.00,0.0233
1146.00,0.0237
1145.00,0.0242
1144.00,0.0247
1143.00,0.0252
1142.00,0.0258
1141.00,0.0264
1140.00,0.0271
1139.00,0.0278
1138.00,0.0286
1137.00,0.0295
1136.00,0.0304
1135.00,0.0314
1134.00,0.0325
1133.00,0.0336
1132.00,0.0347
1131.00,0.0359
1130.00,0.0371
1129.00,0.0384
1128.00,0.0396
1127.00,0.0407
1126.00,0.0419
1125.00,0.0430
1124.00,0.0441
1123.00,0.0451
1122.00,0.0460
1121.00,0.0468
1120.00,0.0475
1119.00,0.0481
1118.00,0.0486
1117.00,0.0490
1116.00,0.0493
1115.00,0.0495
1114.00,0.0495
1113.00,0.0494
1112.00,0.0492
1111.00,0.0489
1110.00,0.0486
1109.00,0.0481
1108.00,0.0475
1107.00,0.0469
1106.00,0.0462
1105.00,0.0455
1104.00,0.0448
1103.00,0.0440
1102.00,0.0432
1101.00,0.0424
1100.00,0.0417
1099.00,0.0409
1098.00,0.0402
1097.00,0.0395
1096.00,0.0388
1095.00,0.0382
1094.00,0.0376
1093.00,0.0371
1092.00,0.0366
1091.00,0.0362
1090.00,0.0358
1089.00,0.0354
1088.00,0.0351
1087.00,0.0347
1086.00,0.0345
1085.00,0.0343
1084.00,0.0341
1083.00,0.0339
1082.00,0.0339
1081.00,0.0339
1080.00,0.0339
1079.00,0.0339
1078.00,0.0340
1077.00,0.0341
1076.00,0.0342
1075.00,0.0344
1074.00,0.0347
1073.00,0.0350
1072.00,0.0353
1071.00,0.0357
1070.00,0.0361
1069.00,0.0366
1068.00,0.0371
1067.00,0.0378
1066.00,0.0385
1065.00,0.0394
1064.00,0.0402
1063.00,0.0411
1062.00,0.0422
1061.00,0.0434
1060.00,0.0446
1059.00,0.0461
1058.00,0.0478
1057.00,0.0496
1056.00,0.0517
1055.00,0.0540
1054.00,0.0567
1053.00,0.0597
1052.00,0.0632
1051.00,0.0673
1050.00,0.0722
1049.00,0.0778
1048.00,0.0843
1047.00,0.0919
1046.00,0.1007
1045.00,0.1107
1044.00,0.1222
1043.00,0.1351
1042.00,0.1494
1041.00,0.1649
1040.00,0.1817
1039.00,0.1995
1038.00,0.2182
1037.00,0.2379
1036.00,0.2586
1035.00,0.2805
1034.00,0.3032
1033.00,0.3267
1032.00,0.3509
1031.00,0.3757
1030.00,0.4013
1029.00,0.4275
1028.00,0.4538
1027.00,0.4792
1026.00,0.5024
1025.00,0.5225
1024.00,0.5383
1023.00,0.5486
1022.00,0.5531
1021.00,0.5522
1020.00,0.5465
1019.00,0.5367
1018.00,0.5236
1017.00,0.5083
1016.00,0.4914
1015.00,0.4731
1014.00,0.4536
1013.00,0.4330
1012.00,0.4112
1011.00,0.3881
1010.00,0.3640
1009.00,0.3392
1008.00,0.3142
1007.00,0.2895
1006.00,0.2654
1005.00,0.2425
1004.00,0.2211
1003.00,0.2013
1002.00,0.1834
1001.00,0.1673
1000.00,0.1529
999.00,0.1402
998.00,0.1290
997.00,0.1192
996.00,0.1105
995.00,0.1029
994.00,0.0962
993.00,0.0902
992.00,0.0849
991.00,0.0802
990.00,0.0760
989.00,0.0723
988.00,0.0689
987.00,0.0658
986.00,0.0631
985.00,0.0605
984.00,0.0582
983.00,0.0561
982.00,0.0542
981.00,0.0524
980.00,0.0508
979.00,0.0493
978.00,0.0479
977.00,0.0466
976.00,0.0454
975.00,0.0443
974.00,0.0433
973.00,0.0424
972.00,0.0415
971.00,0.0406
970.00,0.0398
969.00,0.0391
968.00,0.0384
967.00,0.0377
966.00,0.0371
965.00,0.0366
964.00,0.0360
963.00,0.0355
962.00,0.0350
961.00,0.0346
960.00,0.0341
959.00,0.0336
958.00,0.0333
957.00,0.0329
956.00,0.0326
955.00,0.0322
954.00,0.0320
953.00,0.0317
952.00,0.0314
951.00,0.0312
950.00,0.0310
949.00,0.0307
948.00,0.0304
947.00,0.0302
946.00,0.0301
945.00,0.0299
944.00,0.0298
943.00,0.0296
942.00,0.0294
941.00,0.0293
940.00,0.0291
939.00,0.0290
938.00,0.0289
937.00,0.0288
936.00,0.0287
935.00,0.0287
934.00,0.0286
933.00,0.0286
932.00,0.0285
931.00,0.0284
930.00,0.0284
929.00,0.0284
928.00,0.0284
927.00,0.0284
926.00,0.0285
925.00,0.0285
924.00,0.0284
923.00,0.0284
922.00,0.0284
921.00,0.0285
920.00,0.0285
919.00,0.0286
918.00,0.0287
917.00,0.0287
916.00,0.0287
915.00,0.0287
914.00,0.0288
913.00,0.0289
912.00,0.0290
911.00,0.0291
910.00,0.0292
909.00,0.0293
908.00,0.0294
907.00,0.0295
906.00,0.0296
905.00,0.0297
904.00,0.0298
903.00,0.0299
902.00,0.0301
901.00,0.0302
900.00,0.0304
899.00,0.0305
898.00,0.0306
897.00,0.0308
896.00,0.0309
895.00,0.0311
894.00,0.0314
893.00,0.0316
892.00,0.0318
891.00,0.0320
890.00,0.0322
889.00,0.0324
888.00,0.0326
887.00,0.0328
886.00,0.0331
885.00,0.0333
884.00,0.0335
883.00,0.0337
882.00,0.0340
881.00,0.0343
880.00,0.0345
879.00,0.0347
878.00,0.0350
877.00,0.0353
876.00,0.0355
875.00,0.0358
874.00,0.0361
873.00,0.0364
872.00,0.0367
871.00,0.0371
870.00,0.0374
869.00,0.0377
868.00,0.0380
867.00,0.0382
866.00,0.0386
865.00,0.0389
864.00,0.0392
863.00,0.0395
862.00,0.0399
861.00,0.0403
860.00,0.0406
859.00,0.0410
858.00,0.0414
857.00,0.0418
856.00,0.0422
855.00,0.0426
854.00,0.0430
853.00,0.0434
852.00,0.0438
851.00,0.0442
850.00,0.0446
849.00,0.0451
848.00,0.0455
847.00,0.0459
846.00,0.0463
845.00,0.0468
844.00,0.0472
843.00,0.0475
842.00,0.0480
841.00,0.0484
840.00,0.0488
839.00,0.0493
838.00,0.0498
837.00,0.0503
836.00,0.0507
835.00,0.0512
834.00,0.0517
833.00,0.0521
832.00,0.0525
831.00,0.0529
830.00,0.0534
829.00,0.0539
828.00,0.0544
827.00,0.0549
826.00,0.0555
825.00,0.0561
824.00,0.0566
823.00,0.0571
822.00,0.0576
821.00,0.0582
820.00,0.0587
819.00,0.0592
818.00,0.0597
817.00,0.0603
816.00,0.0607
815.00,0.0612
814.00,0.0617
813.00,0.0623
812.00,0.0627
811.00,0.0632
810.00,0.0638
809.00,0.0644
808.00,0.0649
807.00,0.0654
806.00,0.0660
805.00,0.0665
804.00,0.0670
803.00,0.0675
802.00,0.0681
801.00,0.0687
800.00,0.0692
799.00,0.0697
798.00,0.0703
797.00,0.0709
796.00,0.0715
795.00,0.0720
794.00,0.0725
793.00,0.0731
792.00,0.0736
791.00,0.0742
790.00,0.0749
789.00,0.0755
788.00,0.0760
787.00,0.0766
786.00,0.0772
785.00,0.0778
784.00,0.0783
783.00,0.0789
782.00,0.0795
781.00,0.0800
780.00,0.0805
779.00,0.0811
778.00,0.0816
777.00,0.0822
776.00,0.0828
775.00,0.0833
774.00,0.0839
773.00,0.0845
772.00,0.0851
771.00,0.0857
770.00,0.0863
769.00,0.0869
768.00,0.0875
767.00,0.0880
766.00,0.0886
765.00,0.0892
764.00,0.0897
763.00,0.0903
762.00,0.0908
761.00,0.0914
760.00,0.0919
759.00,0.0925
758.00,0.0932
757.00,0.0938
756.00,0.0943
755.00,0.0949
754.00,0.0955
753.00,0.0961
752.00,0.0967
751.00,0.0973
750.00,0.0979
749.00,0.0985
748.00,0.0990
747.00,0.0996
746.00,0.1002
745.00,0.1008
744.00,0.1014
743.00,0.1020
742.00,0.1026
741.00,0.1032
740.00,0.1037
739.00,0.1041
738.00,0.1047
737.00,0.1053
736.00,0.1059
735.00,0.1065
734.00,0.1071
733.00,0.1078
732.00,0.1084
731.00,0.1090
730.00,0.1096
729.00,0.1102
728.00,0.1107
727.00,0.1113
726.00,0.1119
725.00,0.1125
724.00,0.1130
723.00,0.1135
722.00,0.1141
721.00,0.1147
720.00,0.1153
719.00,0.1159
718.00,0.1166
717.00,0.1172
716.00,0.1177
715.00,0.1182
714.00,0.1188
713.00,0.1194
712.00,0.1200
711.00,0.1206
710.00,0.1213
709.00,0.1219
708.00,0.1225
707.00,0.1230
706.00,0.1236
705.00,0.1242
704.00,0.1248
703.00,0.1254
702.00,0.1260
701.00,0.1266
700.00,0.1270
699.00,0.1276
698.00,0.1282
697.00,0.1288
696.00,0.1293
695.00,0.1298
694.00,0.1304
693.00,0.1309
692.00,0.1313
691.00,0.1318
690.00,0.1324
689.00,0.1331
688.00,0.1337
687.00,0.1343
686.00,0.1348
685.00,0.1353
684.00,0.1357
683.00,0.1362
682.00,0.1368
681.00,0.1374
680.00,0.1379
679.00,0.1384
678.00,0.1389
677.00,0.1394
676.00,0.1399
675.00,0.1404
674.00,0.1410
673.00,0.1415
672.00,0.1419
671.00,0.1421
670.00,0.1423
669.00,0.1428
668.00,0.1435
667.00,0.1445
666.00,0.1451
665.00,0.1453
664.00,0.1455
663.00,0.1458
662.00,0.1462
661.00,0.1467
660.00,0.1470
659.00,0.1474
658.00,0.1478
657.00,0.1483
656.00,0.1486
655.00,0.1489
654.00,0.1493
653.00,0.1496
652.00,0.1498
651.00,0.1501
650.00,0.1504
649.00,0.1507
648.00,0.1510
647.00,0.1513
646.00,0.1516
645.00,0.1520
644.00,0.1522
643.00,0.1524
642.00,0.1527
641.00,0.1529
640.00,0.1531
639.00,0.1533
638.00,0.1536
637.00,0.1538
636.00,0.1539
635.00,0.1540
634.00,0.1542
633.00,0.1544
632.00,0.1546
631.00,0.1547
630.00,0.1549
629.00,0.1550
628.00,0.1551
627.00,0.1553
626.00,0.1554
625.00,0.1555
624.00,0.1555
623.00,0.1555
622.00,0.1557
621.00,0.1558
620.00,0.1556
619.00,0.1554
618.00,0.1554
617.00,0.1555
616.00,0.1554
615.00,0.1553
614.00,0.1553
613.00,0.1552
612.00,0.1551
611.00,0.1551
610.00,0.1551
609.00,0.1550
608.00,0.1548
607.00,0.1546
606.00,0.1546
605.00,0.1545
604.00,0.1543
603.00,0.1542
602.00,0.1541
601.00,0.1540
600.00,0.1537
599.00,0.1535
598.00,0.1535
597.00,0.1534
596.00,0.1532
595.00,0.1529
594.00,0.1527
593.00,0.1525
592.00,0.1522
591.00,0.1519
590.00,0.1517
589.00,0.1515
588.00,0.1512
587.00,0.1510
586.00,0.1509
585.00,0.1506
584.00,0.1501
583.00,0.1496
582.00,0.1492
581.00,0.1489
580.00,0.1485
579.00,0.1482
578.00,0.1480
577.00,0.1478
576.00,0.1475
575.00,0.1471
574.00,0.1469
573.00,0.1466
572.00,0.1462
571.00,0.1458
570.00,0.1457
569.00,0.1456
568.00,0.1454
567.00,0.1451
566.00,0.1449
565.00,0.1444
564.00,0.1438
563.00,0.1432
562.00,0.1430
561.00,0.1427
560.00,0.1422
559.00,0.1417
558.00,0.1413
557.00,0.1410
556.00,0.1404
555.00,0.1399
554.00,0.1396
553.00,0.1393
552.00,0.1388
551.00,0.1383
550.00,0.1380
549.00,0.1377
548.00,0.1372
547.00,0.1368
546.00,0.1365
545.00,0.1360
544.00,0.1354
543.00,0.1349
542.00,0.1346
541.00,0.1343
540.00,0.1338
539.00,0.1333
538.00,0.1330
537.00,0.1326
536.00,0.1320
535.00,0.1315
534.00,0.1312
533.00,0.1308
532.00,0.1303
531.00,0.1299
530.00,0.1296
529.00,0.1293
528.00,0.1286
527.00,0.1279
526.00,0.1274
525.00,0.1269
524.00,0.1263
523.00,0.1257
522.00,0.1252
521.00,0.1248
520.00,0.1241
519.00,0.1237
518.00,0.1235
517.00,0.1233
516.00,0.1228
515.00,0.1223
514.00,0.1221
513.00,0.1218
512.00,0.1212
511.00,0.1206
510.00,0.1204
509.00,0.1201
508.00,0.1195
507.00,0.1189
506.00,0.1185
505.00,0.1181
504.00,0.1174
503.00,0.1167
502.00,0.1162
501.00,0.1158
500.00,0.1152
499.00,0.1147
498.00,0.1144
497.00,0.1140
496.00,0.1132
495.00,0.1125
494.00,0.1123
493.00,0.1122
492.00,0.1118
491.00,0.1113
490.00,0.1110
489.00,0.1107
488.00,0.1101
487.00,0.1097
486.00,0.1095
485.00,0.1092
484.00,0.1084
483.00,0.1079
482.00,0.1077
481.00,0.1075
480.00,0.1068
479.00,0.1058
478.00,0.1053
477.00,0.1050
476.00,0.1045
475.00,0.1040
474.00,0.1037
473.00,0.1033
472.00,0.1025
471.00,0.1019
470.00,0.1018
469.00,0.1016
468.00,0.1009
467.00,0.1002
466.00,0.1000
465.00,0.0998
464.00,0.0990
463.00,0.0981
462.00,0.0977
461.00,0.0973
460.00,0.0963
459.00,0.0954
458.00,0.0951
457.00,0.0950
456.00,0.0947
455.00,0.0945
454.00,0.0947
453.00,0.0946
452.00,0.0937
451.00,0.0928
450.00,0.0924
449.00,0.0922
448.00,0.0916
447.00,0.0911
446.00,0.0909
445.00,0.0905
444.00,0.0897
443.00,0.0891
442.00,0.0892
441.00,0.0892
440.00,0.0887
439.00,0.0883
438.00,0.0885
437.00,0.0887
436.00,0.0883
435.00,0.0877
434.00,0.0874
433.00,0.0868
432.00,0.0858
431.00,0.0853
430.00,0.0856
429.00,0.0854
428.00,0.0842
427.00,0.0830
426.00,0.0827
425.00,0.0825
424.00,0.0815
423.00,0.0804
422.00,0.0803
421.00,0.0802
420.00,0.0790
419.00,0.0785
418.00,0.0800
417.00,0.0811
416.00,0.0807
415.00,0.0802
414.00,0.0805
413.00,0.0806
412.00,0.0792
411.00,0.0776
410.00,0.0769
409.00,0.0762
408.00,0.0748
407.00,0.0739
406.00,0.0746
405.00,0.0751
404.00,0.0740
403.00,0.0731
402.00,0.0739
401.00,0.0748
400.00,0.0741
