Created as New Dataset,Sample 086 By YargerLab Date Thursday, August 14 2025
cm-1,A
4000.00,0.0057
3999.00,0.0057
3998.00,0.0057
3997.00,0.0057
3996.00,0.0057
3995.00,0.0057
3994.00,0.0057
3993.00,0.0056
3992.00,0.0056
3991.00,0.0056
3990.00,0.0056
3989.00,0.0056
3988.00,0.0056
3987.00,0.0056
3986.00,0.0056
3985.00,0.0056
3984.00,0.0056
3983.00,0.0056
3982.00,0.0056
3981.00,0.0057
3980.00,0.0057
3979.00,0.0057
3978.00,0.0057
3977.00,0.0057
3976.00,0.0057
3975.00,0.0057
3974.00,0.0057
3973.00,0.0057
3972.00,0.0057
3971.00,0.0057
3970.00,0.0057
3969.00,0.0057
3968.00,0.0057
3967.00,0.0057
3966.00,0.0057
3965.00,0.0057
3964.00,0.0057
3963.00,0.0057
3962.00,0.0057
3961.00,0.0057
3960.00,0.0057
3959.00,0.0057
3958.00,0.0057
3957.00,0.0057
3956.00,0.0057
3955.00,0.0056
3954.00,0.0056
3953.00,0.0056
3952.00,0.0056
3951.00,0.0056
3950.00,0.0056
3949.00,0.0056
3948.00,0.0056
3947.00,0.0056
3946.00,0.0056
3945.00,0.0056
3944.00,0.0056
3943.00,0.0056
3942.00,0.0056
3941.00,0.0056
3940.00,0.0056
3939.00,0.0056
3938.00,0.0056
3937.00,0.0056
3936.00,0.0056
3935.00,0.0056
3934.00,0.0055
3933.00,0.0055
3932.00,0.0055
3931.00,0.0056
3930.00,0.0056
3929.00,0.0056
3928.00,0.0055
3927.00,0.0055
3926.00,0.0055
3925.00,0.0056
3924.00,0.0056
3923.00,0.0056
3922.00,0.0056
3921.00,0.0056
3920.00,0.0056
3919.00,0.0056
3918.00,0.0056
3917.00,0.0056
3916.00,0.0056
3915.00,0.0056
3914.00,0.0056
3913.00,0.0056
3912.00,0.0056
3911.00,0.0056
3910.00,0.0056
3909.00,0.0056
3908.00,0.0055
3907.00,0.0055
3906.00,0.0055
3905.00,0.0055
3904.00,0.0055
3903.00,0.0055
3902.00,0.0055
3901.00,0.0055
3900.00,0.0055
3899.00,0.0055
3898.00,0.0055
3897.00,0.0055
3896.00,0.0055
3895.00,0.0055
3894.00,0.0055
3893.00,0.0055
3892.00,0.0055
3891.00,0.0055
3890.00,0.0055
3889.00,0.0055
3888.00,0.0055
3887.00,0.0055
3886.00,0.0055
3885.00,0.0055
3884.00,0.0055
3883.00,0.0055
3882.00,0.0054
3881.00,0.0054
3880.00,0.0055
3879.00,0.0055
3878.00,0.0055
3877.00,0.0055
3876.00,0.0054
3875.00,0.0054
3874.00,0.0054
3873.00,0.0055
3872.00,0.0054
3871.00,0.0054
3870.00,0.0054
3869.00,0.0054
3868.00,0.0054
3867.00,0.0054
3866.00,0.0054
3865.00,0.0054
3864.00,0.0055
3863.00,0.0055
3862.00,0.0055
3861.00,0.0054
3860.00,0.0054
3859.00,0.0055
3858.00,0.0055
3857.00,0.0055
3856.00,0.0054
3855.00,0.0054
3854.00,0.0054
3853.00,0.0054
3852.00,0.0054
3851.00,0.0054
3850.00,0.0055
3849.00,0.0055
3848.00,0.0055
3847.00,0.0055
3846.00,0.0055
3845.00,0.0055
3844.00,0.0055
3843.00,0.0055
3842.00,0.0055
3841.00,0.0055
3840.00,0.0055
3839.00,0.0054
3838.00,0.0054
3837.00,0.0054
3836.00,0.0054
3835.00,0.0054
3834.00,0.0054
3833.00,0.0054
3832.00,0.0054
3831.00,0.0055
3830.00,0.0055
3829.00,0.0055
3828.00,0.0055
3827.00,0.0055
3826.00,0.0055
3825.00,0.0055
3824.00,0.0055
3823.00,0.0055
3822.00,0.0054
3821.00,0.0055
3820.00,0.0055
3819.00,0.0054
3818.00,0.0054
3817.00,0.0054
3816.00,0.0055
3815.00,0.0055
3814.00,0.0055
3813.00,0.0055
3812.00,0.0055
3811.00,0.0055
3810.00,0.0055
3809.00,0.0055
3808.00,0.0055
3807.00,0.0055
3806.00,0.0055
3805.00,0.0055
3804.00,0.0055
3803.00,0.0054
3802.00,0.0054
3801.00,0.0055
3800.00,0.0055
3799.00,0.0054
3798.00,0.0054
3797.00,0.0054
3796.00,0.0054
3795.00,0.0054
3794.00,0.0055
3793.00,0.0055
3792.00,0.0055
3791.00,0.0055
3790.00,0.0055
3789.00,0.0055
3788.00,0.0055
3787.00,0.0055
3786.00,0.0055
3785.00,0.0055
3784.00,0.0055
3783.00,0.0055
3782.00,0.0055
3781.00,0.0055
3780.00,0.0055
3779.00,0.0055
3778.00,0.0055
3777.00,0.0055
3776.00,0.0055
3775.00,0.0055
3774.00,0.0055
3773.00,0.0055
3772.00,0.0055
3771.00,0.0055
3770.00,0.0055
3769.00,0.0055
3768.00,0.0055
3767.00,0.0054
3766.00,0.0054
3765.00,0.0055
3764.00,0.0055
3763.00,0.0055
3762.00,0.0055
3761.00,0.0055
3760.00,0.0055
3759.00,0.0055
3758.00,0.0055
3757.00,0.0055
3756.00,0.0055
3755.00,0.0055
3754.00,0.0054
3753.00,0.0054
3752.00,0.0055
3751.00,0.0055
3750.00,0.0055
3749.00,0.0055
3748.00,0.0055
3747.00,0.0054
3746.00,0.0054
3745.00,0.0054
3744.00,0.0055
3743.00,0.0054
3742.00,0.0054
3741.00,0.0054
3740.00,0.0054
3739.00,0.0054
3738.00,0.0054
3737.00,0.0054
3736.00,0.0054
3735.00,0.0054
3734.00,0.0054
3733.00,0.0053
3732.00,0.0054
3731.00,0.0054
3730.00,0.0054
3729.00,0.0054
3728.00,0.0054
3727.00,0.0054
3726.00,0.0054
3725.00,0.0054
3724.00,0.0053
3723.00,0.0053
3722.00,0.0054
3721.00,0.0054
3720.00,0.0054
3719.00,0.0054
3718.00,0.0054
3717.00,0.0054
3716.00,0.0054
3715.00,0.0054
3714.00,0.0054
3713.00,0.0054
3712.00,0.0054
3711.00,0.0053
3710.00,0.0053
3709.00,0.0052
3708.00,0.0052
3707.00,0.0053
3706.00,0.0053
3705.00,0.0053
3704.00,0.0053
3703.00,0.0053
3702.00,0.0053
3701.00,0.0053
3700.00,0.0053
3699.00,0.0053
3698.00,0.0053
3697.00,0.0053
3696.00,0.0053
3695.00,0.0054
3694.00,0.0054
3693.00,0.0054
3692.00,0.0054
3691.00,0.0054
3690.00,0.0054
3689.00,0.0054
3688.00,0.0054
3687.00,0.0054
3686.00,0.0055
3685.00,0.0055
3684.00,0.0055
3683.00,0.0056
3682.00,0.0056
3681.00,0.0057
3680.00,0.0057
3679.00,0.0057
3678.00,0.0056
3677.00,0.0056
3676.00,0.0056
3675.00,0.0057
3674.00,0.0057
3673.00,0.0057
3672.00,0.0057
3671.00,0.0057
3670.00,0.0057
3669.00,0.0058
3668.00,0.0058
3667.00,0.0058
3666.00,0.0059
3665.00,0.0059
3664.00,0.0059
3663.00,0.0060
3662.00,0.0060
3661.00,0.0060
3660.00,0.0060
3659.00,0.0060
3658.00,0.0060
3657.00,0.0060
3656.00,0.0060
3655.00,0.0060
3654.00,0.0060
3653.00,0.0060
3652.00,0.0060
3651.00,0.0060
3650.00,0.0061
3649.00,0.0061
3648.00,0.0061
3647.00,0.0061
3646.00,0.0062
3645.00,0.0063
3644.00,0.0063
3643.00,0.0064
3642.00,0.0064
3641.00,0.0065
3640.00,0.0065
3639.00,0.0065
3638.00,0.0065
3637.00,0.0066
3636.00,0.0066
3635.00,0.0066
3634.00,0.0067
3633.00,0.0067
3632.00,0.0067
3631.00,0.0067
3630.00,0.0067
3629.00,0.0068
3628.00,0.0068
3627.00,0.0068
3626.00,0.0069
3625.00,0.0069
3624.00,0.0070
3623.00,0.0071
3622.00,0.0071
3621.00,0.0072
3620.00,0.0073
3619.00,0.0073
3618.00,0.0074
3617.00,0.0074
3616.00,0.0075
3615.00,0.0075
3614.00,0.0075
3613.00,0.0076
3612.00,0.0077
3611.00,0.0077
3610.00,0.0078
3609.00,0.0078
3608.00,0.0078
3607.00,0.0079
3606.00,0.0080
3605.00,0.0080
3604.00,0.0081
3603.00,0.0082
3602.00,0.0082
3601.00,0.0083
3600.00,0.0083
3599.00,0.0084
3598.00,0.0085
3597.00,0.0085
3596.00,0.0086
3595.00,0.0087
3594.00,0.0087
3593.00,0.0088
3592.00,0.0089
3591.00,0.0089
3590.00,0.0089
3589.00,0.0090
3588.00,0.0090
3587.00,0.0091
3586.00,0.0092
3585.00,0.0093
3584.00,0.0095
3583.00,0.0096
3582.00,0.0096
3581.00,0.0097
3580.00,0.0098
3579.00,0.0098
3578.00,0.0099
3577.00,0.0100
3576.00,0.0101
3575.00,0.0101
3574.00,0.0102
3573.00,0.0103
3572.00,0.0103
3571.00,0.0104
3570.00,0.0105
3569.00,0.0106
3568.00,0.0106
3567.00,0.0107
3566.00,0.0108
3565.00,0.0109
3564.00,0.0110
3563.00,0.0111
3562.00,0.0112
3561.00,0.0113
3560.00,0.0114
3559.00,0.0115
3558.00,0.0116
3557.00,0.0117
3556.00,0.0118
3555.00,0.0119
3554.00,0.0119
3553.00,0.0120
3552.00,0.0120
3551.00,0.0121
3550.00,0.0122
3549.00,0.0123
3548.00,0.0124
3547.00,0.0125
3546.00,0.0126
3545.00,0.0127
3544.00,0.0127
3543.00,0.0128
3542.00,0.0129
3541.00,0.0130
3540.00,0.0130
3539.00,0.0131
3538.00,0.0132
3537.00,0.0133
3536.00,0.0134
3535.00,0.0135
3534.00,0.0136
3533.00,0.0137
3532.00,0.0138
3531.00,0.0138
3530.00,0.0139
3529.00,0.0139
3528.00,0.0140
3527.00,0.0141
3526.00,0.0142
3525.00,0.0143
3524.00,0.0143
3523.00,0.0144
3522.00,0.0145
3521.00,0.0146
3520.00,0.0147
3519.00,0.0147
3518.00,0.0148
3517.00,0.0148
3516.00,0.0149
3515.00,0.0150
3514.00,0.0151
3513.00,0.0152
3512.00,0.0152
3511.00,0.0152
3510.00,0.0153
3509.00,0.0154
3508.00,0.0155
3507.00,0.0156
3506.00,0.0156
3505.00,0.0157
3504.00,0.0158
3503.00,0.0159
3502.00,0.0160
3501.00,0.0161
3500.00,0.0162
3499.00,0.0163
3498.00,0.0163
3497.00,0.0164
3496.00,0.0165
3495.00,0.0166
3494.00,0.0167
3493.00,0.0167
3492.00,0.0168
3491.00,0.0169
3490.00,0.0171
3489.00,0.0172
3488.00,0.0173
3487.00,0.0174
3486.00,0.0175
3485.00,0.0176
3484.00,0.0177
3483.00,0.0178
3482.00,0.0179
3481.00,0.0181
3480.00,0.0182
3479.00,0.0183
3478.00,0.0184
3477.00,0.0185
3476.00,0.0186
3475.00,0.0188
3474.00,0.0189
3473.00,0.0191
3472.00,0.0192
3471.00,0.0194
3470.00,0.0195
3469.00,0.0196
3468.00,0.0197
3467.00,0.0199
3466.00,0.0200
3465.00,0.0202
3464.00,0.0204
3463.00,0.0205
3462.00,0.0207
3461.00,0.0208
3460.00,0.0210
3459.00,0.0211
3458.00,0.0212
3457.00,0.0214
3456.00,0.0215
3455.00,0.0217
3454.00,0.0218
3453.00,0.0220
3452.00,0.0222
3451.00,0.0223
3450.00,0.0225
3449.00,0.0227
3448.00,0.0229
3447.00,0.0231
3446.00,0.0232
3445.00,0.0234
3444.00,0.0236
3443.00,0.0238
3442.00,0.0240
3441.00,0.0242
3440.00,0.0244
3439.00,0.0246
3438.00,0.0248
3437.00,0.0250
3436.00,0.0252
3435.00,0.0255
3434.00,0.0257
3433.00,0.0260
3432.00,0.0262
3431.00,0.0265
3430.00,0.0268
3429.00,0.0270
3428.00,0.0272
3427.00,0.0275
3426.00,0.0277
3425.00,0.0280
3424.00,0.0282
3423.00,0.0285
3422.00,0.0288
3421.00,0.0291
3420.00,0.0293
3419.00,0.0296
3418.00,0.0299
3417.00,0.0301
3416.00,0.0304
3415.00,0.0307
3414.00,0.0310
3413.00,0.0312
3412.00,0.0315
3411.00,0.0317
3410.00,0.0319
3409.00,0.0320
3408.00,0.0322
3407.00,0.0323
3406.00,0.0325
3405.00,0.0326
3404.00,0.0328
3403.00,0.0329
3402.00,0.0330
3401.00,0.0330
3400.00,0.0331
3399.00,0.0331
3398.00,0.0330
3397.00,0.0330
3396.00,0.0329
3395.00,0.0329
3394.00,0.0328
3393.00,0.0328
3392.00,0.0327
3391.00,0.0326
3390.00,0.0325
3389.00,0.0324
3388.00,0.0323
3387.00,0.0322
3386.00,0.0320
3385.00,0.0318
3384.00,0.0317
3383.00,0.0315
3382.00,0.0313
3381.00,0.0311
3380.00,0.0310
3379.00,0.0308
3378.00,0.0306
3377.00,0.0304
3376.00,0.0302
3375.00,0.0300
3374.00,0.0299
3373.00,0.0297
3372.00,0.0295
3371.00,0.0294
3370.00,0.0292
3369.00,0.0290
3368.00,0.0288
3367.00,0.0287
3366.00,0.0285
3365.00,0.0284
3364.00,0.0283
3363.00,0.0281
3362.00,0.0280
3361.00,0.0278
3360.00,0.0277
3359.00,0.0276
3358.00,0.0275
3357.00,0.0273
3356.00,0.0272
3355.00,0.0271
3354.00,0.0270
3353.00,0.0269
3352.00,0.0268
3351.00,0.0267
3350.00,0.0266
3349.00,0.0265
3348.00,0.0264
3347.00,0.0263
3346.00,0.0263
3345.00,0.0262
3344.00,0.0262
3343.00,0.0261
3342.00,0.0261
3341.00,0.0260
3340.00,0.0259
3339.00,0.0259
3338.00,0.0258
3337.00,0.0258
3336.00,0.0258
3335.00,0.0258
3334.00,0.0258
3333.00,0.0258
3332.00,0.0258
3331.00,0.0258
3330.00,0.0258
3329.00,0.0258
3328.00,0.0257
3327.00,0.0257
3326.00,0.0257
3325.00,0.0257
3324.00,0.0257
3323.00,0.0258
3322.00,0.0259
3321.00,0.0259
3320.00,0.0260
3319.00,0.0260
3318.00,0.0261
3317.00,0.0261
3316.00,0.0261
3315.00,0.0261
3314.00,0.0262
3313.00,0.0262
3312.00,0.0262
3311.00,0.0262
3310.00,0.0263
3309.00,0.0263
3308.00,0.0263
3307.00,0.0264
3306.00,0.0265
3305.00,0.0265
3304.00,0.0266
3303.00,0.0267
3302.00,0.0269
3301.00,0.0270
3300.00,0.0270
3299.00,0.0271
3298.00,0.0272
3297.00,0.0272
3296.00,0.0273
3295.00,0.0274
3294.00,0.0275
3293.00,0.0276
3292.00,0.0277
3291.00,0.0278
3290.00,0.0279
3289.00,0.0280
3288.00,0.0281
3287.00,0.0282
3286.00,0.0283
3285.00,0.0284
3284.00,0.0285
3283.00,0.0286
3282.00,0.0287
3281.00,0.0288
3280.00,0.0288
3279.00,0.0289
3278.00,0.0290
3277.00,0.0291
3276.00,0.0292
3275.00,0.0293
3274.00,0.0294
3273.00,0.0294
3272.00,0.0295
3271.00,0.0296
3270.00,0.0297
3269.00,0.0298
3268.00,0.0299
3267.00,0.0300
3266.00,0.0301
3265.00,0.0302
3264.00,0.0303
3263.00,0.0304
3262.00,0.0304
3261.00,0.0305
3260.00,0.0306
3259.00,0.0307
3258.00,0.0308
3257.00,0.0308
3256.00,0.0309
3255.00,0.0311
3254.00,0.0312
3253.00,0.0313
3252.00,0.0314
3251.00,0.0314
3250.00,0.0315
3249.00,0.0315
3248.00,0.0315
3247.00,0.0316
3246.00,0.0317
3245.00,0.0318
3244.00,0.0319
3243.00,0.0320
3242.00,0.0320
3241.00,0.0320
3240.00,0.0320
3239.00,0.0320
3238.00,0.0320
3237.00,0.0320
3236.00,0.0319
3235.00,0.0319
3234.00,0.0319
3233.00,0.0319
3232.00,0.0319
3231.00,0.0319
3230.00,0.0319
3229.00,0.0319
3228.00,0.0319
3227.00,0.0318
3226.00,0.0318
3225.00,0.0318
3224.00,0.0318
3223.00,0.0317
3222.00,0.0316
3221.00,0.0316
3220.00,0.0315
3219.00,0.0314
3218.00,0.0313
3217.00,0.0312
3216.00,0.0311
3215.00,0.0310
3214.00,0.0309
3213.00,0.0308
3212.00,0.0307
3211.00,0.0306
3210.00,0.0305
3209.00,0.0303
3208.00,0.0302
3207.00,0.0300
3206.00,0.0299
3205.00,0.0297
3204.00,0.0296
3203.00,0.0294
3202.00,0.0293
3201.00,0.0291
3200.00,0.0290
3199.00,0.0289
3198.00,0.0287
3197.00,0.0285
3196.00,0.0283
3195.00,0.0282
3194.00,0.0280
3193.00,0.0278
3192.00,0.0276
3191.00,0.0274
3190.00,0.0272
3189.00,0.0271
3188.00,0.0269
3187.00,0.0267
3186.00,0.0265
3185.00,0.0264
3184.00,0.0262
3183.00,0.0260
3182.00,0.0258
3181.00,0.0257
3180.00,0.0255
3179.00,0.0253
3178.00,0.0252
3177.00,0.0250
3176.00,0.0248
3175.00,0.0246
3174.00,0.0244
3173.00,0.0242
3172.00,0.0240
3171.00,0.0238
3170.00,0.0236
3169.00,0.0234
3168.00,0.0232
3167.00,0.0230
3166.00,0.0228
3165.00,0.0226
3164.00,0.0224
3163.00,0.0222
3162.00,0.0220
3161.00,0.0219
3160.00,0.0217
3159.00,0.0215
3158.00,0.0213
3157.00,0.0211
3156.00,0.0209
3155.00,0.0207
3154.00,0.0205
3153.00,0.0203
3152.00,0.0201
3151.00,0.0200
3150.00,0.0199
3149.00,0.0197
3148.00,0.0196
3147.00,0.0194
3146.00,0.0193
3145.00,0.0191
3144.00,0.0189
3143.00,0.0188
3142.00,0.0186
3141.00,0.0184
3140.00,0.0183
3139.00,0.0182
3138.00,0.0180
3137.00,0.0179
3136.00,0.0178
3135.00,0.0176
3134.00,0.0175
3133.00,0.0174
3132.00,0.0173
3131.00,0.0172
3130.00,0.0171
3129.00,0.0170
3128.00,0.0169
3127.00,0.0168
3126.00,0.0167
3125.00,0.0166
3124.00,0.0165
3123.00,0.0164
3122.00,0.0163
3121.00,0.0162
3120.00,0.0161
3119.00,0.0160
3118.00,0.0159
3117.00,0.0158
3116.00,0.0157
3115.00,0.0156
3114.00,0.0154
3113.00,0.0153
3112.00,0.0152
3111.00,0.0150
3110.00,0.0149
3109.00,0.0148
3108.00,0.0147
3107.00,0.0146
3106.00,0.0144
3105.00,0.0144
3104.00,0.0143
3103.00,0.0142
3102.00,0.0141
3101.00,0.0140
3100.00,0.0139
3099.00,0.0138
3098.00,0.0137
3097.00,0.0137
3096.00,0.0137
3095.00,0.0136
3094.00,0.0136
3093.00,0.0136
3092.00,0.0136
3091.00,0.0136
3090.00,0.0137
3089.00,0.0137
3088.00,0.0137
3087.00,0.0137
3086.00,0.0137
3085.00,0.0136
3084.00,0.0136
3083.00,0.0136
3082.00,0.0136
3081.00,0.0135
3080.00,0.0135
3079.00,0.0134
3078.00,0.0134
3077.00,0.0133
3076.00,0.0132
3075.00,0.0132
3074.00,0.0131
3073.00,0.0130
3072.00,0.0130
3071.00,0.0129
3070.00,0.0129
3069.00,0.0129
3068.00,0.0129
3067.00,0.0129
3066.00,0.0128
3065.00,0.0128
3064.00,0.0128
3063.00,0.0128
3062.00,0.0128
3061.00,0.0128
3060.00,0.0128
3059.00,0.0129
3058.00,0.0129
3057.00,0.0129
3056.00,0.0129
3055.00,0.0129
3054.00,0.0129
3053.00,0.0129
3052.00,0.0129
3051.00,0.0129
3050.00,0.0128
3049.00,0.0128
3048.00,0.0127
3047.00,0.0127
3046.00,0.0126
3045.00,0.0126
3044.00,0.0126
3043.00,0.0126
3042.00,0.0126
3041.00,0.0126
3040.00,0.0127
3039.00,0.0128
3038.00,0.0129
3037.00,0.0130
3036.00,0.0132
3035.00,0.0133
3034.00,0.0133
3033.00,0.0134
3032.00,0.0134
3031.00,0.0134
3030.00,0.0134
3029.00,0.0133
3028.00,0.0131
3027.00,0.0130
3026.00,0.0129
3025.00,0.0127
3024.00,0.0126
3023.00,0.0125
3022.00,0.0124
3021.00,0.0123
3020.00,0.0122
3019.00,0.0121
3018.00,0.0121
3017.00,0.0121
3016.00,0.0120
3015.00,0.0120
3014.00,0.0121
3013.00,0.0121
3012.00,0.0122
3011.00,0.0123
3010.00,0.0125
3009.00,0.0126
3008.00,0.0128
3007.00,0.0130
3006.00,0.0133
3005.00,0.0136
3004.00,0.0139
3003.00,0.0143
3002.00,0.0147
3001.00,0.0152
3000.00,0.0157
2999.00,0.0163
2998.00,0.0169
2997.00,0.0175
2996.00,0.0182
2995.00,0.0188
2994.00,0.0194
2993.00,0.0200
2992.00,0.0205
2991.00,0.0209
2990.00,0.0213
2989.00,0.0217
2988.00,0.0222
2987.00,0.0227
2986.00,0.0234
2985.00,0.0241
2984.00,0.0250
2983.00,0.0260
2982.00,0.0271
2981.00,0.0283
2980.00,0.0293
2979.00,0.0301
2978.00,0.0306
2977.00,0.0309
2976.00,0.0312
2975.00,0.0318
2974.00,0.0326
2973.00,0.0338
2972.00,0.0352
2971.00,0.0365
2970.00,0.0375
2969.00,0.0383
2968.00,0.0389
2967.00,0.0393
2966.00,0.0398
2965.00,0.0404
2964.00,0.0412
2963.00,0.0419
2962.00,0.0427
2961.00,0.0432
2960.00,0.0435
2959.00,0.0434
2958.00,0.0430
2957.00,0.0422
2956.00,0.0412
2955.00,0.0400
2954.00,0.0388
2953.00,0.0377
2952.00,0.0367
2951.00,0.0358
2950.00,0.0352
2949.00,0.0347
2948.00,0.0346
2947.00,0.0346
2946.00,0.0348
2945.00,0.0352
2944.00,0.0357
2943.00,0.0363
2942.00,0.0371
2941.00,0.0380
2940.00,0.0391
2939.00,0.0403
2938.00,0.0418
2937.00,0.0436
2936.00,0.0456
2935.00,0.0479
2934.00,0.0503
2933.00,0.0529
2932.00,0.0554
2931.00,0.0579
2930.00,0.0602
2929.00,0.0622
2928.00,0.0637
2927.00,0.0646
2926.00,0.0650
2925.00,0.0648
2924.00,0.0641
2923.00,0.0631
2922.00,0.0618
2921.00,0.0603
2920.00,0.0587
2919.00,0.0569
2918.00,0.0551
2917.00,0.0533
2916.00,0.0516
2915.00,0.0499
2914.00,0.0483
2913.00,0.0468
2912.00,0.0455
2911.00,0.0442
2910.00,0.0430
2909.00,0.0419
2908.00,0.0409
2907.00,0.0399
2906.00,0.0390
2905.00,0.0381
2904.00,0.0373
2903.00,0.0366
2902.00,0.0358
2901.00,0.0351
2900.00,0.0344
2899.00,0.0338
2898.00,0.0332
2897.00,0.0326
2896.00,0.0321
2895.00,0.0316
2894.00,0.0312
2893.00,0.0308
2892.00,0.0304
2891.00,0.0300
2890.00,0.0296
2889.00,0.0293
2888.00,0.0290
2887.00,0.0286
2886.00,0.0283
2885.00,0.0281
2884.00,0.0279
2883.00,0.0278
2882.00,0.0278
2881.00,0.0279
2880.00,0.0282
2879.00,0.0286
2878.00,0.0292
2877.00,0.0299
2876.00,0.0307
2875.00,0.0315
2874.00,0.0322
2873.00,0.0327
2872.00,0.0330
2871.00,0.0330
2870.00,0.0329
2869.00,0.0327
2868.00,0.0325
2867.00,0.0325
2866.00,0.0326
2865.00,0.0331
2864.00,0.0340
2863.00,0.0352
2862.00,0.0368
2861.00,0.0387
2860.00,0.0407
2859.00,0.0426
2858.00,0.0443
2857.00,0.0456
2856.00,0.0464
2855.00,0.0467
2854.00,0.0467
2853.00,0.0463
2852.00,0.0456
2851.00,0.0444
2850.00,0.0428
2849.00,0.0408
2848.00,0.0386
2847.00,0.0363
2846.00,0.0341
2845.00,0.0320
2844.00,0.0300
2843.00,0.0283
2842.00,0.0267
2841.00,0.0253
2840.00,0.0240
2839.00,0.0230
2838.00,0.0221
2837.00,0.0212
2836.00,0.0205
2835.00,0.0199
2834.00,0.0193
2833.00,0.0188
2832.00,0.0183
2831.00,0.0179
2830.00,0.0175
2829.00,0.0171
2828.00,0.0167
2827.00,0.0164
2826.00,0.0161
2825.00,0.0158
2824.00,0.0155
2823.00,0.0152
2822.00,0.0149
2821.00,0.0147
2820.00,0.0145
2819.00,0.0143
2818.00,0.0141
2817.00,0.0139
2816.00,0.0138
2815.00,0.0136
2814.00,0.0135
2813.00,0.0134
2812.00,0.0132
2811.00,0.0131
2810.00,0.0129
2809.00,0.0128
2808.00,0.0127
2807.00,0.0126
2806.00,0.0126
2805.00,0.0125
2804.00,0.0124
2803.00,0.0123
2802.00,0.0122
2801.00,0.0121
2800.00,0.0120
2799.00,0.0119
2798.00,0.0118
2797.00,0.0117
2796.00,0.0117
2795.00,0.0116
2794.00,0.0115
2793.00,0.0115
2792.00,0.0114
2791.00,0.0113
2790.00,0.0112
2789.00,0.0111
2788.00,0.0110
2787.00,0.0110
2786.00,0.0110
2785.00,0.0109
2784.00,0.0109
2783.00,0.0108
2782.00,0.0107
2781.00,0.0107
2780.00,0.0106
2779.00,0.0106
2778.00,0.0105
2777.00,0.0105
2776.00,0.0104
2775.00,0.0104
2774.00,0.0103
2773.00,0.0103
2772.00,0.0103
2771.00,0.0103
2770.00,0.0103
2769.00,0.0102
2768.00,0.0102
2767.00,0.0102
2766.00,0.0102
2765.00,0.0102
2764.00,0.0102
2763.00,0.0102
2762.00,0.0102
2761.00,0.0102
2760.00,0.0101
2759.00,0.0101
2758.00,0.0101
2757.00,0.0101
2756.00,0.0101
2755.00,0.0101
2754.00,0.0101
2753.00,0.0101
2752.00,0.0101
2751.00,0.0101
2750.00,0.0101
2749.00,0.0101
2748.00,0.0102
2747.00,0.0102
2746.00,0.0102
2745.00,0.0102
2744.00,0.0102
2743.00,0.0103
2742.00,0.0103
2741.00,0.0103
2740.00,0.0104
2739.00,0.0105
2738.00,0.0105
2737.00,0.0106
2736.00,0.0106
2735.00,0.0107
2734.00,0.0108
2733.00,0.0108
2732.00,0.0109
2731.00,0.0110
2730.00,0.0110
2729.00,0.0110
2728.00,0.0110
2727.00,0.0109
2726.00,0.0109
2725.00,0.0108
2724.00,0.0108
2723.00,0.0107
2722.00,0.0107
2721.00,0.0106
2720.00,0.0105
2719.00,0.0105
2718.00,0.0104
2717.00,0.0104
2716.00,0.0104
2715.00,0.0103
2714.00,0.0103
2713.00,0.0103
2712.00,0.0102
2711.00,0.0102
2710.00,0.0102
2709.00,0.0102
2708.00,0.0102
2707.00,0.0102
2706.00,0.0102
2705.00,0.0101
2704.00,0.0101
2703.00,0.0101
2702.00,0.0101
2701.00,0.0101
2700.00,0.0101
2699.00,0.0100
2698.00,0.0100
2697.00,0.0100
2696.00,0.0099
2695.00,0.0099
2694.00,0.0098
2693.00,0.0098
2692.00,0.0098
2691.00,0.0097
2690.00,0.0097
2689.00,0.0097
2688.00,0.0097
2687.00,0.0096
2686.00,0.0096
2685.00,0.0095
2684.00,0.0095
2683.00,0.0095
2682.00,0.0095
2681.00,0.0095
2680.00,0.0095
2679.00,0.0095
2678.00,0.0095
2677.00,0.0095
2676.00,0.0095
2675.00,0.0095
2674.00,0.0095
2673.00,0.0095
2672.00,0.0095
2671.00,0.0096
2670.00,0.0096
2669.00,0.0096
2668.00,0.0097
2667.00,0.0097
2666.00,0.0097
2665.00,0.0098
2664.00,0.0099
2663.00,0.0100
2662.00,0.0100
2661.00,0.0101
2660.00,0.0101
2659.00,0.0101
2658.00,0.0101
2657.00,0.0101
2656.00,0.0101
2655.00,0.0101
2654.00,0.0101
2653.00,0.0101
2652.00,0.0101
2651.00,0.0101
2650.00,0.0101
2649.00,0.0101
2648.00,0.0101
2647.00,0.0102
2646.00,0.0102
2645.00,0.0101
2644.00,0.0101
2643.00,0.0101
2642.00,0.0101
2641.00,0.0101
2640.00,0.0100
2639.00,0.0099
2638.00,0.0099
2637.00,0.0099
2636.00,0.0098
2635.00,0.0098
2634.00,0.0097
2633.00,0.0097
2632.00,0.0096
2631.00,0.0096
2630.00,0.0095
2629.00,0.0094
2628.00,0.0094
2627.00,0.0094
2626.00,0.0093
2625.00,0.0093
2624.00,0.0093
2623.00,0.0093
2622.00,0.0092
2621.00,0.0092
2620.00,0.0091
2619.00,0.0091
2618.00,0.0091
2617.00,0.0091
2616.00,0.0091
2615.00,0.0091
2614.00,0.0091
2613.00,0.0091
2612.00,0.0091
2611.00,0.0091
2610.00,0.0090
2609.00,0.0090
2608.00,0.0090
2607.00,0.0091
2606.00,0.0091
2605.00,0.0091
2604.00,0.0091
2603.00,0.0091
2602.00,0.0091
2601.00,0.0091
2600.00,0.0092
2599.00,0.0092
2598.00,0.0092
2597.00,0.0093
2596.00,0.0093
2595.00,0.0093
2594.00,0.0093
2593.00,0.0093
2592.00,0.0093
2591.00,0.0093
2590.00,0.0093
2589.00,0.0093
2588.00,0.0093
2587.00,0.0092
2586.00,0.0092
2585.00,0.0093
2584.00,0.0093
2583.00,0.0093
2582.00,0.0093
2581.00,0.0092
2580.00,0.0092
2579.00,0.0091
2578.00,0.0091
2577.00,0.0091
2576.00,0.0091
2575.00,0.0090
2574.00,0.0090
2573.00,0.0090
2572.00,0.0090
2571.00,0.0090
2570.00,0.0090
2569.00,0.0090
2568.00,0.0091
2567.00,0.0090
2566.00,0.0090
2565.00,0.0090
2564.00,0.0090
2563.00,0.0090
2562.00,0.0089
2561.00,0.0088
2560.00,0.0088
2559.00,0.0087
2558.00,0.0087
2557.00,0.0086
2556.00,0.0086
2555.00,0.0086
2554.00,0.0085
2553.00,0.0085
2552.00,0.0085
2551.00,0.0084
2550.00,0.0084
2549.00,0.0084
2548.00,0.0084
2547.00,0.0084
2546.00,0.0084
2545.00,0.0084
2544.00,0.0084
2543.00,0.0084
2542.00,0.0084
2541.00,0.0084
2540.00,0.0085
2539.00,0.0085
2538.00,0.0085
2537.00,0.0086
2536.00,0.0086
2535.00,0.0086
2534.00,0.0085
2533.00,0.0085
2532.00,0.0085
2531.00,0.0084
2530.00,0.0084
2529.00,0.0084
2528.00,0.0084
2527.00,0.0084
2526.00,0.0084
2525.00,0.0083
2524.00,0.0082
2523.00,0.0082
2522.00,0.0081
2521.00,0.0081
2520.00,0.0081
2519.00,0.0081
2518.00,0.0081
2517.00,0.0080
2516.00,0.0080
2515.00,0.0080
2514.00,0.0080
2513.00,0.0080
2512.00,0.0080
2511.00,0.0080
2510.00,0.0080
2509.00,0.0080
2508.00,0.0079
2507.00,0.0079
2506.00,0.0079
2505.00,0.0079
2504.00,0.0079
2503.00,0.0079
2502.00,0.0078
2501.00,0.0078
2500.00,0.0077
2499.00,0.0077
2498.00,0.0077
2497.00,0.0076
2496.00,0.0076
2495.00,0.0077
2494.00,0.0077
2493.00,0.0077
2492.00,0.0077
2491.00,0.0076
2490.00,0.0076
2489.00,0.0076
2488.00,0.0076
2487.00,0.0076
2486.00,0.0076
2485.00,0.0075
2484.00,0.0075
2483.00,0.0075
2482.00,0.0075
2481.00,0.0075
2480.00,0.0075
2479.00,0.0075
2478.00,0.0075
2477.00,0.0075
2476.00,0.0075
2475.00,0.0075
2474.00,0.0074
2473.00,0.0074
2472.00,0.0074
2471.00,0.0073
2470.00,0.0073
2469.00,0.0074
2468.00,0.0074
2467.00,0.0074
2466.00,0.0073
2465.00,0.0073
2464.00,0.0073
2463.00,0.0073
2462.00,0.0073
2461.00,0.0073
2460.00,0.0073
2459.00,0.0074
2458.00,0.0074
2457.00,0.0074
2456.00,0.0074
2455.00,0.0074
2454.00,0.0075
2453.00,0.0075
2452.00,0.0075
2451.00,0.0075
2450.00,0.0074
2449.00,0.0074
2448.00,0.0074
2447.00,0.0074
2446.00,0.0073
2445.00,0.0073
2444.00,0.0073
2443.00,0.0073
2442.00,0.0073
2441.00,0.0073
2440.00,0.0072
2439.00,0.0072
2438.00,0.0072
2437.00,0.0072
2436.00,0.0072
2435.00,0.0072
2434.00,0.0072
2433.00,0.0072
2432.00,0.0072
2431.00,0.0072
2430.00,0.0072
2429.00,0.0071
2428.00,0.0071
2427.00,0.0071
2426.00,0.0071
2425.00,0.0071
2424.00,0.0071
2423.00,0.0070
2422.00,0.0070
2421.00,0.0070
2420.00,0.0070
2419.00,0.0070
2418.00,0.0070
2417.00,0.0070
2416.00,0.0070
2415.00,0.0070
2414.00,0.0070
2413.00,0.0070
2412.00,0.0070
2411.00,0.0071
2410.00,0.0071
2409.00,0.0071
2408.00,0.0070
2407.00,0.0070
2406.00,0.0070
2405.00,0.0070
2404.00,0.0070
2403.00,0.0070
2402.00,0.0070
2401.00,0.0070
2400.00,0.0070
2399.00,0.0070
2398.00,0.0070
2397.00,0.0069
2396.00,0.0069
2395.00,0.0069
2394.00,0.0069
2393.00,0.0069
2392.00,0.0069
2391.00,0.0069
2390.00,0.0069
2389.00,0.0069
2388.00,0.0069
2387.00,0.0069
2386.00,0.0068
2385.00,0.0068
2384.00,0.0068
2383.00,0.0067
2382.00,0.0067
2381.00,0.0067
2380.00,0.0067
2379.00,0.0066
2378.00,0.0066
2377.00,0.0066
2376.00,0.0067
2375.00,0.0067
2374.00,0.0067
2373.00,0.0067
2372.00,0.0067
2371.00,0.0067
2370.00,0.0067
2369.00,0.0067
2368.00,0.0067
2367.00,0.0067
2366.00,0.0067
2365.00,0.0067
2364.00,0.0067
2363.00,0.0067
2362.00,0.0067
2361.00,0.0068
2360.00,0.0068
2359.00,0.0068
2358.00,0.0068
2357.00,0.0068
2356.00,0.0068
2355.00,0.0068
2354.00,0.0067
2353.00,0.0067
2352.00,0.0067
2351.00,0.0067
2350.00,0.0068
2349.00,0.0069
2348.00,0.0069
2347.00,0.0069
2346.00,0.0069
2345.00,0.0069
2344.00,0.0070
2343.00,0.0070
2342.00,0.0070
2341.00,0.0070
2340.00,0.0071
2339.00,0.0071
2338.00,0.0071
2337.00,0.0071
2336.00,0.0071
2335.00,0.0071
2334.00,0.0071
2333.00,0.0070
2332.00,0.0070
2331.00,0.0070
2330.00,0.0070
2329.00,0.0072
2328.00,0.0075
2327.00,0.0079
2326.00,0.0082
2325.00,0.0082
2324.00,0.0081
2323.00,0.0079
2322.00,0.0078
2321.00,0.0077
2320.00,0.0076
2319.00,0.0076
2318.00,0.0075
2317.00,0.0074
2316.00,0.0074
2315.00,0.0073
2314.00,0.0072
2313.00,0.0072
2312.00,0.0072
2311.00,0.0071
2310.00,0.0071
2309.00,0.0071
2308.00,0.0071
2307.00,0.0071
2306.00,0.0071
2305.00,0.0071
2304.00,0.0071
2303.00,0.0071
2302.00,0.0071
2301.00,0.0071
2300.00,0.0072
2299.00,0.0072
2298.00,0.0073
2297.00,0.0073
2296.00,0.0074
2295.00,0.0075
2294.00,0.0076
2293.00,0.0077
2292.00,0.0078
2291.00,0.0079
2290.00,0.0080
2289.00,0.0081
2288.00,0.0081
2287.00,0.0081
2286.00,0.0080
2285.00,0.0079
2284.00,0.0078
2283.00,0.0077
2282.00,0.0076
2281.00,0.0076
2280.00,0.0075
2279.00,0.0075
2278.00,0.0074
2277.00,0.0074
2276.00,0.0073
2275.00,0.0072
2274.00,0.0072
2273.00,0.0071
2272.00,0.0071
2271.00,0.0070
2270.00,0.0069
2269.00,0.0069
2268.00,0.0068
2267.00,0.0068
2266.00,0.0067
2265.00,0.0066
2264.00,0.0066
2263.00,0.0066
2262.00,0.0066
2261.00,0.0067
2260.00,0.0068
2259.00,0.0068
2258.00,0.0067
2257.00,0.0067
2256.00,0.0066
2255.00,0.0065
2254.00,0.0065
2253.00,0.0066
2252.00,0.0066
2251.00,0.0067
2250.00,0.0067
2249.00,0.0067
2248.00,0.0067
2247.00,0.0068
2246.00,0.0068
2245.00,0.0068
2244.00,0.0068
2243.00,0.0068
2242.00,0.0067
2241.00,0.0067
2240.00,0.0067
2239.00,0.0067
2238.00,0.0067
2237.00,0.0067
2236.00,0.0067
2235.00,0.0067
2234.00,0.0066
2233.00,0.0066
2232.00,0.0066
2231.00,0.0066
2230.00,0.0066
2229.00,0.0066
2228.00,0.0066
2227.00,0.0066
2226.00,0.0066
2225.00,0.0065
2224.00,0.0066
2223.00,0.0067
2222.00,0.0067
2221.00,0.0067
2220.00,0.0067
2219.00,0.0066
2218.00,0.0066
2217.00,0.0066
2216.00,0.0066
2215.00,0.0065
2214.00,0.0065
2213.00,0.0065
2212.00,0.0066
2211.00,0.0067
2210.00,0.0066
2209.00,0.0065
2208.00,0.0065
2207.00,0.0065
2206.00,0.0065
2205.00,0.0065
2204.00,0.0065
2203.00,0.0064
2202.00,0.0063
2201.00,0.0064
2200.00,0.0065
2199.00,0.0065
2198.00,0.0065
2197.00,0.0065
2196.00,0.0065
2195.00,0.0066
2194.00,0.0067
2193.00,0.0068
2192.00,0.0068
2191.00,0.0068
2190.00,0.0067
2189.00,0.0068
2188.00,0.0069
2187.00,0.0070
2186.00,0.0069
2185.00,0.0068
2184.00,0.0067
2183.00,0.0065
2182.00,0.0063
2181.00,0.0063
2180.00,0.0063
2179.00,0.0063
2178.00,0.0062
2177.00,0.0061
2176.00,0.0060
2175.00,0.0061
2174.00,0.0062
2173.00,0.0064
2172.00,0.0066
2171.00,0.0068
2170.00,0.0070
2169.00,0.0073
2168.00,0.0076
2167.00,0.0076
2166.00,0.0076
2165.00,0.0076
2164.00,0.0078
2163.00,0.0077
2162.00,0.0072
2161.00,0.0061
2160.00,0.0048
2159.00,0.0037
2158.00,0.0032
2157.00,0.0032
2156.00,0.0036
2155.00,0.0039
2154.00,0.0041
2153.00,0.0043
2152.00,0.0045
2151.00,0.0047
2150.00,0.0047
2149.00,0.0047
2148.00,0.0046
2147.00,0.0046
2146.00,0.0047
2145.00,0.0048
2144.00,0.0049
2143.00,0.0049
2142.00,0.0050
2141.00,0.0049
2140.00,0.0049
2139.00,0.0048
2138.00,0.0046
2137.00,0.0043
2136.00,0.0041
2135.00,0.0040
2134.00,0.0040
2133.00,0.0041
2132.00,0.0044
2131.00,0.0047
2130.00,0.0049
2129.00,0.0050
2128.00,0.0051
2127.00,0.0052
2126.00,0.0053
2125.00,0.0054
2124.00,0.0055
2123.00,0.0056
2122.00,0.0056
2121.00,0.0057
2120.00,0.0058
2119.00,0.0058
2118.00,0.0059
2117.00,0.0060
2116.00,0.0061
2115.00,0.0061
2114.00,0.0061
2113.00,0.0060
2112.00,0.0059
2111.00,0.0059
2110.00,0.0058
2109.00,0.0057
2108.00,0.0057
2107.00,0.0058
2106.00,0.0058
2105.00,0.0059
2104.00,0.0059
2103.00,0.0059
2102.00,0.0059
2101.00,0.0059
2100.00,0.0059
2099.00,0.0059
2098.00,0.0057
2097.00,0.0056
2096.00,0.0054
2095.00,0.0053
2094.00,0.0053
2093.00,0.0054
2092.00,0.0055
2091.00,0.0056
2090.00,0.0057
2089.00,0.0058
2088.00,0.0059
2087.00,0.0060
2086.00,0.0060
2085.00,0.0060
2084.00,0.0061
2083.00,0.0061
2082.00,0.0062
2081.00,0.0062
2080.00,0.0063
2079.00,0.0063
2078.00,0.0063
2077.00,0.0062
2076.00,0.0061
2075.00,0.0060
2074.00,0.0060
2073.00,0.0060
2072.00,0.0060
2071.00,0.0060
2070.00,0.0058
2069.00,0.0057
2068.00,0.0057
2067.00,0.0057
2066.00,0.0057
2065.00,0.0057
2064.00,0.0057
2063.00,0.0058
2062.00,0.0058
2061.00,0.0058
2060.00,0.0058
2059.00,0.0058
2058.00,0.0057
2057.00,0.0057
2056.00,0.0057
2055.00,0.0057
2054.00,0.0059
2053.00,0.0063
2052.00,0.0066
2051.00,0.0065
2050.00,0.0062
2049.00,0.0057
2048.00,0.0054
2047.00,0.0052
2046.00,0.0050
2045.00,0.0050
2044.00,0.0051
2043.00,0.0052
2042.00,0.0053
2041.00,0.0055
2040.00,0.0056
2039.00,0.0057
2038.00,0.0057
2037.00,0.0057
2036.00,0.0056
2035.00,0.0054
2034.00,0.0051
2033.00,0.0049
2032.00,0.0048
2031.00,0.0048
2030.00,0.0047
2029.00,0.0047
2028.00,0.0048
2027.00,0.0049
2026.00,0.0050
2025.00,0.0051
2024.00,0.0054
2023.00,0.0055
2022.00,0.0054
2021.00,0.0052
2020.00,0.0051
2019.00,0.0050
2018.00,0.0050
2017.00,0.0050
2016.00,0.0050
2015.00,0.0050
2014.00,0.0049
2013.00,0.0049
2012.00,0.0048
2011.00,0.0048
2010.00,0.0046
2009.00,0.0045
2008.00,0.0044
2007.00,0.0043
2006.00,0.0042
2005.00,0.0042
2004.00,0.0043
2003.00,0.0044
2002.00,0.0044
2001.00,0.0045
2000.00,0.0047
1999.00,0.0048
1998.00,0.0049
1997.00,0.0050
1996.00,0.0051
1995.00,0.0053
1994.00,0.0054
1993.00,0.0055
1992.00,0.0054
1991.00,0.0053
1990.00,0.0052
1989.00,0.0052
1988.00,0.0054
1987.00,0.0056
1986.00,0.0057
1985.00,0.0059
1984.00,0.0061
1983.00,0.0063
1982.00,0.0064
1981.00,0.0064
1980.00,0.0061
1979.00,0.0056
1978.00,0.0050
1977.00,0.0046
1976.00,0.0046
1975.00,0.0046
1974.00,0.0045
1973.00,0.0044
1972.00,0.0044
1971.00,0.0045
1970.00,0.0045
1969.00,0.0045
1968.00,0.0046
1967.00,0.0046
1966.00,0.0046
1965.00,0.0047
1964.00,0.0048
1963.00,0.0048
1962.00,0.0046
1961.00,0.0044
1960.00,0.0044
1959.00,0.0044
1958.00,0.0045
1957.00,0.0045
1956.00,0.0046
1955.00,0.0046
1954.00,0.0046
1953.00,0.0047
1952.00,0.0049
1951.00,0.0050
1950.00,0.0049
1949.00,0.0048
1948.00,0.0047
1947.00,0.0046
1946.00,0.0045
1945.00,0.0046
1944.00,0.0048
1943.00,0.0048
1942.00,0.0048
1941.00,0.0048
1940.00,0.0049
1939.00,0.0050
1938.00,0.0051
1937.00,0.0051
1936.00,0.0052
1935.00,0.0051
1934.00,0.0050
1933.00,0.0050
1932.00,0.0051
1931.00,0.0052
1930.00,0.0052
1929.00,0.0052
1928.00,0.0052
1927.00,0.0052
1926.00,0.0051
1925.00,0.0052
1924.00,0.0053
1923.00,0.0054
1922.00,0.0054
1921.00,0.0054
1920.00,0.0054
1919.00,0.0054
1918.00,0.0054
1917.00,0.0054
1916.00,0.0055
1915.00,0.0055
1914.00,0.0056
1913.00,0.0058
1912.00,0.0061
1911.00,0.0064
1910.00,0.0068
1909.00,0.0071
1908.00,0.0072
1907.00,0.0072
1906.00,0.0069
1905.00,0.0066
1904.00,0.0063
1903.00,0.0061
1902.00,0.0059
1901.00,0.0059
1900.00,0.0059
1899.00,0.0059
1898.00,0.0060
1897.00,0.0060
1896.00,0.0062
1895.00,0.0063
1894.00,0.0063
1893.00,0.0063
1892.00,0.0062
1891.00,0.0061
1890.00,0.0060
1889.00,0.0058
1888.00,0.0057
1887.00,0.0057
1886.00,0.0057
1885.00,0.0056
1884.00,0.0056
1883.00,0.0056
1882.00,0.0056
1881.00,0.0056
1880.00,0.0057
1879.00,0.0057
1878.00,0.0057
1877.00,0.0057
1876.00,0.0057
1875.00,0.0058
1874.00,0.0057
1873.00,0.0057
1872.00,0.0057
1871.00,0.0057
1870.00,0.0057
1869.00,0.0057
1868.00,0.0057
1867.00,0.0056
1866.00,0.0056
1865.00,0.0057
1864.00,0.0058
1863.00,0.0058
1862.00,0.0058
1861.00,0.0058
1860.00,0.0058
1859.00,0.0058
1858.00,0.0058
1857.00,0.0059
1856.00,0.0059
1855.00,0.0059
1854.00,0.0059
1853.00,0.0059
1852.00,0.0060
1851.00,0.0061
1850.00,0.0061
1849.00,0.0062
1848.00,0.0062
1847.00,0.0063
1846.00,0.0063
1845.00,0.0063
1844.00,0.0063
1843.00,0.0062
1842.00,0.0061
1841.00,0.0060
1840.00,0.0060
1839.00,0.0060
1838.00,0.0060
1837.00,0.0059
1836.00,0.0059
1835.00,0.0058
1834.00,0.0057
1833.00,0.0057
1832.00,0.0057
1831.00,0.0057
1830.00,0.0057
1829.00,0.0057
1828.00,0.0056
1827.00,0.0057
1826.00,0.0057
1825.00,0.0057
1824.00,0.0058
1823.00,0.0058
1822.00,0.0058
1821.00,0.0058
1820.00,0.0057
1819.00,0.0056
1818.00,0.0055
1817.00,0.0055
1816.00,0.0055
1815.00,0.0056
1814.00,0.0057
1813.00,0.0058
1812.00,0.0058
1811.00,0.0059
1810.00,0.0058
1809.00,0.0058
1808.00,0.0059
1807.00,0.0059
1806.00,0.0059
1805.00,0.0059
1804.00,0.0060
1803.00,0.0060
1802.00,0.0060
1801.00,0.0060
1800.00,0.0061
1799.00,0.0062
1798.00,0.0063
1797.00,0.0064
1796.00,0.0065
1795.00,0.0065
1794.00,0.0065
1793.00,0.0064
1792.00,0.0064
1791.00,0.0063
1790.00,0.0063
1789.00,0.0063
1788.00,0.0063
1787.00,0.0064
1786.00,0.0063
1785.00,0.0063
1784.00,0.0063
1783.00,0.0063
1782.00,0.0064
1781.00,0.0065
1780.00,0.0065
1779.00,0.0065
1778.00,0.0066
1777.00,0.0067
1776.00,0.0068
1775.00,0.0070
1774.00,0.0070
1773.00,0.0071
1772.00,0.0070
1771.00,0.0070
1770.00,0.0069
1769.00,0.0069
1768.00,0.0069
1767.00,0.0068
1766.00,0.0068
1765.00,0.0068
1764.00,0.0069
1763.00,0.0070
1762.00,0.0070
1761.00,0.0071
1760.00,0.0072
1759.00,0.0073
1758.00,0.0073
1757.00,0.0072
1756.00,0.0071
1755.00,0.0070
1754.00,0.0070
1753.00,0.0070
1752.00,0.0071
1751.00,0.0071
1750.00,0.0071
1749.00,0.0072
1748.00,0.0073
1747.00,0.0074
1746.00,0.0074
1745.00,0.0075
1744.00,0.0076
1743.00,0.0076
1742.00,0.0076
1741.00,0.0076
1740.00,0.0077
1739.00,0.0077
1738.00,0.0077
1737.00,0.0078
1736.00,0.0080
1735.00,0.0081
1734.00,0.0081
1733.00,0.0082
1732.00,0.0083
1731.00,0.0086
1730.00,0.0087
1729.00,0.0088
1728.00,0.0090
1727.00,0.0092
1726.00,0.0093
1725.00,0.0094
1724.00,0.0096
1723.00,0.0098
1722.00,0.0098
1721.00,0.0099
1720.00,0.0101
1719.00,0.0104
1718.00,0.0105
1717.00,0.0107
1716.00,0.0109
1715.00,0.0112
1714.00,0.0115
1713.00,0.0118
1712.00,0.0122
1711.00,0.0126
1710.00,0.0129
1709.00,0.0133
1708.00,0.0137
1707.00,0.0142
1706.00,0.0147
1705.00,0.0153
1704.00,0.0159
1703.00,0.0165
1702.00,0.0171
1701.00,0.0181
1700.00,0.0197
1699.00,0.0213
1698.00,0.0227
1697.00,0.0244
1696.00,0.0264
1695.00,0.0285
1694.00,0.0304
1693.00,0.0323
1692.00,0.0343
1691.00,0.0364
1690.00,0.0386
1689.00,0.0408
1688.00,0.0428
1687.00,0.0445
1686.00,0.0462
1685.00,0.0482
1684.00,0.0503
1683.00,0.0521
1682.00,0.0536
1681.00,0.0550
1680.00,0.0564
1679.00,0.0575
1678.00,0.0585
1677.00,0.0594
1676.00,0.0605
1675.00,0.0615
1674.00,0.0625
1673.00,0.0634
1672.00,0.0645
1671.00,0.0654
1670.00,0.0662
1669.00,0.0670
1668.00,0.0679
1667.00,0.0688
1666.00,0.0696
1665.00,0.0703
1664.00,0.0710
1663.00,0.0716
1662.00,0.0720
1661.00,0.0723
1660.00,0.0726
1659.00,0.0728
1658.00,0.0729
1657.00,0.0729
1656.00,0.0729
1655.00,0.0728
1654.00,0.0720
1653.00,0.0703
1652.00,0.0690
1651.00,0.0686
1650.00,0.0685
1649.00,0.0682
1648.00,0.0675
1647.00,0.0661
1646.00,0.0644
1645.00,0.0632
1644.00,0.0625
1643.00,0.0619
1642.00,0.0611
1641.00,0.0603
1640.00,0.0594
1639.00,0.0585
1638.00,0.0576
1637.00,0.0564
1636.00,0.0552
1635.00,0.0542
1634.00,0.0540
1633.00,0.0546
1632.00,0.0559
1631.00,0.0578
1630.00,0.0606
1629.00,0.0644
1628.00,0.0692
1627.00,0.0744
1626.00,0.0792
1625.00,0.0835
1624.00,0.0873
1623.00,0.0905
1622.00,0.0923
1621.00,0.0929
1620.00,0.0925
1619.00,0.0910
1618.00,0.0876
1617.00,0.0822
1616.00,0.0765
1615.00,0.0727
1614.00,0.0711
1613.00,0.0709
1612.00,0.0713
1611.00,0.0716
1610.00,0.0713
1609.00,0.0699
1608.00,0.0675
1607.00,0.0644
1606.00,0.0608
1605.00,0.0571
1604.00,0.0534
1603.00,0.0499
1602.00,0.0467
1601.00,0.0438
1600.00,0.0414
1599.00,0.0395
1598.00,0.0379
1597.00,0.0368
1596.00,0.0361
1595.00,0.0360
1594.00,0.0365
1593.00,0.0376
1592.00,0.0396
1591.00,0.0423
1590.00,0.0457
1589.00,0.0495
1588.00,0.0534
1587.00,0.0570
1586.00,0.0601
1585.00,0.0623
1584.00,0.0636
1583.00,0.0640
1582.00,0.0636
1581.00,0.0624
1580.00,0.0610
1579.00,0.0594
1578.00,0.0574
1577.00,0.0545
1576.00,0.0509
1575.00,0.0476
1574.00,0.0453
1573.00,0.0439
1572.00,0.0428
1571.00,0.0418
1570.00,0.0406
1569.00,0.0393
1568.00,0.0381
1567.00,0.0369
1566.00,0.0354
1565.00,0.0335
1564.00,0.0315
1563.00,0.0296
1562.00,0.0281
1561.00,0.0266
1560.00,0.0248
1559.00,0.0225
1558.00,0.0205
1557.00,0.0196
1556.00,0.0194
1555.00,0.0192
1554.00,0.0189
1553.00,0.0186
1552.00,0.0183
1551.00,0.0180
1550.00,0.0177
1549.00,0.0174
1548.00,0.0171
1547.00,0.0169
1546.00,0.0167
1545.00,0.0165
1544.00,0.0162
1543.00,0.0159
1542.00,0.0157
1541.00,0.0154
1540.00,0.0150
1539.00,0.0147
1538.00,0.0145
1537.00,0.0146
1536.00,0.0146
1535.00,0.0146
1534.00,0.0146
1533.00,0.0144
1532.00,0.0143
1531.00,0.0143
1530.00,0.0144
1529.00,0.0144
1528.00,0.0145
1527.00,0.0146
1526.00,0.0147
1525.00,0.0148
1524.00,0.0150
1523.00,0.0153
1522.00,0.0157
1521.00,0.0160
1520.00,0.0163
1519.00,0.0168
1518.00,0.0175
1517.00,0.0182
1516.00,0.0189
1515.00,0.0195
1514.00,0.0202
1513.00,0.0210
1512.00,0.0217
1511.00,0.0223
1510.00,0.0228
1509.00,0.0233
1508.00,0.0237
1507.00,0.0239
1506.00,0.0241
1505.00,0.0246
1504.00,0.0255
1503.00,0.0267
1502.00,0.0283
1501.00,0.0305
1500.00,0.0335
1499.00,0.0375
1498.00,0.0423
1497.00,0.0469
1496.00,0.0498
1495.00,0.0504
1494.00,0.0493
1493.00,0.0472
1492.00,0.0443
1491.00,0.0407
1490.00,0.0369
1489.00,0.0334
1488.00,0.0306
1487.00,0.0282
1486.00,0.0264
1485.00,0.0250
1484.00,0.0238
1483.00,0.0229
1482.00,0.0222
1481.00,0.0216
1480.00,0.0213
1479.00,0.0212
1478.00,0.0212
1477.00,0.0216
1476.00,0.0222
1475.00,0.0229
1474.00,0.0242
1473.00,0.0263
1472.00,0.0294
1471.00,0.0331
1470.00,0.0375
1469.00,0.0423
1468.00,0.0473
1467.00,0.0520
1466.00,0.0558
1465.00,0.0584
1464.00,0.0596
1463.00,0.0600
1462.00,0.0601
1461.00,0.0603
1460.00,0.0603
1459.00,0.0600
1458.00,0.0586
1457.00,0.0561
1456.00,0.0532
1455.00,0.0512
1454.00,0.0500
1453.00,0.0493
1452.00,0.0491
1451.00,0.0492
1450.00,0.0499
1449.00,0.0510
1448.00,0.0525
1447.00,0.0544
1446.00,0.0566
1445.00,0.0592
1444.00,0.0621
1443.00,0.0651
1442.00,0.0679
1441.00,0.0704
1440.00,0.0726
1439.00,0.0743
1438.00,0.0757
1437.00,0.0771
1436.00,0.0786
1435.00,0.0802
1434.00,0.0821
1433.00,0.0841
1432.00,0.0861
1431.00,0.0877
1430.00,0.0890
1429.00,0.0899
1428.00,0.0905
1427.00,0.0906
1426.00,0.0904
1425.00,0.0899
1424.00,0.0888
1423.00,0.0874
1422.00,0.0858
1421.00,0.0839
1420.00,0.0809
1419.00,0.0768
1418.00,0.0723
1417.00,0.0685
1416.00,0.0653
1415.00,0.0625
1414.00,0.0600
1413.00,0.0580
1412.00,0.0567
1411.00,0.0559
1410.00,0.0560
1409.00,0.0569
1408.00,0.0584
1407.00,0.0607
1406.00,0.0636
1405.00,0.0671
1404.00,0.0706
1403.00,0.0736
1402.00,0.0761
1401.00,0.0779
1400.00,0.0787
1399.00,0.0781
1398.00,0.0765
1397.00,0.0741
1396.00,0.0708
1395.00,0.0667
1394.00,0.0625
1393.00,0.0588
1392.00,0.0560
1391.00,0.0540
1390.00,0.0530
1389.00,0.0531
1388.00,0.0543
1387.00,0.0557
1386.00,0.0562
1385.00,0.0555
1384.00,0.0541
1383.00,0.0529
1382.00,0.0524
1381.00,0.0526
1380.00,0.0532
1379.00,0.0536
1378.00,0.0537
1377.00,0.0533
1376.00,0.0521
1375.00,0.0500
1374.00,0.0473
1373.00,0.0448
1372.00,0.0432
1371.00,0.0426
1370.00,0.0433
1369.00,0.0451
1368.00,0.0479
1367.00,0.0511
1366.00,0.0539
1365.00,0.0557
1364.00,0.0567
1363.00,0.0578
1362.00,0.0600
1361.00,0.0630
1360.00,0.0654
1359.00,0.0657
1358.00,0.0637
1357.00,0.0603
1356.00,0.0567
1355.00,0.0538
1354.00,0.0517
1353.00,0.0504
1352.00,0.0496
1351.00,0.0494
1350.00,0.0495
1349.00,0.0498
1348.00,0.0501
1347.00,0.0503
1346.00,0.0500
1345.00,0.0494
1344.00,0.0483
1343.00,0.0470
1342.00,0.0455
1341.00,0.0438
1340.00,0.0420
1339.00,0.0403
1338.00,0.0388
1337.00,0.0380
1336.00,0.0377
1335.00,0.0381
1334.00,0.0389
1333.00,0.0400
1332.00,0.0411
1331.00,0.0422
1330.00,0.0431
1329.00,0.0437
1328.00,0.0440
1327.00,0.0441
1326.00,0.0439
1325.00,0.0437
1324.00,0.0434
1323.00,0.0433
1322.00,0.0432
1321.00,0.0432
1320.00,0.0431
1319.00,0.0428
1318.00,0.0423
1317.00,0.0415
1316.00,0.0406
1315.00,0.0397
1314.00,0.0389
1313.00,0.0383
1312.00,0.0380
1311.00,0.0382
1310.00,0.0389
1309.00,0.0401
1308.00,0.0419
1307.00,0.0441
1306.00,0.0471
1305.00,0.0509
1304.00,0.0553
1303.00,0.0601
1302.00,0.0646
1301.00,0.0682
1300.00,0.0704
1299.00,0.0714
1298.00,0.0717
1297.00,0.0724
1296.00,0.0736
1295.00,0.0754
1294.00,0.0774
1293.00,0.0790
1292.00,0.0802
1291.00,0.0809
1290.00,0.0815
1289.00,0.0824
1288.00,0.0837
1287.00,0.0853
1286.00,0.0871
1285.00,0.0887
1284.00,0.0897
1283.00,0.0898
1282.00,0.0887
1281.00,0.0864
1280.00,0.0833
1279.00,0.0796
1278.00,0.0760
1277.00,0.0728
1276.00,0.0701
1275.00,0.0680
1274.00,0.0661
1273.00,0.0645
1272.00,0.0628
1271.00,0.0610
1270.00,0.0592
1269.00,0.0574
1268.00,0.0555
1267.00,0.0538
1266.00,0.0520
1265.00,0.0503
1264.00,0.0485
1263.00,0.0467
1262.00,0.0449
1261.00,0.0432
1260.00,0.0416
1259.00,0.0402
1258.00,0.0390
1257.00,0.0380
1256.00,0.0372
1255.00,0.0366
1254.00,0.0362
1253.00,0.0360
1252.00,0.0361
1251.00,0.0365
1250.00,0.0374
1249.00,0.0387
1248.00,0.0404
1247.00,0.0425
1246.00,0.0448
1245.00,0.0471
1244.00,0.0492
1243.00,0.0509
1242.00,0.0524
1241.00,0.0538
1240.00,0.0554
1239.00,0.0574
1238.00,0.0601
1237.00,0.0632
1236.00,0.0664
1235.00,0.0692
1234.00,0.0712
1233.00,0.0719
1232.00,0.0713
1231.00,0.0695
1230.00,0.0668
1229.00,0.0637
1228.00,0.0607
1227.00,0.0579
1226.00,0.0555
1225.00,0.0534
1224.00,0.0518
1223.00,0.0506
1222.00,0.0498
1221.00,0.0495
1220.00,0.0497
1219.00,0.0504
1218.00,0.0514
1217.00,0.0527
1216.00,0.0539
1215.00,0.0548
1214.00,0.0551
1213.00,0.0544
1212.00,0.0528
1211.00,0.0505
1210.00,0.0479
1209.00,0.0452
1208.00,0.0429
1207.00,0.0412
1206.00,0.0402
1205.00,0.0401
1204.00,0.0408
1203.00,0.0423
1202.00,0.0447
1201.00,0.0476
1200.00,0.0510
1199.00,0.0549
1198.00,0.0591
1197.00,0.0634
1196.00,0.0675
1195.00,0.0705
1194.00,0.0720
1193.00,0.0718
1192.00,0.0700
1191.00,0.0671
1190.00,0.0633
1189.00,0.0591
1188.00,0.0547
1187.00,0.0504
1186.00,0.0465
1185.00,0.0430
1184.00,0.0401
1183.00,0.0377
1182.00,0.0358
1181.00,0.0343
1180.00,0.0332
1179.00,0.0323
1178.00,0.0317
1177.00,0.0312
1176.00,0.0309
1175.00,0.0307
1174.00,0.0306
1173.00,0.0305
1172.00,0.0304
1171.00,0.0304
1170.00,0.0304
1169.00,0.0304
1168.00,0.0304
1167.00,0.0305
1166.00,0.0307
1165.00,0.0310
1164.00,0.0317
1163.00,0.0327
1162.00,0.0343
1161.00,0.0366
1160.00,0.0401
1159.00,0.0448
1158.00,0.0506
1157.00,0.0570
1156.00,0.0630
1155.00,0.0672
1154.00,0.0683
1153.00,0.0661
1152.00,0.0609
1151.00,0.0541
1150.00,0.0471
1149.00,0.0410
1148.00,0.0364
1147.00,0.0330
1146.00,0.0308
1145.00,0.0294
1144.00,0.0285
1143.00,0.0280
1142.00,0.0277
1141.00,0.0277
1140.00,0.0280
1139.00,0.0287
1138.00,0.0299
1137.00,0.0317
1136.00,0.0343
1135.00,0.0380
1134.00,0.0431
1133.00,0.0498
1132.00,0.0577
1131.00,0.0659
1130.00,0.0734
1129.00,0.0788
1128.00,0.0815
1127.00,0.0818
1126.00,0.0799
1125.00,0.0764
1124.00,0.0716
1123.00,0.0660
1122.00,0.0600
1121.00,0.0544
1120.00,0.0495
1119.00,0.0457
1118.00,0.0431
1117.00,0.0414
1116.00,0.0405
1115.00,0.0400
1114.00,0.0395
1113.00,0.0389
1112.00,0.0380
1111.00,0.0368
1110.00,0.0357
1109.00,0.0347
1108.00,0.0341
1107.00,0.0340
1106.00,0.0348
1105.00,0.0365
1104.00,0.0395
1103.00,0.0437
1102.00,0.0487
1101.00,0.0536
1100.00,0.0571
1099.00,0.0584
1098.00,0.0571
1097.00,0.0538
1096.00,0.0491
1095.00,0.0441
1094.00,0.0394
1093.00,0.0356
1092.00,0.0326
1091.00,0.0303
1090.00,0.0288
1089.00,0.0276
1088.00,0.0268
1087.00,0.0261
1086.00,0.0257
1085.00,0.0254
1084.00,0.0252
1083.00,0.0250
1082.00,0.0250
1081.00,0.0251
1080.00,0.0252
1079.00,0.0253
1078.00,0.0255
1077.00,0.0257
1076.00,0.0260
1075.00,0.0263
1074.00,0.0267
1073.00,0.0272
1072.00,0.0277
1071.00,0.0284
1070.00,0.0292
1069.00,0.0301
1068.00,0.0312
1067.00,0.0323
1066.00,0.0335
1065.00,0.0351
1064.00,0.0371
1063.00,0.0397
1062.00,0.0432
1061.00,0.0478
1060.00,0.0537
1059.00,0.0609
1058.00,0.0693
1057.00,0.0784
1056.00,0.0874
1055.00,0.0951
1054.00,0.1009
1053.00,0.1048
1052.00,0.1071
1051.00,0.1084
1050.00,0.1089
1049.00,0.1083
1048.00,0.1065
1047.00,0.1031
1046.00,0.0983
1045.00,0.0925
1044.00,0.0859
1043.00,0.0791
1042.00,0.0727
1041.00,0.0670
1040.00,0.0624
1039.00,0.0591
1038.00,0.0571
1037.00,0.0565
1036.00,0.0567
1035.00,0.0574
1034.00,0.0585
1033.00,0.0602
1032.00,0.0633
1031.00,0.0681
1030.00,0.0749
1029.00,0.0829
1028.00,0.0906
1027.00,0.0962
1026.00,0.0983
1025.00,0.0964
1024.00,0.0913
1023.00,0.0843
1022.00,0.0767
1021.00,0.0695
1020.00,0.0630
1019.00,0.0574
1018.00,0.0527
1017.00,0.0487
1016.00,0.0454
1015.00,0.0426
1014.00,0.0403
1013.00,0.0385
1012.00,0.0374
1011.00,0.0370
1010.00,0.0374
1009.00,0.0389
1008.00,0.0413
1007.00,0.0443
1006.00,0.0478
1005.00,0.0510
1004.00,0.0535
1003.00,0.0548
1002.00,0.0548
1001.00,0.0538
1000.00,0.0521
999.00,0.0503
998.00,0.0486
997.00,0.0470
996.00,0.0456
995.00,0.0444
994.00,0.0434
993.00,0.0421
992.00,0.0405
991.00,0.0385
990.00,0.0364
989.00,0.0344
988.00,0.0325
987.00,0.0309
986.00,0.0296
985.00,0.0285
984.00,0.0276
983.00,0.0269
982.00,0.0264
981.00,0.0260
980.00,0.0257
979.00,0.0256
978.00,0.0256
977.00,0.0256
976.00,0.0257
975.00,0.0256
974.00,0.0255
973.00,0.0254
972.00,0.0252
971.00,0.0250
970.00,0.0248
969.00,0.0248
968.00,0.0247
967.00,0.0248
966.00,0.0250
965.00,0.0254
964.00,0.0260
963.00,0.0265
962.00,0.0268
961.00,0.0265
960.00,0.0256
959.00,0.0244
958.00,0.0230
957.00,0.0219
956.00,0.0210
955.00,0.0202
954.00,0.0196
953.00,0.0192
952.00,0.0189
951.00,0.0190
950.00,0.0195
949.00,0.0202
948.00,0.0208
947.00,0.0209
946.00,0.0207
945.00,0.0205
944.00,0.0205
943.00,0.0209
942.00,0.0217
941.00,0.0226
940.00,0.0236
939.00,0.0246
938.00,0.0253
937.00,0.0260
936.00,0.0266
935.00,0.0273
934.00,0.0281
933.00,0.0287
932.00,0.0289
931.00,0.0286
930.00,0.0279
929.00,0.0271
928.00,0.0265
927.00,0.0262
926.00,0.0265
925.00,0.0274
924.00,0.0288
923.00,0.0302
922.00,0.0313
921.00,0.0315
920.00,0.0306
919.00,0.0289
918.00,0.0268
917.00,0.0246
916.00,0.0228
915.00,0.0213
914.00,0.0202
913.00,0.0195
912.00,0.0190
911.00,0.0187
910.00,0.0186
909.00,0.0186
908.00,0.0188
907.00,0.0192
906.00,0.0198
905.00,0.0209
904.00,0.0224
903.00,0.0245
902.00,0.0272
901.00,0.0301
900.00,0.0325
899.00,0.0338
898.00,0.0337
897.00,0.0324
896.00,0.0303
895.00,0.0285
894.00,0.0276
893.00,0.0282
892.00,0.0301
891.00,0.0325
890.00,0.0340
889.00,0.0336
888.00,0.0311
887.00,0.0277
886.00,0.0248
885.00,0.0229
884.00,0.0220
883.00,0.0218
882.00,0.0220
881.00,0.0226
880.00,0.0237
879.00,0.0254
878.00,0.0280
877.00,0.0317
876.00,0.0364
875.00,0.0421
874.00,0.0484
873.00,0.0551
872.00,0.0616
871.00,0.0669
870.00,0.0702
869.00,0.0709
868.00,0.0690
867.00,0.0655
866.00,0.0614
865.00,0.0572
864.00,0.0532
863.00,0.0492
862.00,0.0453
861.00,0.0418
860.00,0.0392
859.00,0.0376
858.00,0.0373
857.00,0.0387
856.00,0.0413
855.00,0.0447
854.00,0.0483
853.00,0.0519
852.00,0.0556
851.00,0.0596
850.00,0.0634
849.00,0.0660
848.00,0.0662
847.00,0.0641
846.00,0.0605
845.00,0.0564
844.00,0.0526
843.00,0.0494
842.00,0.0472
841.00,0.0460
840.00,0.0460
839.00,0.0473
838.00,0.0501
837.00,0.0541
836.00,0.0587
835.00,0.0628
834.00,0.0658
833.00,0.0671
832.00,0.0666
831.00,0.0641
830.00,0.0599
829.00,0.0545
828.00,0.0488
827.00,0.0437
826.00,0.0401
825.00,0.0389
824.00,0.0409
823.00,0.0469
822.00,0.0565
821.00,0.0668
820.00,0.0746
819.00,0.0787
818.00,0.0814
817.00,0.0852
816.00,0.0892
815.00,0.0895
814.00,0.0832
813.00,0.0721
812.00,0.0599
811.00,0.0497
810.00,0.0424
809.00,0.0373
808.00,0.0339
807.00,0.0314
806.00,0.0296
805.00,0.0281
804.00,0.0271
803.00,0.0263
802.00,0.0257
801.00,0.0253
800.00,0.0249
799.00,0.0246
798.00,0.0243
797.00,0.0240
796.00,0.0238
795.00,0.0237
794.00,0.0236
793.00,0.0234
792.00,0.0233
791.00,0.0231
790.00,0.0230
789.00,0.0229
788.00,0.0229
787.00,0.0229
786.00,0.0229
785.00,0.0230
784.00,0.0231
783.00,0.0232
782.00,0.0233
781.00,0.0235
780.00,0.0238
779.00,0.0245
778.00,0.0256
777.00,0.0275
776.00,0.0300
775.00,0.0322
774.00,0.0334
773.00,0.0330
772.00,0.0314
771.00,0.0295
770.00,0.0281
769.00,0.0272
768.00,0.0268
767.00,0.0267
766.00,0.0268
765.00,0.0271
764.00,0.0277
763.00,0.0286
762.00,0.0297
761.00,0.0309
760.00,0.0318
759.00,0.0324
758.00,0.0324
757.00,0.0320
756.00,0.0315
755.00,0.0310
754.00,0.0306
753.00,0.0305
752.00,0.0305
751.00,0.0306
750.00,0.0307
749.00,0.0310
748.00,0.0314
747.00,0.0319
746.00,0.0324
745.00,0.0330
744.00,0.0337
743.00,0.0346
742.00,0.0357
741.00,0.0373
740.00,0.0395
739.00,0.0427
738.00,0.0470
737.00,0.0522
736.00,0.0573
735.00,0.0608
734.00,0.0619
733.00,0.0608
732.00,0.0591
731.00,0.0582
730.00,0.0585
729.00,0.0593
728.00,0.0593
727.00,0.0578
726.00,0.0546
725.00,0.0506
724.00,0.0468
723.00,0.0438
722.00,0.0419
721.00,0.0409
720.00,0.0409
719.00,0.0417
718.00,0.0434
717.00,0.0456
716.00,0.0478
715.00,0.0494
714.00,0.0499
713.00,0.0493
712.00,0.0481
711.00,0.0466
710.00,0.0451
709.00,0.0439
708.00,0.0431
707.00,0.0427
706.00,0.0427
705.00,0.0430
704.00,0.0437
703.00,0.0446
702.00,0.0457
701.00,0.0470
700.00,0.0483
699.00,0.0493
698.00,0.0500
697.00,0.0501
696.00,0.0496
695.00,0.0487
694.00,0.0477
693.00,0.0473
692.00,0.0477
691.00,0.0493
690.00,0.0516
689.00,0.0538
688.00,0.0552
687.00,0.0553
686.00,0.0542
685.00,0.0526
684.00,0.0512
683.00,0.0503
682.00,0.0500
681.00,0.0500
680.00,0.0504
679.00,0.0512
678.00,0.0524
677.00,0.0538
676.00,0.0557
675.00,0.0578
674.00,0.0600
673.00,0.0622
672.00,0.0640
671.00,0.0653
670.00,0.0660
669.00,0.0657
668.00,0.0646
667.00,0.0634
666.00,0.0628
665.00,0.0629
664.00,0.0637
663.00,0.0649
662.00,0.0659
661.00,0.0665
660.00,0.0664
659.00,0.0654
658.00,0.0638
657.00,0.0622
656.00,0.0607
655.00,0.0596
654.00,0.0588
653.00,0.0582
652.00,0.0579
651.00,0.0577
650.00,0.0575
649.00,0.0574
648.00,0.0572
647.00,0.0569
646.00,0.0566
645.00,0.0563
644.00,0.0560
643.00,0.0558
642.00,0.0555
641.00,0.0551
640.00,0.0547
639.00,0.0542
638.00,0.0538
637.00,0.0535
636.00,0.0532
635.00,0.0530
634.00,0.0528
633.00,0.0527
632.00,0.0526
631.00,0.0524
630.00,0.0524
629.00,0.0526
628.00,0.0529
627.00,0.0535
626.00,0.0543
625.00,0.0554
624.00,0.0568
623.00,0.0584
622.00,0.0601
621.00,0.0616
620.00,0.0627
619.00,0.0630
618.00,0.0624
617.00,0.0609
616.00,0.0588
615.00,0.0566
614.00,0.0546
613.00,0.0530
612.00,0.0522
611.00,0.0522
610.00,0.0529
609.00,0.0546
608.00,0.0574
607.00,0.0611
606.00,0.0652
605.00,0.0692
604.00,0.0726
603.00,0.0751
602.00,0.0767
601.00,0.0774
600.00,0.0777
599.00,0.0778
598.00,0.0777
597.00,0.0775
596.00,0.0773
595.00,0.0771
594.00,0.0768
593.00,0.0763
592.00,0.0757
591.00,0.0750
590.00,0.0741
589.00,0.0731
588.00,0.0723
587.00,0.0717
586.00,0.0713
585.00,0.0712
584.00,0.0713
583.00,0.0717
582.00,0.0724
581.00,0.0734
580.00,0.0753
579.00,0.0782
578.00,0.0817
577.00,0.0850
576.00,0.0868
575.00,0.0863
574.00,0.0839
573.00,0.0806
572.00,0.0772
571.00,0.0742
570.00,0.0717
569.00,0.0699
568.00,0.0687
567.00,0.0682
566.00,0.0686
565.00,0.0696
564.00,0.0713
563.00,0.0734
562.00,0.0759
561.00,0.0784
560.00,0.0803
559.00,0.0809
558.00,0.0801
557.00,0.0783
556.00,0.0761
555.00,0.0740
554.00,0.0723
553.00,0.0715
552.00,0.0718
551.00,0.0732
550.00,0.0754
549.00,0.0783
548.00,0.0813
547.00,0.0838
546.00,0.0851
545.00,0.0850
544.00,0.0838
543.00,0.0818
542.00,0.0795
541.00,0.0773
540.00,0.0752
539.00,0.0735
538.00,0.0724
537.00,0.0720
536.00,0.0724
535.00,0.0738
534.00,0.0760
533.00,0.0786
532.00,0.0808
531.00,0.0820
530.00,0.0816
529.00,0.0800
528.00,0.0774
527.00,0.0743
526.00,0.0711
525.00,0.0683
524.00,0.0659
523.00,0.0641
522.00,0.0626
521.00,0.0613
520.00,0.0603
519.00,0.0596
518.00,0.0589
517.00,0.0583
516.00,0.0577
515.00,0.0573
514.00,0.0570
513.00,0.0569
512.00,0.0569
511.00,0.0571
510.00,0.0574
509.00,0.0580
508.00,0.0587
507.00,0.0594
506.00,0.0598
505.00,0.0597
504.00,0.0593
503.00,0.0583
502.00,0.0571
501.00,0.0559
500.00,0.0550
499.00,0.0545
498.00,0.0543
497.00,0.0546
496.00,0.0552
495.00,0.0561
494.00,0.0571
493.00,0.0582
492.00,0.0589
491.00,0.0590
490.00,0.0585
489.00,0.0576
488.00,0.0568
487.00,0.0559
486.00,0.0551
485.00,0.0543
484.00,0.0535
483.00,0.0530
482.00,0.0526
481.00,0.0524
480.00,0.0522
479.00,0.0517
478.00,0.0511
477.00,0.0505
476.00,0.0500
475.00,0.0498
474.00,0.0498
473.00,0.0499
472.00,0.0501
471.00,0.0502
470.00,0.0501
469.00,0.0499
468.00,0.0496
467.00,0.0494
466.00,0.0492
465.00,0.0488
464.00,0.0484
463.00,0.0481
462.00,0.0479
461.00,0.0478
460.00,0.0477
459.00,0.0475
458.00,0.0475
457.00,0.0478
456.00,0.0482
455.00,0.0485
454.00,0.0485
453.00,0.0483
452.00,0.0477
451.00,0.0471
450.00,0.0466
449.00,0.0463
448.00,0.0461
447.00,0.0459
446.00,0.0456
445.00,0.0452
444.00,0.0450
443.00,0.0451
442.00,0.0454
441.00,0.0458
440.00,0.0462
439.00,0.0464
438.00,0.0460
437.00,0.0452
436.00,0.0443
435.00,0.0435
434.00,0.0429
433.00,0.0427
432.00,0.0426
431.00,0.0424
430.00,0.0420
429.00,0.0415
428.00,0.0410
427.00,0.0408
426.00,0.0406
425.00,0.0405
424.00,0.0405
423.00,0.0405
422.00,0.0404
421.00,0.0403
420.00,0.0402
419.00,0.0403
418.00,0.0405
417.00,0.0406
416.00,0.0406
415.00,0.0408
414.00,0.0413
413.00,0.0425
412.00,0.0442
411.00,0.0461
410.00,0.0475
409.00,0.0479
408.00,0.0474
407.00,0.0463
406.00,0.0451
405.00,0.0440
404.00,0.0432
403.00,0.0426
402.00,0.0422
401.00,0.0421
400.00,0.0424
