Created as New Dataset,Sample 585 By YargerLab Date Thursday, June 05 2025
cm-1,A
4000.00,0.0188
3999.00,0.0188
3998.00,0.0188
3997.00,0.0188
3996.00,0.0187
3995.00,0.0187
3994.00,0.0187
3993.00,0.0187
3992.00,0.0187
3991.00,0.0187
3990.00,0.0187
3989.00,0.0187
3988.00,0.0187
3987.00,0.0187
3986.00,0.0187
3985.00,0.0187
3984.00,0.0187
3983.00,0.0187
3982.00,0.0187
3981.00,0.0187
3980.00,0.0187
3979.00,0.0187
3978.00,0.0187
3977.00,0.0187
3976.00,0.0187
3975.00,0.0187
3974.00,0.0186
3973.00,0.0186
3972.00,0.0186
3971.00,0.0186
3970.00,0.0186
3969.00,0.0186
3968.00,0.0186
3967.00,0.0187
3966.00,0.0187
3965.00,0.0187
3964.00,0.0187
3963.00,0.0187
3962.00,0.0187
3961.00,0.0187
3960.00,0.0187
3959.00,0.0187
3958.00,0.0187
3957.00,0.0187
3956.00,0.0187
3955.00,0.0187
3954.00,0.0187
3953.00,0.0187
3952.00,0.0187
3951.00,0.0187
3950.00,0.0187
3949.00,0.0187
3948.00,0.0187
3947.00,0.0186
3946.00,0.0186
3945.00,0.0186
3944.00,0.0186
3943.00,0.0186
3942.00,0.0186
3941.00,0.0186
3940.00,0.0186
3939.00,0.0186
3938.00,0.0186
3937.00,0.0186
3936.00,0.0185
3935.00,0.0185
3934.00,0.0185
3933.00,0.0185
3932.00,0.0185
3931.00,0.0185
3930.00,0.0185
3929.00,0.0185
3928.00,0.0186
3927.00,0.0186
3926.00,0.0186
3925.00,0.0186
3924.00,0.0185
3923.00,0.0185
3922.00,0.0185
3921.00,0.0185
3920.00,0.0185
3919.00,0.0185
3918.00,0.0184
3917.00,0.0185
3916.00,0.0185
3915.00,0.0185
3914.00,0.0185
3913.00,0.0185
3912.00,0.0185
3911.00,0.0185
3910.00,0.0185
3909.00,0.0185
3908.00,0.0185
3907.00,0.0185
3906.00,0.0184
3905.00,0.0184
3904.00,0.0184
3903.00,0.0183
3902.00,0.0183
3901.00,0.0183
3900.00,0.0183
3899.00,0.0183
3898.00,0.0183
3897.00,0.0183
3896.00,0.0183
3895.00,0.0183
3894.00,0.0184
3893.00,0.0184
3892.00,0.0184
3891.00,0.0183
3890.00,0.0183
3889.00,0.0183
3888.00,0.0182
3887.00,0.0182
3886.00,0.0182
3885.00,0.0182
3884.00,0.0182
3883.00,0.0182
3882.00,0.0182
3881.00,0.0182
3880.00,0.0182
3879.00,0.0182
3878.00,0.0182
3877.00,0.0182
3876.00,0.0182
3875.00,0.0182
3874.00,0.0182
3873.00,0.0182
3872.00,0.0182
3871.00,0.0182
3870.00,0.0182
3869.00,0.0181
3868.00,0.0181
3867.00,0.0181
3866.00,0.0181
3865.00,0.0181
3864.00,0.0181
3863.00,0.0181
3862.00,0.0181
3861.00,0.0181
3860.00,0.0181
3859.00,0.0181
3858.00,0.0181
3857.00,0.0180
3856.00,0.0180
3855.00,0.0180
3854.00,0.0180
3853.00,0.0180
3852.00,0.0180
3851.00,0.0180
3850.00,0.0180
3849.00,0.0180
3848.00,0.0180
3847.00,0.0180
3846.00,0.0180
3845.00,0.0180
3844.00,0.0179
3843.00,0.0179
3842.00,0.0179
3841.00,0.0179
3840.00,0.0179
3839.00,0.0179
3838.00,0.0179
3837.00,0.0179
3836.00,0.0180
3835.00,0.0180
3834.00,0.0179
3833.00,0.0179
3832.00,0.0179
3831.00,0.0179
3830.00,0.0179
3829.00,0.0179
3828.00,0.0179
3827.00,0.0179
3826.00,0.0178
3825.00,0.0178
3824.00,0.0178
3823.00,0.0177
3822.00,0.0177
3821.00,0.0177
3820.00,0.0177
3819.00,0.0177
3818.00,0.0177
3817.00,0.0177
3816.00,0.0177
3815.00,0.0177
3814.00,0.0177
3813.00,0.0177
3812.00,0.0177
3811.00,0.0177
3810.00,0.0177
3809.00,0.0177
3808.00,0.0177
3807.00,0.0177
3806.00,0.0177
3805.00,0.0177
3804.00,0.0177
3803.00,0.0177
3802.00,0.0177
3801.00,0.0176
3800.00,0.0176
3799.00,0.0176
3798.00,0.0176
3797.00,0.0176
3796.00,0.0176
3795.00,0.0176
3794.00,0.0176
3793.00,0.0176
3792.00,0.0176
3791.00,0.0176
3790.00,0.0176
3789.00,0.0176
3788.00,0.0176
3787.00,0.0175
3786.00,0.0175
3785.00,0.0175
3784.00,0.0175
3783.00,0.0175
3782.00,0.0175
3781.00,0.0175
3780.00,0.0175
3779.00,0.0175
3778.00,0.0175
3777.00,0.0175
3776.00,0.0175
3775.00,0.0175
3774.00,0.0175
3773.00,0.0175
3772.00,0.0175
3771.00,0.0175
3770.00,0.0175
3769.00,0.0175
3768.00,0.0174
3767.00,0.0174
3766.00,0.0175
3765.00,0.0175
3764.00,0.0175
3763.00,0.0175
3762.00,0.0175
3761.00,0.0175
3760.00,0.0175
3759.00,0.0175
3758.00,0.0175
3757.00,0.0175
3756.00,0.0175
3755.00,0.0174
3754.00,0.0174
3753.00,0.0174
3752.00,0.0174
3751.00,0.0173
3750.00,0.0173
3749.00,0.0173
3748.00,0.0173
3747.00,0.0173
3746.00,0.0173
3745.00,0.0173
3744.00,0.0173
3743.00,0.0173
3742.00,0.0172
3741.00,0.0172
3740.00,0.0171
3739.00,0.0170
3738.00,0.0170
3737.00,0.0169
3736.00,0.0169
3735.00,0.0169
3734.00,0.0168
3733.00,0.0168
3732.00,0.0168
3731.00,0.0168
3730.00,0.0169
3729.00,0.0169
3728.00,0.0169
3727.00,0.0168
3726.00,0.0168
3725.00,0.0168
3724.00,0.0168
3723.00,0.0168
3722.00,0.0168
3721.00,0.0167
3720.00,0.0167
3719.00,0.0167
3718.00,0.0167
3717.00,0.0167
3716.00,0.0167
3715.00,0.0167
3714.00,0.0167
3713.00,0.0168
3712.00,0.0168
3711.00,0.0168
3710.00,0.0168
3709.00,0.0167
3708.00,0.0167
3707.00,0.0167
3706.00,0.0167
3705.00,0.0166
3704.00,0.0166
3703.00,0.0166
3702.00,0.0166
3701.00,0.0166
3700.00,0.0166
3699.00,0.0166
3698.00,0.0166
3697.00,0.0166
3696.00,0.0166
3695.00,0.0166
3694.00,0.0166
3693.00,0.0166
3692.00,0.0166
3691.00,0.0165
3690.00,0.0165
3689.00,0.0164
3688.00,0.0164
3687.00,0.0164
3686.00,0.0164
3685.00,0.0165
3684.00,0.0165
3683.00,0.0165
3682.00,0.0165
3681.00,0.0165
3680.00,0.0164
3679.00,0.0164
3678.00,0.0164
3677.00,0.0163
3676.00,0.0163
3675.00,0.0163
3674.00,0.0163
3673.00,0.0163
3672.00,0.0164
3671.00,0.0164
3670.00,0.0164
3669.00,0.0164
3668.00,0.0164
3667.00,0.0164
3666.00,0.0164
3665.00,0.0164
3664.00,0.0164
3663.00,0.0164
3662.00,0.0164
3661.00,0.0164
3660.00,0.0164
3659.00,0.0164
3658.00,0.0164
3657.00,0.0164
3656.00,0.0164
3655.00,0.0163
3654.00,0.0163
3653.00,0.0164
3652.00,0.0164
3651.00,0.0165
3650.00,0.0165
3649.00,0.0165
3648.00,0.0166
3647.00,0.0166
3646.00,0.0166
3645.00,0.0166
3644.00,0.0166
3643.00,0.0166
3642.00,0.0166
3641.00,0.0166
3640.00,0.0166
3639.00,0.0166
3638.00,0.0167
3637.00,0.0167
3636.00,0.0167
3635.00,0.0167
3634.00,0.0167
3633.00,0.0167
3632.00,0.0167
3631.00,0.0167
3630.00,0.0167
3629.00,0.0167
3628.00,0.0168
3627.00,0.0168
3626.00,0.0168
3625.00,0.0169
3624.00,0.0168
3623.00,0.0168
3622.00,0.0168
3621.00,0.0168
3620.00,0.0168
3619.00,0.0169
3618.00,0.0169
3617.00,0.0169
3616.00,0.0169
3615.00,0.0170
3614.00,0.0170
3613.00,0.0171
3612.00,0.0171
3611.00,0.0171
3610.00,0.0171
3609.00,0.0171
3608.00,0.0171
3607.00,0.0171
3606.00,0.0171
3605.00,0.0171
3604.00,0.0171
3603.00,0.0170
3602.00,0.0170
3601.00,0.0170
3600.00,0.0170
3599.00,0.0170
3598.00,0.0170
3597.00,0.0170
3596.00,0.0170
3595.00,0.0170
3594.00,0.0171
3593.00,0.0171
3592.00,0.0172
3591.00,0.0172
3590.00,0.0172
3589.00,0.0172
3588.00,0.0172
3587.00,0.0172
3586.00,0.0172
3585.00,0.0172
3584.00,0.0172
3583.00,0.0172
3582.00,0.0173
3581.00,0.0173
3580.00,0.0173
3579.00,0.0174
3578.00,0.0174
3577.00,0.0174
3576.00,0.0174
3575.00,0.0174
3574.00,0.0174
3573.00,0.0174
3572.00,0.0174
3571.00,0.0174
3570.00,0.0174
3569.00,0.0174
3568.00,0.0174
3567.00,0.0175
3566.00,0.0175
3565.00,0.0175
3564.00,0.0175
3563.00,0.0176
3562.00,0.0176
3561.00,0.0176
3560.00,0.0176
3559.00,0.0177
3558.00,0.0177
3557.00,0.0178
3556.00,0.0178
3555.00,0.0178
3554.00,0.0178
3553.00,0.0178
3552.00,0.0178
3551.00,0.0178
3550.00,0.0178
3549.00,0.0178
3548.00,0.0178
3547.00,0.0178
3546.00,0.0178
3545.00,0.0179
3544.00,0.0179
3543.00,0.0180
3542.00,0.0180
3541.00,0.0180
3540.00,0.0180
3539.00,0.0180
3538.00,0.0180
3537.00,0.0181
3536.00,0.0181
3535.00,0.0181
3534.00,0.0181
3533.00,0.0182
3532.00,0.0182
3531.00,0.0182
3530.00,0.0182
3529.00,0.0182
3528.00,0.0182
3527.00,0.0181
3526.00,0.0182
3525.00,0.0182
3524.00,0.0182
3523.00,0.0183
3522.00,0.0183
3521.00,0.0184
3520.00,0.0184
3519.00,0.0184
3518.00,0.0184
3517.00,0.0184
3516.00,0.0184
3515.00,0.0184
3514.00,0.0184
3513.00,0.0185
3512.00,0.0185
3511.00,0.0185
3510.00,0.0185
3509.00,0.0185
3508.00,0.0185
3507.00,0.0185
3506.00,0.0185
3505.00,0.0186
3504.00,0.0187
3503.00,0.0187
3502.00,0.0187
3501.00,0.0188
3500.00,0.0188
3499.00,0.0188
3498.00,0.0188
3497.00,0.0188
3496.00,0.0189
3495.00,0.0189
3494.00,0.0189
3493.00,0.0190
3492.00,0.0190
3491.00,0.0190
3490.00,0.0190
3489.00,0.0190
3488.00,0.0191
3487.00,0.0191
3486.00,0.0191
3485.00,0.0191
3484.00,0.0192
3483.00,0.0192
3482.00,0.0193
3481.00,0.0193
3480.00,0.0193
3479.00,0.0194
3478.00,0.0194
3477.00,0.0194
3476.00,0.0195
3475.00,0.0195
3474.00,0.0195
3473.00,0.0195
3472.00,0.0195
3471.00,0.0195
3470.00,0.0195
3469.00,0.0195
3468.00,0.0195
3467.00,0.0195
3466.00,0.0196
3465.00,0.0196
3464.00,0.0197
3463.00,0.0197
3462.00,0.0198
3461.00,0.0198
3460.00,0.0198
3459.00,0.0198
3458.00,0.0198
3457.00,0.0198
3456.00,0.0198
3455.00,0.0199
3454.00,0.0199
3453.00,0.0199
3452.00,0.0200
3451.00,0.0200
3450.00,0.0200
3449.00,0.0200
3448.00,0.0200
3447.00,0.0200
3446.00,0.0201
3445.00,0.0201
3444.00,0.0201
3443.00,0.0201
3442.00,0.0201
3441.00,0.0202
3440.00,0.0202
3439.00,0.0202
3438.00,0.0202
3437.00,0.0202
3436.00,0.0202
3435.00,0.0202
3434.00,0.0202
3433.00,0.0203
3432.00,0.0203
3431.00,0.0203
3430.00,0.0203
3429.00,0.0204
3428.00,0.0204
3427.00,0.0204
3426.00,0.0205
3425.00,0.0205
3424.00,0.0205
3423.00,0.0205
3422.00,0.0205
3421.00,0.0205
3420.00,0.0205
3419.00,0.0206
3418.00,0.0206
3417.00,0.0206
3416.00,0.0206
3415.00,0.0206
3414.00,0.0207
3413.00,0.0207
3412.00,0.0208
3411.00,0.0208
3410.00,0.0208
3409.00,0.0209
3408.00,0.0209
3407.00,0.0210
3406.00,0.0210
3405.00,0.0210
3404.00,0.0210
3403.00,0.0209
3402.00,0.0208
3401.00,0.0208
3400.00,0.0209
3399.00,0.0210
3398.00,0.0212
3397.00,0.0213
3396.00,0.0213
3395.00,0.0212
3394.00,0.0211
3393.00,0.0211
3392.00,0.0211
3391.00,0.0212
3390.00,0.0214
3389.00,0.0216
3388.00,0.0217
3387.00,0.0218
3386.00,0.0218
3385.00,0.0218
3384.00,0.0218
3383.00,0.0218
3382.00,0.0218
3381.00,0.0218
3380.00,0.0218
3379.00,0.0218
3378.00,0.0218
3377.00,0.0219
3376.00,0.0220
3375.00,0.0220
3374.00,0.0220
3373.00,0.0219
3372.00,0.0217
3371.00,0.0215
3370.00,0.0214
3369.00,0.0214
3368.00,0.0215
3367.00,0.0217
3366.00,0.0219
3365.00,0.0220
3364.00,0.0222
3363.00,0.0222
3362.00,0.0222
3361.00,0.0223
3360.00,0.0224
3359.00,0.0225
3358.00,0.0227
3357.00,0.0228
3356.00,0.0228
3355.00,0.0228
3354.00,0.0227
3353.00,0.0226
3352.00,0.0225
3351.00,0.0226
3350.00,0.0227
3349.00,0.0230
3348.00,0.0232
3347.00,0.0233
3346.00,0.0234
3345.00,0.0233
3344.00,0.0233
3343.00,0.0233
3342.00,0.0234
3341.00,0.0234
3340.00,0.0234
3339.00,0.0234
3338.00,0.0235
3337.00,0.0237
3336.00,0.0239
3335.00,0.0241
3334.00,0.0241
3333.00,0.0242
3332.00,0.0242
3331.00,0.0242
3330.00,0.0241
3329.00,0.0240
3328.00,0.0239
3327.00,0.0239
3326.00,0.0239
3325.00,0.0240
3324.00,0.0241
3323.00,0.0243
3322.00,0.0244
3321.00,0.0245
3320.00,0.0246
3319.00,0.0246
3318.00,0.0247
3317.00,0.0247
3316.00,0.0248
3315.00,0.0248
3314.00,0.0249
3313.00,0.0249
3312.00,0.0249
3311.00,0.0249
3310.00,0.0248
3309.00,0.0248
3308.00,0.0248
3307.00,0.0248
3306.00,0.0249
3305.00,0.0251
3304.00,0.0253
3303.00,0.0255
3302.00,0.0256
3301.00,0.0258
3300.00,0.0259
3299.00,0.0260
3298.00,0.0260
3297.00,0.0261
3296.00,0.0261
3295.00,0.0262
3294.00,0.0263
3293.00,0.0265
3292.00,0.0267
3291.00,0.0269
3290.00,0.0272
3289.00,0.0274
3288.00,0.0276
3287.00,0.0278
3286.00,0.0279
3285.00,0.0281
3284.00,0.0282
3283.00,0.0284
3282.00,0.0285
3281.00,0.0287
3280.00,0.0288
3279.00,0.0290
3278.00,0.0291
3277.00,0.0292
3276.00,0.0293
3275.00,0.0293
3274.00,0.0293
3273.00,0.0293
3272.00,0.0293
3271.00,0.0294
3270.00,0.0297
3269.00,0.0300
3268.00,0.0303
3267.00,0.0306
3266.00,0.0308
3265.00,0.0309
3264.00,0.0310
3263.00,0.0311
3262.00,0.0312
3261.00,0.0313
3260.00,0.0314
3259.00,0.0314
3258.00,0.0315
3257.00,0.0315
3256.00,0.0316
3255.00,0.0318
3254.00,0.0320
3253.00,0.0322
3252.00,0.0323
3251.00,0.0324
3250.00,0.0324
3249.00,0.0324
3248.00,0.0324
3247.00,0.0325
3246.00,0.0327
3245.00,0.0329
3244.00,0.0332
3243.00,0.0334
3242.00,0.0336
3241.00,0.0337
3240.00,0.0339
3239.00,0.0340
3238.00,0.0341
3237.00,0.0341
3236.00,0.0341
3235.00,0.0341
3234.00,0.0342
3233.00,0.0344
3232.00,0.0347
3231.00,0.0350
3230.00,0.0353
3229.00,0.0355
3228.00,0.0357
3227.00,0.0358
3226.00,0.0360
3225.00,0.0362
3224.00,0.0364
3223.00,0.0365
3222.00,0.0367
3221.00,0.0369
3220.00,0.0370
3219.00,0.0372
3218.00,0.0374
3217.00,0.0376
3216.00,0.0377
3215.00,0.0379
3214.00,0.0381
3213.00,0.0383
3212.00,0.0385
3211.00,0.0387
3210.00,0.0389
3209.00,0.0391
3208.00,0.0392
3207.00,0.0394
3206.00,0.0395
3205.00,0.0397
3204.00,0.0399
3203.00,0.0401
3202.00,0.0402
3201.00,0.0404
3200.00,0.0405
3199.00,0.0406
3198.00,0.0407
3197.00,0.0408
3196.00,0.0410
3195.00,0.0411
3194.00,0.0412
3193.00,0.0414
3192.00,0.0415
3191.00,0.0417
3190.00,0.0418
3189.00,0.0420
3188.00,0.0421
3187.00,0.0423
3186.00,0.0424
3185.00,0.0426
3184.00,0.0428
3183.00,0.0429
3182.00,0.0431
3181.00,0.0432
3180.00,0.0434
3179.00,0.0435
3178.00,0.0437
3177.00,0.0439
3176.00,0.0440
3175.00,0.0442
3174.00,0.0444
3173.00,0.0445
3172.00,0.0447
3171.00,0.0448
3170.00,0.0449
3169.00,0.0451
3168.00,0.0452
3167.00,0.0454
3166.00,0.0456
3165.00,0.0458
3164.00,0.0459
3163.00,0.0461
3162.00,0.0463
3161.00,0.0465
3160.00,0.0466
3159.00,0.0468
3158.00,0.0470
3157.00,0.0471
3156.00,0.0472
3155.00,0.0473
3154.00,0.0475
3153.00,0.0477
3152.00,0.0479
3151.00,0.0482
3150.00,0.0485
3149.00,0.0488
3148.00,0.0491
3147.00,0.0493
3146.00,0.0496
3145.00,0.0498
3144.00,0.0500
3143.00,0.0502
3142.00,0.0504
3141.00,0.0505
3140.00,0.0508
3139.00,0.0510
3138.00,0.0513
3137.00,0.0516
3136.00,0.0519
3135.00,0.0522
3134.00,0.0524
3133.00,0.0527
3132.00,0.0529
3131.00,0.0531
3130.00,0.0533
3129.00,0.0535
3128.00,0.0538
3127.00,0.0540
3126.00,0.0543
3125.00,0.0545
3124.00,0.0547
3123.00,0.0549
3122.00,0.0552
3121.00,0.0554
3120.00,0.0557
3119.00,0.0559
3118.00,0.0562
3117.00,0.0566
3116.00,0.0569
3115.00,0.0573
3114.00,0.0577
3113.00,0.0580
3112.00,0.0584
3111.00,0.0587
3110.00,0.0590
3109.00,0.0594
3108.00,0.0597
3107.00,0.0601
3106.00,0.0605
3105.00,0.0609
3104.00,0.0612
3103.00,0.0615
3102.00,0.0618
3101.00,0.0622
3100.00,0.0625
3099.00,0.0628
3098.00,0.0632
3097.00,0.0636
3096.00,0.0640
3095.00,0.0644
3094.00,0.0647
3093.00,0.0651
3092.00,0.0654
3091.00,0.0658
3090.00,0.0662
3089.00,0.0666
3088.00,0.0670
3087.00,0.0675
3086.00,0.0679
3085.00,0.0683
3084.00,0.0688
3083.00,0.0692
3082.00,0.0697
3081.00,0.0702
3080.00,0.0707
3079.00,0.0712
3078.00,0.0716
3077.00,0.0721
3076.00,0.0726
3075.00,0.0731
3074.00,0.0735
3073.00,0.0738
3072.00,0.0742
3071.00,0.0745
3070.00,0.0749
3069.00,0.0752
3068.00,0.0755
3067.00,0.0758
3066.00,0.0761
3065.00,0.0764
3064.00,0.0767
3063.00,0.0770
3062.00,0.0772
3061.00,0.0774
3060.00,0.0777
3059.00,0.0779
3058.00,0.0781
3057.00,0.0784
3056.00,0.0787
3055.00,0.0790
3054.00,0.0792
3053.00,0.0795
3052.00,0.0797
3051.00,0.0799
3050.00,0.0801
3049.00,0.0802
3048.00,0.0804
3047.00,0.0805
3046.00,0.0805
3045.00,0.0806
3044.00,0.0806
3043.00,0.0806
3042.00,0.0806
3041.00,0.0806
3040.00,0.0807
3039.00,0.0809
3038.00,0.0812
3037.00,0.0815
3036.00,0.0821
3035.00,0.0829
3034.00,0.0840
3033.00,0.0854
3032.00,0.0871
3031.00,0.0892
3030.00,0.0914
3029.00,0.0937
3028.00,0.0958
3027.00,0.0975
3026.00,0.0987
3025.00,0.0995
3024.00,0.0999
3023.00,0.1000
3022.00,0.1000
3021.00,0.1000
3020.00,0.0998
3019.00,0.0994
3018.00,0.0986
3017.00,0.0974
3016.00,0.0961
3015.00,0.0947
3014.00,0.0935
3013.00,0.0925
3012.00,0.0918
3011.00,0.0913
3010.00,0.0910
3009.00,0.0908
3008.00,0.0907
3007.00,0.0907
3006.00,0.0907
3005.00,0.0908
3004.00,0.0909
3003.00,0.0909
3002.00,0.0910
3001.00,0.0911
3000.00,0.0912
2999.00,0.0913
2998.00,0.0914
2997.00,0.0916
2996.00,0.0918
2995.00,0.0920
2994.00,0.0922
2993.00,0.0924
2992.00,0.0926
2991.00,0.0928
2990.00,0.0931
2989.00,0.0933
2988.00,0.0936
2987.00,0.0939
2986.00,0.0941
2985.00,0.0944
2984.00,0.0946
2983.00,0.0948
2982.00,0.0952
2981.00,0.0959
2980.00,0.0967
2979.00,0.0978
2978.00,0.0991
2977.00,0.1004
2976.00,0.1019
2975.00,0.1035
2974.00,0.1051
2973.00,0.1066
2972.00,0.1080
2971.00,0.1090
2970.00,0.1096
2969.00,0.1097
2968.00,0.1095
2967.00,0.1089
2966.00,0.1081
2965.00,0.1073
2964.00,0.1065
2963.00,0.1059
2962.00,0.1055
2961.00,0.1052
2960.00,0.1051
2959.00,0.1052
2958.00,0.1054
2957.00,0.1056
2956.00,0.1058
2955.00,0.1060
2954.00,0.1059
2953.00,0.1055
2952.00,0.1049
2951.00,0.1040
2950.00,0.1030
2949.00,0.1020
2948.00,0.1010
2947.00,0.1001
2946.00,0.0993
2945.00,0.0987
2944.00,0.0982
2943.00,0.0979
2942.00,0.0976
2941.00,0.0974
2940.00,0.0974
2939.00,0.0974
2938.00,0.0975
2937.00,0.0977
2936.00,0.0979
2935.00,0.0981
2934.00,0.0983
2933.00,0.0986
2932.00,0.0989
2931.00,0.0993
2930.00,0.0997
2929.00,0.1001
2928.00,0.1006
2927.00,0.1012
2926.00,0.1018
2925.00,0.1024
2924.00,0.1030
2923.00,0.1036
2922.00,0.1039
2921.00,0.1040
2920.00,0.1039
2919.00,0.1037
2918.00,0.1034
2917.00,0.1030
2916.00,0.1026
2915.00,0.1023
2914.00,0.1021
2913.00,0.1020
2912.00,0.1020
2911.00,0.1021
2910.00,0.1022
2909.00,0.1024
2908.00,0.1026
2907.00,0.1029
2906.00,0.1031
2905.00,0.1034
2904.00,0.1036
2903.00,0.1038
2902.00,0.1040
2901.00,0.1041
2900.00,0.1042
2899.00,0.1043
2898.00,0.1043
2897.00,0.1044
2896.00,0.1044
2895.00,0.1044
2894.00,0.1043
2893.00,0.1043
2892.00,0.1042
2891.00,0.1040
2890.00,0.1039
2889.00,0.1037
2888.00,0.1036
2887.00,0.1035
2886.00,0.1033
2885.00,0.1032
2884.00,0.1031
2883.00,0.1031
2882.00,0.1031
2881.00,0.1031
2880.00,0.1030
2879.00,0.1030
2878.00,0.1029
2877.00,0.1028
2876.00,0.1026
2875.00,0.1023
2874.00,0.1020
2873.00,0.1017
2872.00,0.1015
2871.00,0.1012
2870.00,0.1008
2869.00,0.1005
2868.00,0.1001
2867.00,0.0998
2866.00,0.0995
2865.00,0.0993
2864.00,0.0992
2863.00,0.0991
2862.00,0.0991
2861.00,0.0991
2860.00,0.0992
2859.00,0.0993
2858.00,0.0995
2857.00,0.0998
2856.00,0.1000
2855.00,0.1003
2854.00,0.1007
2853.00,0.1010
2852.00,0.1014
2851.00,0.1018
2850.00,0.1023
2849.00,0.1028
2848.00,0.1034
2847.00,0.1040
2846.00,0.1046
2845.00,0.1052
2844.00,0.1058
2843.00,0.1064
2842.00,0.1070
2841.00,0.1075
2840.00,0.1081
2839.00,0.1086
2838.00,0.1091
2837.00,0.1096
2836.00,0.1101
2835.00,0.1104
2834.00,0.1107
2833.00,0.1109
2832.00,0.1111
2831.00,0.1111
2830.00,0.1112
2829.00,0.1111
2828.00,0.1111
2827.00,0.1110
2826.00,0.1109
2825.00,0.1108
2824.00,0.1106
2823.00,0.1105
2822.00,0.1103
2821.00,0.1100
2820.00,0.1098
2819.00,0.1095
2818.00,0.1092
2817.00,0.1089
2816.00,0.1085
2815.00,0.1081
2814.00,0.1077
2813.00,0.1072
2812.00,0.1068
2811.00,0.1063
2810.00,0.1058
2809.00,0.1053
2808.00,0.1048
2807.00,0.1044
2806.00,0.1039
2805.00,0.1034
2804.00,0.1030
2803.00,0.1025
2802.00,0.1020
2801.00,0.1015
2800.00,0.1009
2799.00,0.1004
2798.00,0.0998
2797.00,0.0993
2796.00,0.0987
2795.00,0.0981
2794.00,0.0975
2793.00,0.0969
2792.00,0.0963
2791.00,0.0957
2790.00,0.0951
2789.00,0.0946
2788.00,0.0940
2787.00,0.0935
2786.00,0.0929
2785.00,0.0924
2784.00,0.0919
2783.00,0.0915
2782.00,0.0911
2781.00,0.0908
2780.00,0.0906
2779.00,0.0904
2778.00,0.0903
2777.00,0.0902
2776.00,0.0902
2775.00,0.0902
2774.00,0.0903
2773.00,0.0904
2772.00,0.0905
2771.00,0.0907
2770.00,0.0909
2769.00,0.0911
2768.00,0.0913
2767.00,0.0915
2766.00,0.0917
2765.00,0.0919
2764.00,0.0921
2763.00,0.0922
2762.00,0.0923
2761.00,0.0924
2760.00,0.0925
2759.00,0.0926
2758.00,0.0926
2757.00,0.0926
2756.00,0.0925
2755.00,0.0924
2754.00,0.0923
2753.00,0.0922
2752.00,0.0920
2751.00,0.0918
2750.00,0.0917
2749.00,0.0915
2748.00,0.0915
2747.00,0.0915
2746.00,0.0915
2745.00,0.0917
2744.00,0.0919
2743.00,0.0922
2742.00,0.0925
2741.00,0.0929
2740.00,0.0933
2739.00,0.0937
2738.00,0.0942
2737.00,0.0946
2736.00,0.0949
2735.00,0.0952
2734.00,0.0953
2733.00,0.0954
2732.00,0.0953
2731.00,0.0952
2730.00,0.0950
2729.00,0.0947
2728.00,0.0943
2727.00,0.0940
2726.00,0.0936
2725.00,0.0931
2724.00,0.0927
2723.00,0.0923
2722.00,0.0919
2721.00,0.0915
2720.00,0.0911
2719.00,0.0908
2718.00,0.0905
2717.00,0.0903
2716.00,0.0902
2715.00,0.0901
2714.00,0.0901
2713.00,0.0902
2712.00,0.0904
2711.00,0.0906
2710.00,0.0909
2709.00,0.0912
2708.00,0.0916
2707.00,0.0920
2706.00,0.0924
2705.00,0.0929
2704.00,0.0933
2703.00,0.0937
2702.00,0.0941
2701.00,0.0945
2700.00,0.0949
2699.00,0.0953
2698.00,0.0956
2697.00,0.0960
2696.00,0.0963
2695.00,0.0966
2694.00,0.0969
2693.00,0.0972
2692.00,0.0974
2691.00,0.0976
2690.00,0.0978
2689.00,0.0979
2688.00,0.0979
2687.00,0.0979
2686.00,0.0979
2685.00,0.0978
2684.00,0.0977
2683.00,0.0975
2682.00,0.0974
2681.00,0.0974
2680.00,0.0973
2679.00,0.0973
2678.00,0.0973
2677.00,0.0973
2676.00,0.0974
2675.00,0.0975
2674.00,0.0977
2673.00,0.0979
2672.00,0.0982
2671.00,0.0985
2670.00,0.0989
2669.00,0.0992
2668.00,0.0996
2667.00,0.0999
2666.00,0.1002
2665.00,0.1005
2664.00,0.1008
2663.00,0.1010
2662.00,0.1012
2661.00,0.1014
2660.00,0.1017
2659.00,0.1020
2658.00,0.1023
2657.00,0.1028
2656.00,0.1033
2655.00,0.1038
2654.00,0.1044
2653.00,0.1050
2652.00,0.1056
2651.00,0.1062
2650.00,0.1067
2649.00,0.1071
2648.00,0.1074
2647.00,0.1076
2646.00,0.1078
2645.00,0.1078
2644.00,0.1078
2643.00,0.1077
2642.00,0.1075
2641.00,0.1073
2640.00,0.1071
2639.00,0.1068
2638.00,0.1064
2637.00,0.1061
2636.00,0.1057
2635.00,0.1053
2634.00,0.1049
2633.00,0.1044
2632.00,0.1041
2631.00,0.1037
2630.00,0.1035
2629.00,0.1033
2628.00,0.1032
2627.00,0.1032
2626.00,0.1032
2625.00,0.1034
2624.00,0.1037
2623.00,0.1039
2622.00,0.1041
2621.00,0.1043
2620.00,0.1043
2619.00,0.1044
2618.00,0.1043
2617.00,0.1043
2616.00,0.1042
2615.00,0.1041
2614.00,0.1040
2613.00,0.1039
2612.00,0.1038
2611.00,0.1037
2610.00,0.1036
2609.00,0.1034
2608.00,0.1033
2607.00,0.1031
2606.00,0.1029
2605.00,0.1027
2604.00,0.1024
2603.00,0.1022
2602.00,0.1019
2601.00,0.1016
2600.00,0.1014
2599.00,0.1011
2598.00,0.1009
2597.00,0.1007
2596.00,0.1006
2595.00,0.1005
2594.00,0.1006
2593.00,0.1007
2592.00,0.1010
2591.00,0.1014
2590.00,0.1018
2589.00,0.1023
2588.00,0.1029
2587.00,0.1037
2586.00,0.1045
2585.00,0.1055
2584.00,0.1064
2583.00,0.1074
2582.00,0.1084
2581.00,0.1092
2580.00,0.1100
2579.00,0.1105
2578.00,0.1108
2577.00,0.1109
2576.00,0.1109
2575.00,0.1108
2574.00,0.1106
2573.00,0.1103
2572.00,0.1101
2571.00,0.1100
2570.00,0.1099
2569.00,0.1098
2568.00,0.1098
2567.00,0.1097
2566.00,0.1097
2565.00,0.1097
2564.00,0.1098
2563.00,0.1098
2562.00,0.1099
2561.00,0.1099
2560.00,0.1100
2559.00,0.1100
2558.00,0.1100
2557.00,0.1101
2556.00,0.1101
2555.00,0.1101
2554.00,0.1101
2553.00,0.1101
2552.00,0.1100
2551.00,0.1098
2550.00,0.1095
2549.00,0.1091
2548.00,0.1087
2547.00,0.1082
2546.00,0.1077
2545.00,0.1072
2544.00,0.1066
2543.00,0.1061
2542.00,0.1055
2541.00,0.1050
2540.00,0.1045
2539.00,0.1041
2538.00,0.1036
2537.00,0.1033
2536.00,0.1029
2535.00,0.1026
2534.00,0.1024
2533.00,0.1022
2532.00,0.1021
2531.00,0.1021
2530.00,0.1021
2529.00,0.1022
2528.00,0.1024
2527.00,0.1026
2526.00,0.1028
2525.00,0.1031
2524.00,0.1035
2523.00,0.1039
2522.00,0.1042
2521.00,0.1046
2520.00,0.1048
2519.00,0.1050
2518.00,0.1050
2517.00,0.1048
2516.00,0.1045
2515.00,0.1041
2514.00,0.1036
2513.00,0.1031
2512.00,0.1025
2511.00,0.1020
2510.00,0.1013
2509.00,0.1007
2508.00,0.1001
2507.00,0.0995
2506.00,0.0990
2505.00,0.0985
2504.00,0.0980
2503.00,0.0976
2502.00,0.0973
2501.00,0.0970
2500.00,0.0967
2499.00,0.0964
2498.00,0.0962
2497.00,0.0959
2496.00,0.0957
2495.00,0.0955
2494.00,0.0952
2493.00,0.0950
2492.00,0.0947
2491.00,0.0944
2490.00,0.0941
2489.00,0.0939
2488.00,0.0937
2487.00,0.0936
2486.00,0.0935
2485.00,0.0935
2484.00,0.0934
2483.00,0.0934
2482.00,0.0933
2481.00,0.0933
2480.00,0.0932
2479.00,0.0930
2478.00,0.0928
2477.00,0.0925
2476.00,0.0921
2475.00,0.0918
2474.00,0.0914
2473.00,0.0910
2472.00,0.0906
2471.00,0.0902
2470.00,0.0897
2469.00,0.0893
2468.00,0.0890
2467.00,0.0887
2466.00,0.0884
2465.00,0.0883
2464.00,0.0881
2463.00,0.0880
2462.00,0.0879
2461.00,0.0878
2460.00,0.0877
2459.00,0.0876
2458.00,0.0874
2457.00,0.0872
2456.00,0.0871
2455.00,0.0869
2454.00,0.0868
2453.00,0.0867
2452.00,0.0867
2451.00,0.0866
2450.00,0.0864
2449.00,0.0862
2448.00,0.0861
2447.00,0.0858
2446.00,0.0855
2445.00,0.0851
2444.00,0.0847
2443.00,0.0843
2442.00,0.0839
2441.00,0.0835
2440.00,0.0832
2439.00,0.0828
2438.00,0.0825
2437.00,0.0822
2436.00,0.0819
2435.00,0.0816
2434.00,0.0813
2433.00,0.0811
2432.00,0.0808
2431.00,0.0805
2430.00,0.0803
2429.00,0.0801
2428.00,0.0799
2427.00,0.0797
2426.00,0.0795
2425.00,0.0794
2424.00,0.0793
2423.00,0.0793
2422.00,0.0793
2421.00,0.0793
2420.00,0.0793
2419.00,0.0793
2418.00,0.0794
2417.00,0.0795
2416.00,0.0796
2415.00,0.0796
2414.00,0.0796
2413.00,0.0795
2412.00,0.0793
2411.00,0.0791
2410.00,0.0788
2409.00,0.0785
2408.00,0.0783
2407.00,0.0780
2406.00,0.0777
2405.00,0.0774
2404.00,0.0771
2403.00,0.0768
2402.00,0.0765
2401.00,0.0762
2400.00,0.0759
2399.00,0.0756
2398.00,0.0753
2397.00,0.0750
2396.00,0.0747
2395.00,0.0744
2394.00,0.0741
2393.00,0.0739
2392.00,0.0736
2391.00,0.0734
2390.00,0.0731
2389.00,0.0728
2388.00,0.0725
2387.00,0.0722
2386.00,0.0719
2385.00,0.0715
2384.00,0.0711
2383.00,0.0708
2382.00,0.0704
2381.00,0.0702
2380.00,0.0699
2379.00,0.0698
2378.00,0.0697
2377.00,0.0696
2376.00,0.0695
2375.00,0.0694
2374.00,0.0693
2373.00,0.0692
2372.00,0.0691
2371.00,0.0689
2370.00,0.0687
2369.00,0.0684
2368.00,0.0682
2367.00,0.0681
2366.00,0.0679
2365.00,0.0677
2364.00,0.0675
2363.00,0.0673
2362.00,0.0671
2361.00,0.0670
2360.00,0.0669
2359.00,0.0668
2358.00,0.0666
2357.00,0.0665
2356.00,0.0665
2355.00,0.0665
2354.00,0.0665
2353.00,0.0664
2352.00,0.0662
2351.00,0.0659
2350.00,0.0656
2349.00,0.0654
2348.00,0.0653
2347.00,0.0652
2346.00,0.0652
2345.00,0.0651
2344.00,0.0648
2343.00,0.0645
2342.00,0.0643
2341.00,0.0642
2340.00,0.0642
2339.00,0.0642
2338.00,0.0642
2337.00,0.0641
2336.00,0.0640
2335.00,0.0638
2334.00,0.0636
2333.00,0.0635
2332.00,0.0633
2331.00,0.0632
2330.00,0.0630
2329.00,0.0630
2328.00,0.0631
2327.00,0.0633
2326.00,0.0635
2325.00,0.0634
2324.00,0.0632
2323.00,0.0630
2322.00,0.0627
2321.00,0.0625
2320.00,0.0623
2319.00,0.0622
2318.00,0.0621
2317.00,0.0620
2316.00,0.0619
2315.00,0.0618
2314.00,0.0618
2313.00,0.0617
2312.00,0.0617
2311.00,0.0616
2310.00,0.0616
2309.00,0.0617
2308.00,0.0619
2307.00,0.0621
2306.00,0.0623
2305.00,0.0625
2304.00,0.0627
2303.00,0.0629
2302.00,0.0629
2301.00,0.0628
2300.00,0.0626
2299.00,0.0623
2298.00,0.0620
2297.00,0.0617
2296.00,0.0613
2295.00,0.0610
2294.00,0.0607
2293.00,0.0604
2292.00,0.0603
2291.00,0.0601
2290.00,0.0599
2289.00,0.0596
2288.00,0.0594
2287.00,0.0592
2286.00,0.0590
2285.00,0.0588
2284.00,0.0587
2283.00,0.0585
2282.00,0.0582
2281.00,0.0580
2280.00,0.0579
2279.00,0.0577
2278.00,0.0576
2277.00,0.0576
2276.00,0.0576
2275.00,0.0576
2274.00,0.0576
2273.00,0.0575
2272.00,0.0575
2271.00,0.0573
2270.00,0.0571
2269.00,0.0569
2268.00,0.0567
2267.00,0.0565
2266.00,0.0563
2265.00,0.0561
2264.00,0.0560
2263.00,0.0558
2262.00,0.0556
2261.00,0.0555
2260.00,0.0554
2259.00,0.0552
2258.00,0.0549
2257.00,0.0546
2256.00,0.0545
2255.00,0.0544
2254.00,0.0543
2253.00,0.0544
2252.00,0.0544
2251.00,0.0543
2250.00,0.0542
2249.00,0.0541
2248.00,0.0541
2247.00,0.0541
2246.00,0.0540
2245.00,0.0540
2244.00,0.0541
2243.00,0.0541
2242.00,0.0541
2241.00,0.0543
2240.00,0.0544
2239.00,0.0546
2238.00,0.0547
2237.00,0.0548
2236.00,0.0548
2235.00,0.0549
2234.00,0.0549
2233.00,0.0550
2232.00,0.0551
2231.00,0.0551
2230.00,0.0550
2229.00,0.0548
2228.00,0.0546
2227.00,0.0544
2226.00,0.0541
2225.00,0.0538
2224.00,0.0536
2223.00,0.0532
2222.00,0.0529
2221.00,0.0525
2220.00,0.0523
2219.00,0.0521
2218.00,0.0519
2217.00,0.0519
2216.00,0.0519
2215.00,0.0518
2214.00,0.0516
2213.00,0.0515
2212.00,0.0514
2211.00,0.0513
2210.00,0.0512
2209.00,0.0512
2208.00,0.0512
2207.00,0.0511
2206.00,0.0511
2205.00,0.0511
2204.00,0.0512
2203.00,0.0512
2202.00,0.0510
2201.00,0.0509
2200.00,0.0509
2199.00,0.0508
2198.00,0.0506
2197.00,0.0504
2196.00,0.0503
2195.00,0.0502
2194.00,0.0500
2193.00,0.0499
2192.00,0.0499
2191.00,0.0500
2190.00,0.0499
2189.00,0.0500
2188.00,0.0501
2187.00,0.0501
2186.00,0.0499
2185.00,0.0497
2184.00,0.0494
2183.00,0.0490
2182.00,0.0486
2181.00,0.0485
2180.00,0.0485
2179.00,0.0485
2178.00,0.0483
2177.00,0.0482
2176.00,0.0483
2175.00,0.0483
2174.00,0.0482
2173.00,0.0482
2172.00,0.0484
2171.00,0.0485
2170.00,0.0485
2169.00,0.0485
2168.00,0.0485
2167.00,0.0483
2166.00,0.0481
2165.00,0.0480
2164.00,0.0481
2163.00,0.0480
2162.00,0.0471
2161.00,0.0457
2160.00,0.0441
2159.00,0.0428
2158.00,0.0423
2157.00,0.0425
2156.00,0.0430
2155.00,0.0433
2154.00,0.0435
2153.00,0.0438
2152.00,0.0442
2151.00,0.0445
2150.00,0.0446
2149.00,0.0447
2148.00,0.0447
2147.00,0.0446
2146.00,0.0445
2145.00,0.0446
2144.00,0.0448
2143.00,0.0449
2142.00,0.0449
2141.00,0.0450
2140.00,0.0450
2139.00,0.0449
2138.00,0.0446
2137.00,0.0444
2136.00,0.0443
2135.00,0.0442
2134.00,0.0443
2133.00,0.0445
2132.00,0.0447
2131.00,0.0449
2130.00,0.0450
2129.00,0.0451
2128.00,0.0451
2127.00,0.0451
2126.00,0.0450
2125.00,0.0450
2124.00,0.0450
2123.00,0.0449
2122.00,0.0448
2121.00,0.0447
2120.00,0.0448
2119.00,0.0447
2118.00,0.0445
2117.00,0.0444
2116.00,0.0443
2115.00,0.0441
2114.00,0.0438
2113.00,0.0435
2112.00,0.0434
2111.00,0.0433
2110.00,0.0432
2109.00,0.0430
2108.00,0.0430
2107.00,0.0429
2106.00,0.0428
2105.00,0.0427
2104.00,0.0428
2103.00,0.0428
2102.00,0.0428
2101.00,0.0429
2100.00,0.0431
2099.00,0.0431
2098.00,0.0430
2097.00,0.0429
2096.00,0.0428
2095.00,0.0427
2094.00,0.0427
2093.00,0.0427
2092.00,0.0428
2091.00,0.0429
2090.00,0.0427
2089.00,0.0426
2088.00,0.0424
2087.00,0.0423
2086.00,0.0421
2085.00,0.0420
2084.00,0.0419
2083.00,0.0418
2082.00,0.0416
2081.00,0.0415
2080.00,0.0415
2079.00,0.0414
2078.00,0.0412
2077.00,0.0411
2076.00,0.0411
2075.00,0.0410
2074.00,0.0407
2073.00,0.0406
2072.00,0.0405
2071.00,0.0404
2070.00,0.0402
2069.00,0.0401
2068.00,0.0400
2067.00,0.0400
2066.00,0.0399
2065.00,0.0398
2064.00,0.0398
2063.00,0.0398
2062.00,0.0397
2061.00,0.0396
2060.00,0.0396
2059.00,0.0395
2058.00,0.0394
2057.00,0.0393
2056.00,0.0394
2055.00,0.0395
2054.00,0.0398
2053.00,0.0402
2052.00,0.0405
2051.00,0.0404
2050.00,0.0398
2049.00,0.0393
2048.00,0.0390
2047.00,0.0389
2046.00,0.0387
2045.00,0.0387
2044.00,0.0389
2043.00,0.0389
2042.00,0.0388
2041.00,0.0389
2040.00,0.0392
2039.00,0.0394
2038.00,0.0393
2037.00,0.0392
2036.00,0.0391
2035.00,0.0390
2034.00,0.0388
2033.00,0.0388
2032.00,0.0389
2031.00,0.0387
2030.00,0.0382
2029.00,0.0379
2028.00,0.0378
2027.00,0.0377
2026.00,0.0375
2025.00,0.0374
2024.00,0.0375
2023.00,0.0375
2022.00,0.0372
2021.00,0.0371
2020.00,0.0371
2019.00,0.0371
2018.00,0.0370
2017.00,0.0371
2016.00,0.0374
2015.00,0.0374
2014.00,0.0372
2013.00,0.0371
2012.00,0.0371
2011.00,0.0370
2010.00,0.0366
2009.00,0.0363
2008.00,0.0361
2007.00,0.0358
2006.00,0.0355
2005.00,0.0353
2004.00,0.0354
2003.00,0.0353
2002.00,0.0350
2001.00,0.0349
2000.00,0.0350
1999.00,0.0350
1998.00,0.0349
1997.00,0.0349
1996.00,0.0349
1995.00,0.0349
1994.00,0.0348
1993.00,0.0348
1992.00,0.0350
1991.00,0.0353
1990.00,0.0355
1989.00,0.0358
1988.00,0.0363
1987.00,0.0366
1986.00,0.0368
1985.00,0.0371
1984.00,0.0376
1983.00,0.0380
1982.00,0.0381
1981.00,0.0381
1980.00,0.0378
1979.00,0.0371
1978.00,0.0363
1977.00,0.0359
1976.00,0.0359
1975.00,0.0360
1974.00,0.0360
1973.00,0.0363
1972.00,0.0367
1971.00,0.0370
1970.00,0.0368
1969.00,0.0367
1968.00,0.0369
1967.00,0.0370
1966.00,0.0369
1965.00,0.0369
1964.00,0.0371
1963.00,0.0372
1962.00,0.0372
1961.00,0.0373
1960.00,0.0376
1959.00,0.0380
1958.00,0.0382
1957.00,0.0385
1956.00,0.0389
1955.00,0.0390
1954.00,0.0390
1953.00,0.0392
1952.00,0.0396
1951.00,0.0401
1950.00,0.0404
1949.00,0.0409
1948.00,0.0415
1947.00,0.0418
1946.00,0.0420
1945.00,0.0421
1944.00,0.0422
1943.00,0.0421
1942.00,0.0418
1941.00,0.0416
1940.00,0.0415
1939.00,0.0413
1938.00,0.0409
1937.00,0.0406
1936.00,0.0405
1935.00,0.0404
1934.00,0.0402
1933.00,0.0401
1932.00,0.0401
1931.00,0.0400
1930.00,0.0399
1929.00,0.0399
1928.00,0.0400
1927.00,0.0401
1926.00,0.0401
1925.00,0.0402
1924.00,0.0404
1923.00,0.0404
1922.00,0.0404
1921.00,0.0404
1920.00,0.0406
1919.00,0.0406
1918.00,0.0406
1917.00,0.0407
1916.00,0.0410
1915.00,0.0413
1914.00,0.0415
1913.00,0.0417
1912.00,0.0420
1911.00,0.0422
1910.00,0.0423
1909.00,0.0423
1908.00,0.0424
1907.00,0.0425
1906.00,0.0425
1905.00,0.0426
1904.00,0.0427
1903.00,0.0428
1902.00,0.0428
1901.00,0.0428
1900.00,0.0429
1899.00,0.0429
1898.00,0.0428
1897.00,0.0428
1896.00,0.0429
1895.00,0.0429
1894.00,0.0427
1893.00,0.0426
1892.00,0.0426
1891.00,0.0425
1890.00,0.0423
1889.00,0.0421
1888.00,0.0422
1887.00,0.0423
1886.00,0.0423
1885.00,0.0423
1884.00,0.0423
1883.00,0.0423
1882.00,0.0422
1881.00,0.0422
1880.00,0.0423
1879.00,0.0423
1878.00,0.0423
1877.00,0.0423
1876.00,0.0425
1875.00,0.0427
1874.00,0.0427
1873.00,0.0427
1872.00,0.0427
1871.00,0.0427
1870.00,0.0424
1869.00,0.0421
1868.00,0.0419
1867.00,0.0415
1866.00,0.0411
1865.00,0.0408
1864.00,0.0405
1863.00,0.0403
1862.00,0.0400
1861.00,0.0398
1860.00,0.0397
1859.00,0.0396
1858.00,0.0395
1857.00,0.0394
1856.00,0.0395
1855.00,0.0396
1854.00,0.0395
1853.00,0.0394
1852.00,0.0394
1851.00,0.0394
1850.00,0.0393
1849.00,0.0393
1848.00,0.0394
1847.00,0.0396
1846.00,0.0399
1845.00,0.0404
1844.00,0.0412
1843.00,0.0421
1842.00,0.0429
1841.00,0.0437
1840.00,0.0442
1839.00,0.0444
1838.00,0.0442
1837.00,0.0439
1836.00,0.0435
1835.00,0.0430
1834.00,0.0425
1833.00,0.0421
1832.00,0.0419
1831.00,0.0416
1830.00,0.0412
1829.00,0.0408
1828.00,0.0406
1827.00,0.0406
1826.00,0.0406
1825.00,0.0406
1824.00,0.0408
1823.00,0.0410
1822.00,0.0410
1821.00,0.0411
1820.00,0.0411
1819.00,0.0411
1818.00,0.0410
1817.00,0.0410
1816.00,0.0413
1815.00,0.0416
1814.00,0.0417
1813.00,0.0419
1812.00,0.0422
1811.00,0.0424
1810.00,0.0424
1809.00,0.0426
1808.00,0.0428
1807.00,0.0430
1806.00,0.0431
1805.00,0.0431
1804.00,0.0432
1803.00,0.0432
1802.00,0.0432
1801.00,0.0434
1800.00,0.0436
1799.00,0.0438
1798.00,0.0438
1797.00,0.0438
1796.00,0.0439
1795.00,0.0439
1794.00,0.0439
1793.00,0.0439
1792.00,0.0440
1791.00,0.0441
1790.00,0.0442
1789.00,0.0444
1788.00,0.0447
1787.00,0.0447
1786.00,0.0446
1785.00,0.0446
1784.00,0.0447
1783.00,0.0449
1782.00,0.0448
1781.00,0.0446
1780.00,0.0444
1779.00,0.0442
1778.00,0.0438
1777.00,0.0435
1776.00,0.0434
1775.00,0.0432
1774.00,0.0430
1773.00,0.0425
1772.00,0.0417
1771.00,0.0408
1770.00,0.0400
1769.00,0.0394
1768.00,0.0391
1767.00,0.0387
1766.00,0.0382
1765.00,0.0378
1764.00,0.0375
1763.00,0.0370
1762.00,0.0363
1761.00,0.0357
1760.00,0.0354
1759.00,0.0353
1758.00,0.0350
1757.00,0.0347
1756.00,0.0345
1755.00,0.0344
1754.00,0.0343
1753.00,0.0341
1752.00,0.0339
1751.00,0.0336
1750.00,0.0333
1749.00,0.0330
1748.00,0.0328
1747.00,0.0324
1746.00,0.0319
1745.00,0.0314
1744.00,0.0310
1743.00,0.0305
1742.00,0.0300
1741.00,0.0298
1740.00,0.0296
1739.00,0.0293
1738.00,0.0290
1737.00,0.0291
1736.00,0.0295
1735.00,0.0295
1734.00,0.0291
1733.00,0.0289
1732.00,0.0292
1731.00,0.0295
1730.00,0.0295
1729.00,0.0296
1728.00,0.0299
1727.00,0.0301
1726.00,0.0302
1725.00,0.0304
1724.00,0.0308
1723.00,0.0312
1722.00,0.0314
1721.00,0.0319
1720.00,0.0331
1719.00,0.0345
1718.00,0.0356
1717.00,0.0370
1716.00,0.0391
1715.00,0.0412
1714.00,0.0436
1713.00,0.0466
1712.00,0.0505
1711.00,0.0550
1710.00,0.0600
1709.00,0.0661
1708.00,0.0739
1707.00,0.0837
1706.00,0.0956
1705.00,0.1088
1704.00,0.1212
1703.00,0.1318
1702.00,0.1427
1701.00,0.1581
1700.00,0.1771
1699.00,0.1922
1698.00,0.2013
1697.00,0.2089
1696.00,0.2186
1695.00,0.2289
1694.00,0.2366
1693.00,0.2416
1692.00,0.2461
1691.00,0.2516
1690.00,0.2582
1689.00,0.2648
1688.00,0.2704
1687.00,0.2749
1686.00,0.2800
1685.00,0.2895
1684.00,0.3041
1683.00,0.3178
1682.00,0.3266
1681.00,0.3332
1680.00,0.3402
1679.00,0.3473
1678.00,0.3528
1677.00,0.3570
1676.00,0.3617
1675.00,0.3660
1674.00,0.3662
1673.00,0.3610
1672.00,0.3523
1671.00,0.3419
1670.00,0.3306
1669.00,0.3188
1668.00,0.3070
1667.00,0.2955
1666.00,0.2839
1665.00,0.2722
1664.00,0.2606
1663.00,0.2493
1662.00,0.2384
1661.00,0.2278
1660.00,0.2176
1659.00,0.2080
1658.00,0.1987
1657.00,0.1900
1656.00,0.1817
1655.00,0.1734
1654.00,0.1637
1653.00,0.1527
1652.00,0.1440
1651.00,0.1385
1650.00,0.1348
1649.00,0.1334
1648.00,0.1364
1647.00,0.1462
1646.00,0.1622
1645.00,0.1802
1644.00,0.1972
1643.00,0.2133
1642.00,0.2294
1641.00,0.2458
1640.00,0.2620
1639.00,0.2767
1638.00,0.2896
1637.00,0.3003
1636.00,0.3078
1635.00,0.3100
1634.00,0.3063
1633.00,0.2983
1632.00,0.2880
1631.00,0.2770
1630.00,0.2662
1629.00,0.2559
1628.00,0.2462
1627.00,0.2376
1626.00,0.2305
1625.00,0.2248
1624.00,0.2207
1623.00,0.2188
1622.00,0.2187
1621.00,0.2194
1620.00,0.2202
1619.00,0.2217
1618.00,0.2249
1617.00,0.2301
1616.00,0.2360
1615.00,0.2408
1614.00,0.2442
1613.00,0.2468
1612.00,0.2492
1611.00,0.2511
1610.00,0.2520
1609.00,0.2511
1608.00,0.2486
1607.00,0.2449
1606.00,0.2405
1605.00,0.2358
1604.00,0.2312
1603.00,0.2268
1602.00,0.2221
1601.00,0.2169
1600.00,0.2111
1599.00,0.2051
1598.00,0.1993
1597.00,0.1936
1596.00,0.1885
1595.00,0.1842
1594.00,0.1806
1593.00,0.1776
1592.00,0.1750
1591.00,0.1728
1590.00,0.1708
1589.00,0.1688
1588.00,0.1666
1587.00,0.1644
1586.00,0.1620
1585.00,0.1594
1584.00,0.1564
1583.00,0.1532
1582.00,0.1498
1581.00,0.1462
1580.00,0.1426
1579.00,0.1393
1578.00,0.1364
1577.00,0.1334
1576.00,0.1301
1575.00,0.1270
1574.00,0.1243
1573.00,0.1216
1572.00,0.1190
1571.00,0.1167
1570.00,0.1147
1569.00,0.1128
1568.00,0.1111
1567.00,0.1096
1566.00,0.1083
1565.00,0.1069
1564.00,0.1055
1563.00,0.1042
1562.00,0.1029
1561.00,0.1018
1560.00,0.1013
1559.00,0.1011
1558.00,0.1009
1557.00,0.1005
1556.00,0.0994
1555.00,0.0983
1554.00,0.0971
1553.00,0.0959
1552.00,0.0948
1551.00,0.0938
1550.00,0.0930
1549.00,0.0922
1548.00,0.0913
1547.00,0.0904
1546.00,0.0896
1545.00,0.0887
1544.00,0.0879
1543.00,0.0873
1542.00,0.0868
1541.00,0.0862
1540.00,0.0847
1539.00,0.0831
1538.00,0.0816
1537.00,0.0802
1536.00,0.0788
1535.00,0.0776
1534.00,0.0765
1533.00,0.0755
1532.00,0.0747
1531.00,0.0741
1530.00,0.0736
1529.00,0.0731
1528.00,0.0726
1527.00,0.0723
1526.00,0.0722
1525.00,0.0723
1524.00,0.0723
1523.00,0.0724
1522.00,0.0724
1521.00,0.0721
1520.00,0.0718
1519.00,0.0715
1518.00,0.0710
1517.00,0.0702
1516.00,0.0692
1515.00,0.0682
1514.00,0.0672
1513.00,0.0662
1512.00,0.0652
1511.00,0.0642
1510.00,0.0634
1509.00,0.0629
1508.00,0.0626
1507.00,0.0618
1506.00,0.0609
1505.00,0.0605
1504.00,0.0601
1503.00,0.0597
1502.00,0.0593
1501.00,0.0588
1500.00,0.0583
1499.00,0.0581
1498.00,0.0579
1497.00,0.0576
1496.00,0.0572
1495.00,0.0568
1494.00,0.0564
1493.00,0.0559
1492.00,0.0553
1491.00,0.0548
1490.00,0.0542
1489.00,0.0536
1488.00,0.0530
1487.00,0.0525
1486.00,0.0519
1485.00,0.0512
1484.00,0.0505
1483.00,0.0498
1482.00,0.0491
1481.00,0.0482
1480.00,0.0474
1479.00,0.0466
1478.00,0.0458
1477.00,0.0451
1476.00,0.0444
1475.00,0.0440
1474.00,0.0436
1473.00,0.0431
1472.00,0.0427
1471.00,0.0426
1470.00,0.0427
1469.00,0.0429
1468.00,0.0430
1467.00,0.0430
1466.00,0.0431
1465.00,0.0432
1464.00,0.0435
1463.00,0.0439
1462.00,0.0445
1461.00,0.0451
1460.00,0.0459
1459.00,0.0471
1458.00,0.0487
1457.00,0.0512
1456.00,0.0543
1455.00,0.0577
1454.00,0.0613
1453.00,0.0656
1452.00,0.0707
1451.00,0.0764
1450.00,0.0825
1449.00,0.0885
1448.00,0.0940
1447.00,0.0981
1446.00,0.1005
1445.00,0.1019
1444.00,0.1035
1443.00,0.1059
1442.00,0.1094
1441.00,0.1135
1440.00,0.1172
1439.00,0.1197
1438.00,0.1211
1437.00,0.1214
1436.00,0.1211
1435.00,0.1202
1434.00,0.1192
1433.00,0.1185
1432.00,0.1187
1431.00,0.1204
1430.00,0.1238
1429.00,0.1288
1428.00,0.1345
1427.00,0.1403
1426.00,0.1460
1425.00,0.1518
1424.00,0.1570
1423.00,0.1611
1422.00,0.1640
1421.00,0.1671
1420.00,0.1720
1419.00,0.1791
1418.00,0.1866
1417.00,0.1928
1416.00,0.1967
1415.00,0.1984
1414.00,0.1979
1413.00,0.1952
1412.00,0.1905
1411.00,0.1839
1410.00,0.1762
1409.00,0.1680
1408.00,0.1595
1407.00,0.1509
1406.00,0.1424
1405.00,0.1342
1404.00,0.1264
1403.00,0.1194
1402.00,0.1132
1401.00,0.1076
1400.00,0.1021
1399.00,0.0970
1398.00,0.0927
1397.00,0.0891
1396.00,0.0859
1395.00,0.0829
1394.00,0.0804
1393.00,0.0784
1392.00,0.0768
1391.00,0.0754
1390.00,0.0744
1389.00,0.0739
1388.00,0.0740
1387.00,0.0746
1386.00,0.0757
1385.00,0.0769
1384.00,0.0783
1383.00,0.0809
1382.00,0.0857
1381.00,0.0939
1380.00,0.1063
1379.00,0.1227
1378.00,0.1400
1377.00,0.1537
1376.00,0.1596
1375.00,0.1559
1374.00,0.1445
1373.00,0.1300
1372.00,0.1159
1371.00,0.1036
1370.00,0.0930
1369.00,0.0841
1368.00,0.0768
1367.00,0.0711
1366.00,0.0665
1365.00,0.0627
1364.00,0.0593
1363.00,0.0561
1362.00,0.0533
1361.00,0.0512
1360.00,0.0496
1359.00,0.0484
1358.00,0.0474
1357.00,0.0467
1356.00,0.0463
1355.00,0.0461
1354.00,0.0463
1353.00,0.0468
1352.00,0.0477
1351.00,0.0488
1350.00,0.0505
1349.00,0.0525
1348.00,0.0551
1347.00,0.0582
1346.00,0.0619
1345.00,0.0662
1344.00,0.0710
1343.00,0.0763
1342.00,0.0821
1341.00,0.0887
1340.00,0.0963
1339.00,0.1049
1338.00,0.1143
1337.00,0.1245
1336.00,0.1355
1335.00,0.1472
1334.00,0.1595
1333.00,0.1722
1332.00,0.1849
1331.00,0.1970
1330.00,0.2079
1329.00,0.2168
1328.00,0.2230
1327.00,0.2261
1326.00,0.2262
1325.00,0.2238
1324.00,0.2198
1323.00,0.2152
1322.00,0.2106
1321.00,0.2061
1320.00,0.2017
1319.00,0.1976
1318.00,0.1948
1317.00,0.1944
1316.00,0.1962
1315.00,0.1988
1314.00,0.2001
1313.00,0.1985
1312.00,0.1934
1311.00,0.1857
1310.00,0.1766
1309.00,0.1673
1308.00,0.1591
1307.00,0.1524
1306.00,0.1476
1305.00,0.1442
1304.00,0.1421
1303.00,0.1410
1302.00,0.1415
1301.00,0.1442
1300.00,0.1503
1299.00,0.1599
1298.00,0.1719
1297.00,0.1831
1296.00,0.1898
1295.00,0.1889
1294.00,0.1806
1293.00,0.1674
1292.00,0.1528
1291.00,0.1398
1290.00,0.1301
1289.00,0.1243
1288.00,0.1224
1287.00,0.1239
1286.00,0.1278
1285.00,0.1331
1284.00,0.1387
1283.00,0.1435
1282.00,0.1472
1281.00,0.1498
1280.00,0.1516
1279.00,0.1533
1278.00,0.1558
1277.00,0.1596
1276.00,0.1651
1275.00,0.1722
1274.00,0.1808
1273.00,0.1904
1272.00,0.2009
1271.00,0.2119
1270.00,0.2235
1269.00,0.2359
1268.00,0.2492
1267.00,0.2626
1266.00,0.2750
1265.00,0.2848
1264.00,0.2910
1263.00,0.2930
1262.00,0.2915
1261.00,0.2873
1260.00,0.2813
1259.00,0.2742
1258.00,0.2666
1257.00,0.2589
1256.00,0.2516
1255.00,0.2446
1254.00,0.2381
1253.00,0.2321
1252.00,0.2264
1251.00,0.2211
1250.00,0.2160
1249.00,0.2111
1248.00,0.2063
1247.00,0.2017
1246.00,0.1973
1245.00,0.1930
1244.00,0.1890
1243.00,0.1851
1242.00,0.1814
1241.00,0.1778
1240.00,0.1744
1239.00,0.1710
1238.00,0.1677
1237.00,0.1645
1236.00,0.1614
1235.00,0.1584
1234.00,0.1554
1233.00,0.1526
1232.00,0.1499
1231.00,0.1473
1230.00,0.1449
1229.00,0.1426
1228.00,0.1404
1227.00,0.1384
1226.00,0.1366
1225.00,0.1351
1224.00,0.1340
1223.00,0.1335
1222.00,0.1336
1221.00,0.1341
1220.00,0.1343
1219.00,0.1338
1218.00,0.1322
1217.00,0.1298
1216.00,0.1271
1215.00,0.1247
1214.00,0.1233
1213.00,0.1231
1212.00,0.1247
1211.00,0.1285
1210.00,0.1347
1209.00,0.1437
1208.00,0.1550
1207.00,0.1677
1206.00,0.1802
1205.00,0.1907
1204.00,0.1974
1203.00,0.1998
1202.00,0.1979
1201.00,0.1929
1200.00,0.1861
1199.00,0.1785
1198.00,0.1710
1197.00,0.1638
1196.00,0.1571
1195.00,0.1510
1194.00,0.1454
1193.00,0.1403
1192.00,0.1357
1191.00,0.1315
1190.00,0.1277
1189.00,0.1242
1188.00,0.1209
1187.00,0.1178
1186.00,0.1149
1185.00,0.1120
1184.00,0.1093
1183.00,0.1066
1182.00,0.1041
1181.00,0.1016
1180.00,0.0991
1179.00,0.0967
1178.00,0.0943
1177.00,0.0919
1176.00,0.0895
1175.00,0.0871
1174.00,0.0847
1173.00,0.0823
1172.00,0.0800
1171.00,0.0780
1170.00,0.0762
1169.00,0.0751
1168.00,0.0749
1167.00,0.0759
1166.00,0.0787
1165.00,0.0833
1164.00,0.0896
1163.00,0.0976
1162.00,0.1076
1161.00,0.1200
1160.00,0.1354
1159.00,0.1540
1158.00,0.1746
1157.00,0.1954
1156.00,0.2135
1155.00,0.2264
1154.00,0.2331
1153.00,0.2337
1152.00,0.2297
1151.00,0.2229
1150.00,0.2148
1149.00,0.2066
1148.00,0.1989
1147.00,0.1919
1146.00,0.1857
1145.00,0.1802
1144.00,0.1752
1143.00,0.1705
1142.00,0.1662
1141.00,0.1623
1140.00,0.1587
1139.00,0.1554
1138.00,0.1523
1137.00,0.1494
1136.00,0.1466
1135.00,0.1439
1134.00,0.1412
1133.00,0.1386
1132.00,0.1361
1131.00,0.1337
1130.00,0.1314
1129.00,0.1292
1128.00,0.1271
1127.00,0.1251
1126.00,0.1233
1125.00,0.1215
1124.00,0.1199
1123.00,0.1183
1122.00,0.1168
1121.00,0.1155
1120.00,0.1142
1119.00,0.1130
1118.00,0.1119
1117.00,0.1109
1116.00,0.1099
1115.00,0.1089
1114.00,0.1081
1113.00,0.1073
1112.00,0.1064
1111.00,0.1056
1110.00,0.1048
1109.00,0.1041
1108.00,0.1034
1107.00,0.1027
1106.00,0.1020
1105.00,0.1015
1104.00,0.1009
1103.00,0.1004
1102.00,0.1000
1101.00,0.0995
1100.00,0.0990
1099.00,0.0987
1098.00,0.0984
1097.00,0.0981
1096.00,0.0978
1095.00,0.0976
1094.00,0.0975
1093.00,0.0975
1092.00,0.0979
1091.00,0.0986
1090.00,0.0999
1089.00,0.1015
1088.00,0.1029
1087.00,0.1037
1086.00,0.1036
1085.00,0.1025
1084.00,0.1009
1083.00,0.0993
1082.00,0.0980
1081.00,0.0969
1080.00,0.0960
1079.00,0.0953
1078.00,0.0946
1077.00,0.0941
1076.00,0.0936
1075.00,0.0931
1074.00,0.0926
1073.00,0.0922
1072.00,0.0917
1071.00,0.0912
1070.00,0.0909
1069.00,0.0906
1068.00,0.0903
1067.00,0.0901
1066.00,0.0899
1065.00,0.0897
1064.00,0.0895
1063.00,0.0894
1062.00,0.0895
1061.00,0.0895
1060.00,0.0897
1059.00,0.0898
1058.00,0.0901
1057.00,0.0904
1056.00,0.0908
1055.00,0.0911
1054.00,0.0915
1053.00,0.0919
1052.00,0.0921
1051.00,0.0922
1050.00,0.0923
1049.00,0.0922
1048.00,0.0921
1047.00,0.0919
1046.00,0.0917
1045.00,0.0916
1044.00,0.0914
1043.00,0.0914
1042.00,0.0917
1041.00,0.0926
1040.00,0.0941
1039.00,0.0961
1038.00,0.0985
1037.00,0.1006
1036.00,0.1016
1035.00,0.1014
1034.00,0.0998
1033.00,0.0972
1032.00,0.0944
1031.00,0.0917
1030.00,0.0895
1029.00,0.0877
1028.00,0.0861
1027.00,0.0847
1026.00,0.0834
1025.00,0.0822
1024.00,0.0811
1023.00,0.0800
1022.00,0.0792
1021.00,0.0783
1020.00,0.0776
1019.00,0.0770
1018.00,0.0766
1017.00,0.0764
1016.00,0.0762
1015.00,0.0761
1014.00,0.0763
1013.00,0.0766
1012.00,0.0771
1011.00,0.0778
1010.00,0.0790
1009.00,0.0809
1008.00,0.0839
1007.00,0.0888
1006.00,0.0964
1005.00,0.1082
1004.00,0.1255
1003.00,0.1498
1002.00,0.1818
1001.00,0.2220
1000.00,0.2704
999.00,0.3263
998.00,0.3870
997.00,0.4464
996.00,0.4953
995.00,0.5249
994.00,0.5312
993.00,0.5162
992.00,0.4848
991.00,0.4432
990.00,0.3975
989.00,0.3528
988.00,0.3123
987.00,0.2776
986.00,0.2488
985.00,0.2254
984.00,0.2064
983.00,0.1911
982.00,0.1790
981.00,0.1696
980.00,0.1629
979.00,0.1589
978.00,0.1579
977.00,0.1603
976.00,0.1657
975.00,0.1730
974.00,0.1796
973.00,0.1830
972.00,0.1816
971.00,0.1760
970.00,0.1683
969.00,0.1602
968.00,0.1530
967.00,0.1471
966.00,0.1424
965.00,0.1388
964.00,0.1361
963.00,0.1342
962.00,0.1328
961.00,0.1320
960.00,0.1317
959.00,0.1320
958.00,0.1332
957.00,0.1354
956.00,0.1389
955.00,0.1439
954.00,0.1508
953.00,0.1602
952.00,0.1727
951.00,0.1897
950.00,0.2109
949.00,0.2331
948.00,0.2496
947.00,0.2538
946.00,0.2446
945.00,0.2275
944.00,0.2098
943.00,0.1960
942.00,0.1871
941.00,0.1822
940.00,0.1803
939.00,0.1804
938.00,0.1821
937.00,0.1850
936.00,0.1889
935.00,0.1936
934.00,0.1992
933.00,0.2054
932.00,0.2123
931.00,0.2200
930.00,0.2282
929.00,0.2371
928.00,0.2467
927.00,0.2571
926.00,0.2682
925.00,0.2800
924.00,0.2924
923.00,0.3051
922.00,0.3175
921.00,0.3288
920.00,0.3382
919.00,0.3451
918.00,0.3493
917.00,0.3512
916.00,0.3512
915.00,0.3496
914.00,0.3466
913.00,0.3423
912.00,0.3368
911.00,0.3302
910.00,0.3227
909.00,0.3144
908.00,0.3057
907.00,0.2966
906.00,0.2874
905.00,0.2782
904.00,0.2691
903.00,0.2602
902.00,0.2515
901.00,0.2431
900.00,0.2349
899.00,0.2272
898.00,0.2198
897.00,0.2128
896.00,0.2062
895.00,0.2000
894.00,0.1941
893.00,0.1885
892.00,0.1832
891.00,0.1782
890.00,0.1735
889.00,0.1690
888.00,0.1647
887.00,0.1607
886.00,0.1569
885.00,0.1533
884.00,0.1500
883.00,0.1471
882.00,0.1450
881.00,0.1444
880.00,0.1465
879.00,0.1526
878.00,0.1638
877.00,0.1819
876.00,0.2096
875.00,0.2495
874.00,0.2996
873.00,0.3481
872.00,0.3765
871.00,0.3729
870.00,0.3438
869.00,0.3060
868.00,0.2718
867.00,0.2451
866.00,0.2253
865.00,0.2102
864.00,0.1982
863.00,0.1884
862.00,0.1804
861.00,0.1738
860.00,0.1684
859.00,0.1638
858.00,0.1597
857.00,0.1562
856.00,0.1531
855.00,0.1504
854.00,0.1479
853.00,0.1458
852.00,0.1439
851.00,0.1421
850.00,0.1405
849.00,0.1391
848.00,0.1378
847.00,0.1367
846.00,0.1357
845.00,0.1348
844.00,0.1340
843.00,0.1334
842.00,0.1328
841.00,0.1324
840.00,0.1321
839.00,0.1318
838.00,0.1316
837.00,0.1315
836.00,0.1314
835.00,0.1314
834.00,0.1314
833.00,0.1314
832.00,0.1314
831.00,0.1313
830.00,0.1312
829.00,0.1311
828.00,0.1309
827.00,0.1307
826.00,0.1306
825.00,0.1304
824.00,0.1301
823.00,0.1297
822.00,0.1294
821.00,0.1291
820.00,0.1287
819.00,0.1284
818.00,0.1282
817.00,0.1280
816.00,0.1279
815.00,0.1280
814.00,0.1283
813.00,0.1291
812.00,0.1306
811.00,0.1331
810.00,0.1373
809.00,0.1436
808.00,0.1525
807.00,0.1634
806.00,0.1745
805.00,0.1825
804.00,0.1842
803.00,0.1786
802.00,0.1675
801.00,0.1542
800.00,0.1418
799.00,0.1315
798.00,0.1236
797.00,0.1178
796.00,0.1134
795.00,0.1102
794.00,0.1076
793.00,0.1056
792.00,0.1039
791.00,0.1025
790.00,0.1012
789.00,0.1001
788.00,0.0989
787.00,0.0979
786.00,0.0969
785.00,0.0960
784.00,0.0951
783.00,0.0942
782.00,0.0933
781.00,0.0925
780.00,0.0917
779.00,0.0909
778.00,0.0901
777.00,0.0894
776.00,0.0886
775.00,0.0879
774.00,0.0873
773.00,0.0866
772.00,0.0859
771.00,0.0851
770.00,0.0845
769.00,0.0839
768.00,0.0833
767.00,0.0827
766.00,0.0821
765.00,0.0816
764.00,0.0810
763.00,0.0805
762.00,0.0800
761.00,0.0795
760.00,0.0790
759.00,0.0785
758.00,0.0780
757.00,0.0776
756.00,0.0771
755.00,0.0767
754.00,0.0764
753.00,0.0760
752.00,0.0756
751.00,0.0752
750.00,0.0748
749.00,0.0744
748.00,0.0740
747.00,0.0735
746.00,0.0730
745.00,0.0725
744.00,0.0720
743.00,0.0714
742.00,0.0708
741.00,0.0703
740.00,0.0697
739.00,0.0691
738.00,0.0686
737.00,0.0680
736.00,0.0674
735.00,0.0668
734.00,0.0661
733.00,0.0654
732.00,0.0646
731.00,0.0638
730.00,0.0630
729.00,0.0621
728.00,0.0614
727.00,0.0606
726.00,0.0598
725.00,0.0590
724.00,0.0581
723.00,0.0572
722.00,0.0563
721.00,0.0554
720.00,0.0548
719.00,0.0546
718.00,0.0549
717.00,0.0559
716.00,0.0578
715.00,0.0603
714.00,0.0631
713.00,0.0654
712.00,0.0665
711.00,0.0664
710.00,0.0656
709.00,0.0652
708.00,0.0663
707.00,0.0703
706.00,0.0792
705.00,0.0954
704.00,0.1207
703.00,0.1552
702.00,0.1959
701.00,0.2356
700.00,0.2658
699.00,0.2818
698.00,0.2859
697.00,0.2842
696.00,0.2809
695.00,0.2761
694.00,0.2675
693.00,0.2532
692.00,0.2345
691.00,0.2145
690.00,0.1961
689.00,0.1805
688.00,0.1678
687.00,0.1578
686.00,0.1498
685.00,0.1434
684.00,0.1380
683.00,0.1334
682.00,0.1296
681.00,0.1263
680.00,0.1233
679.00,0.1207
678.00,0.1183
677.00,0.1161
676.00,0.1140
675.00,0.1122
674.00,0.1106
673.00,0.1090
672.00,0.1075
671.00,0.1062
670.00,0.1053
669.00,0.1049
668.00,0.1046
667.00,0.1040
666.00,0.1025
665.00,0.1007
664.00,0.0992
663.00,0.0982
662.00,0.0975
661.00,0.0968
660.00,0.0961
659.00,0.0954
658.00,0.0947
657.00,0.0941
656.00,0.0934
655.00,0.0927
654.00,0.0921
653.00,0.0916
652.00,0.0910
651.00,0.0904
650.00,0.0899
649.00,0.0893
648.00,0.0887
647.00,0.0881
646.00,0.0875
645.00,0.0870
644.00,0.0864
643.00,0.0858
642.00,0.0852
641.00,0.0847
640.00,0.0841
639.00,0.0836
638.00,0.0832
637.00,0.0827
636.00,0.0822
635.00,0.0818
634.00,0.0815
633.00,0.0811
632.00,0.0807
631.00,0.0803
630.00,0.0800
629.00,0.0796
628.00,0.0792
627.00,0.0789
626.00,0.0787
625.00,0.0785
624.00,0.0784
623.00,0.0783
622.00,0.0782
621.00,0.0782
620.00,0.0780
619.00,0.0779
618.00,0.0778
617.00,0.0778
616.00,0.0780
615.00,0.0783
614.00,0.0789
613.00,0.0796
612.00,0.0804
611.00,0.0815
610.00,0.0829
609.00,0.0849
608.00,0.0875
607.00,0.0907
606.00,0.0944
605.00,0.0986
604.00,0.1032
603.00,0.1083
602.00,0.1140
601.00,0.1202
600.00,0.1270
599.00,0.1341
598.00,0.1411
597.00,0.1473
596.00,0.1524
595.00,0.1556
594.00,0.1566
593.00,0.1555
592.00,0.1531
591.00,0.1505
590.00,0.1492
589.00,0.1502
588.00,0.1543
587.00,0.1613
586.00,0.1704
585.00,0.1792
584.00,0.1853
583.00,0.1864
582.00,0.1823
581.00,0.1741
580.00,0.1640
579.00,0.1539
578.00,0.1446
577.00,0.1366
576.00,0.1298
575.00,0.1242
574.00,0.1195
573.00,0.1157
572.00,0.1123
571.00,0.1094
570.00,0.1068
569.00,0.1044
568.00,0.1023
567.00,0.1003
566.00,0.0986
565.00,0.0970
564.00,0.0955
563.00,0.0941
562.00,0.0928
561.00,0.0917
560.00,0.0906
559.00,0.0896
558.00,0.0887
557.00,0.0879
556.00,0.0870
555.00,0.0862
554.00,0.0854
553.00,0.0847
552.00,0.0841
551.00,0.0834
550.00,0.0829
549.00,0.0823
548.00,0.0817
547.00,0.0811
546.00,0.0805
545.00,0.0800
544.00,0.0795
543.00,0.0791
542.00,0.0787
541.00,0.0783
540.00,0.0779
539.00,0.0776
538.00,0.0774
537.00,0.0772
536.00,0.0769
535.00,0.0767
534.00,0.0766
533.00,0.0764
532.00,0.0761
531.00,0.0757
530.00,0.0753
529.00,0.0747
528.00,0.0740
527.00,0.0732
526.00,0.0725
525.00,0.0719
524.00,0.0713
523.00,0.0708
522.00,0.0705
521.00,0.0701
520.00,0.0696
519.00,0.0690
518.00,0.0686
517.00,0.0682
516.00,0.0679
515.00,0.0677
514.00,0.0675
513.00,0.0673
512.00,0.0670
511.00,0.0668
510.00,0.0667
509.00,0.0668
508.00,0.0668
507.00,0.0668
506.00,0.0670
505.00,0.0673
504.00,0.0675
503.00,0.0678
502.00,0.0684
501.00,0.0690
500.00,0.0696
499.00,0.0702
498.00,0.0710
497.00,0.0720
496.00,0.0730
495.00,0.0738
494.00,0.0746
493.00,0.0753
492.00,0.0759
491.00,0.0767
490.00,0.0778
489.00,0.0789
488.00,0.0800
487.00,0.0812
486.00,0.0828
485.00,0.0848
484.00,0.0873
483.00,0.0906
482.00,0.0951
481.00,0.1011
480.00,0.1090
479.00,0.1193
478.00,0.1328
477.00,0.1496
476.00,0.1694
475.00,0.1909
474.00,0.2129
473.00,0.2336
472.00,0.2496
471.00,0.2577
470.00,0.2572
469.00,0.2505
468.00,0.2403
467.00,0.2286
466.00,0.2167
465.00,0.2051
464.00,0.1940
463.00,0.1837
462.00,0.1745
461.00,0.1667
460.00,0.1600
459.00,0.1540
458.00,0.1484
457.00,0.1433
456.00,0.1387
455.00,0.1344
454.00,0.1303
453.00,0.1263
452.00,0.1226
451.00,0.1194
450.00,0.1166
449.00,0.1140
448.00,0.1114
447.00,0.1092
446.00,0.1074
445.00,0.1058
444.00,0.1044
443.00,0.1033
442.00,0.1026
441.00,0.1018
440.00,0.1006
439.00,0.0990
438.00,0.0975
437.00,0.0961
436.00,0.0950
435.00,0.0943
434.00,0.0940
433.00,0.0935
432.00,0.0926
431.00,0.0918
430.00,0.0913
429.00,0.0909
428.00,0.0904
427.00,0.0899
426.00,0.0893
425.00,0.0883
424.00,0.0870
423.00,0.0857
422.00,0.0850
421.00,0.0844
420.00,0.0836
419.00,0.0832
418.00,0.0834
417.00,0.0837
416.00,0.0835
415.00,0.0831
414.00,0.0828
413.00,0.0824
412.00,0.0816
411.00,0.0811
410.00,0.0812
409.00,0.0814
408.00,0.0812
407.00,0.0807
406.00,0.0806
405.00,0.0805
404.00,0.0801
403.00,0.0794
402.00,0.0783
401.00,0.0763
400.00,0.0733
