Created as New Dataset,Sample 1012 By YargerLab Date Friday, August 01 2025
cm-1,A
4000.00,0.0093
3999.00,0.0093
3998.00,0.0093
3997.00,0.0093
3996.00,0.0092
3995.00,0.0092
3994.00,0.0092
3993.00,0.0092
3992.00,0.0092
3991.00,0.0092
3990.00,0.0092
3989.00,0.0092
3988.00,0.0092
3987.00,0.0092
3986.00,0.0092
3985.00,0.0092
3984.00,0.0093
3983.00,0.0093
3982.00,0.0093
3981.00,0.0093
3980.00,0.0093
3979.00,0.0092
3978.00,0.0092
3977.00,0.0092
3976.00,0.0092
3975.00,0.0092
3974.00,0.0092
3973.00,0.0093
3972.00,0.0093
3971.00,0.0093
3970.00,0.0093
3969.00,0.0093
3968.00,0.0093
3967.00,0.0093
3966.00,0.0093
3965.00,0.0093
3964.00,0.0092
3963.00,0.0092
3962.00,0.0092
3961.00,0.0092
3960.00,0.0092
3959.00,0.0092
3958.00,0.0092
3957.00,0.0093
3956.00,0.0093
3955.00,0.0093
3954.00,0.0093
3953.00,0.0092
3952.00,0.0092
3951.00,0.0092
3950.00,0.0092
3949.00,0.0092
3948.00,0.0092
3947.00,0.0092
3946.00,0.0092
3945.00,0.0093
3944.00,0.0093
3943.00,0.0093
3942.00,0.0093
3941.00,0.0093
3940.00,0.0093
3939.00,0.0093
3938.00,0.0093
3937.00,0.0093
3936.00,0.0093
3935.00,0.0093
3934.00,0.0093
3933.00,0.0093
3932.00,0.0093
3931.00,0.0093
3930.00,0.0093
3929.00,0.0093
3928.00,0.0093
3927.00,0.0093
3926.00,0.0093
3925.00,0.0093
3924.00,0.0093
3923.00,0.0093
3922.00,0.0093
3921.00,0.0093
3920.00,0.0093
3919.00,0.0093
3918.00,0.0093
3917.00,0.0093
3916.00,0.0093
3915.00,0.0093
3914.00,0.0093
3913.00,0.0092
3912.00,0.0092
3911.00,0.0092
3910.00,0.0092
3909.00,0.0092
3908.00,0.0093
3907.00,0.0093
3906.00,0.0094
3905.00,0.0094
3904.00,0.0094
3903.00,0.0094
3902.00,0.0095
3901.00,0.0095
3900.00,0.0094
3899.00,0.0094
3898.00,0.0093
3897.00,0.0093
3896.00,0.0093
3895.00,0.0093
3894.00,0.0093
3893.00,0.0093
3892.00,0.0093
3891.00,0.0093
3890.00,0.0094
3889.00,0.0094
3888.00,0.0094
3887.00,0.0094
3886.00,0.0094
3885.00,0.0094
3884.00,0.0094
3883.00,0.0094
3882.00,0.0094
3881.00,0.0093
3880.00,0.0093
3879.00,0.0093
3878.00,0.0093
3877.00,0.0093
3876.00,0.0093
3875.00,0.0094
3874.00,0.0094
3873.00,0.0094
3872.00,0.0095
3871.00,0.0094
3870.00,0.0094
3869.00,0.0094
3868.00,0.0094
3867.00,0.0094
3866.00,0.0094
3865.00,0.0094
3864.00,0.0093
3863.00,0.0093
3862.00,0.0093
3861.00,0.0093
3860.00,0.0093
3859.00,0.0093
3858.00,0.0094
3857.00,0.0094
3856.00,0.0095
3855.00,0.0096
3854.00,0.0095
3853.00,0.0095
3852.00,0.0095
3851.00,0.0095
3850.00,0.0094
3849.00,0.0093
3848.00,0.0092
3847.00,0.0092
3846.00,0.0092
3845.00,0.0093
3844.00,0.0094
3843.00,0.0094
3842.00,0.0095
3841.00,0.0095
3840.00,0.0095
3839.00,0.0094
3838.00,0.0094
3837.00,0.0094
3836.00,0.0094
3835.00,0.0094
3834.00,0.0094
3833.00,0.0093
3832.00,0.0093
3831.00,0.0093
3830.00,0.0093
3829.00,0.0093
3828.00,0.0093
3827.00,0.0093
3826.00,0.0093
3825.00,0.0093
3824.00,0.0094
3823.00,0.0094
3822.00,0.0094
3821.00,0.0094
3820.00,0.0094
3819.00,0.0095
3818.00,0.0095
3817.00,0.0094
3816.00,0.0093
3815.00,0.0093
3814.00,0.0093
3813.00,0.0092
3812.00,0.0092
3811.00,0.0092
3810.00,0.0092
3809.00,0.0092
3808.00,0.0092
3807.00,0.0092
3806.00,0.0093
3805.00,0.0094
3804.00,0.0094
3803.00,0.0094
3802.00,0.0093
3801.00,0.0093
3800.00,0.0093
3799.00,0.0094
3798.00,0.0093
3797.00,0.0093
3796.00,0.0092
3795.00,0.0092
3794.00,0.0092
3793.00,0.0092
3792.00,0.0092
3791.00,0.0092
3790.00,0.0091
3789.00,0.0091
3788.00,0.0091
3787.00,0.0091
3786.00,0.0091
3785.00,0.0091
3784.00,0.0091
3783.00,0.0091
3782.00,0.0091
3781.00,0.0092
3780.00,0.0092
3779.00,0.0092
3778.00,0.0092
3777.00,0.0092
3776.00,0.0091
3775.00,0.0091
3774.00,0.0091
3773.00,0.0092
3772.00,0.0092
3771.00,0.0092
3770.00,0.0092
3769.00,0.0093
3768.00,0.0093
3767.00,0.0093
3766.00,0.0092
3765.00,0.0092
3764.00,0.0092
3763.00,0.0092
3762.00,0.0092
3761.00,0.0093
3760.00,0.0093
3759.00,0.0093
3758.00,0.0093
3757.00,0.0093
3756.00,0.0093
3755.00,0.0094
3754.00,0.0095
3753.00,0.0095
3752.00,0.0095
3751.00,0.0095
3750.00,0.0095
3749.00,0.0095
3748.00,0.0095
3747.00,0.0095
3746.00,0.0095
3745.00,0.0094
3744.00,0.0094
3743.00,0.0094
3742.00,0.0095
3741.00,0.0094
3740.00,0.0094
3739.00,0.0094
3738.00,0.0094
3737.00,0.0095
3736.00,0.0094
3735.00,0.0094
3734.00,0.0094
3733.00,0.0093
3732.00,0.0093
3731.00,0.0092
3730.00,0.0092
3729.00,0.0091
3728.00,0.0091
3727.00,0.0091
3726.00,0.0091
3725.00,0.0091
3724.00,0.0091
3723.00,0.0091
3722.00,0.0091
3721.00,0.0091
3720.00,0.0091
3719.00,0.0091
3718.00,0.0090
3717.00,0.0090
3716.00,0.0091
3715.00,0.0091
3714.00,0.0092
3713.00,0.0092
3712.00,0.0092
3711.00,0.0092
3710.00,0.0092
3709.00,0.0091
3708.00,0.0091
3707.00,0.0091
3706.00,0.0090
3705.00,0.0090
3704.00,0.0090
3703.00,0.0090
3702.00,0.0090
3701.00,0.0090
3700.00,0.0090
3699.00,0.0090
3698.00,0.0090
3697.00,0.0090
3696.00,0.0090
3695.00,0.0090
3694.00,0.0091
3693.00,0.0092
3692.00,0.0092
3691.00,0.0093
3690.00,0.0093
3689.00,0.0093
3688.00,0.0093
3687.00,0.0093
3686.00,0.0093
3685.00,0.0093
3684.00,0.0092
3683.00,0.0093
3682.00,0.0093
3681.00,0.0093
3680.00,0.0094
3679.00,0.0095
3678.00,0.0095
3677.00,0.0096
3676.00,0.0095
3675.00,0.0095
3674.00,0.0096
3673.00,0.0097
3672.00,0.0097
3671.00,0.0096
3670.00,0.0096
3669.00,0.0096
3668.00,0.0096
3667.00,0.0095
3666.00,0.0095
3665.00,0.0095
3664.00,0.0095
3663.00,0.0095
3662.00,0.0095
3661.00,0.0095
3660.00,0.0096
3659.00,0.0096
3658.00,0.0097
3657.00,0.0097
3656.00,0.0098
3655.00,0.0099
3654.00,0.0100
3653.00,0.0101
3652.00,0.0102
3651.00,0.0102
3650.00,0.0102
3649.00,0.0103
3648.00,0.0103
3647.00,0.0103
3646.00,0.0103
3645.00,0.0103
3644.00,0.0103
3643.00,0.0102
3642.00,0.0102
3641.00,0.0102
3640.00,0.0103
3639.00,0.0103
3638.00,0.0103
3637.00,0.0104
3636.00,0.0105
3635.00,0.0106
3634.00,0.0107
3633.00,0.0108
3632.00,0.0109
3631.00,0.0110
3630.00,0.0111
3629.00,0.0111
3628.00,0.0111
3627.00,0.0111
3626.00,0.0112
3625.00,0.0112
3624.00,0.0112
3623.00,0.0112
3622.00,0.0113
3621.00,0.0114
3620.00,0.0114
3619.00,0.0115
3618.00,0.0116
3617.00,0.0117
3616.00,0.0118
3615.00,0.0118
3614.00,0.0119
3613.00,0.0120
3612.00,0.0121
3611.00,0.0121
3610.00,0.0122
3609.00,0.0122
3608.00,0.0123
3607.00,0.0123
3606.00,0.0124
3605.00,0.0124
3604.00,0.0125
3603.00,0.0126
3602.00,0.0126
3601.00,0.0127
3600.00,0.0128
3599.00,0.0129
3598.00,0.0130
3597.00,0.0130
3596.00,0.0131
3595.00,0.0132
3594.00,0.0133
3593.00,0.0134
3592.00,0.0135
3591.00,0.0136
3590.00,0.0137
3589.00,0.0138
3588.00,0.0139
3587.00,0.0140
3586.00,0.0141
3585.00,0.0141
3584.00,0.0142
3583.00,0.0142
3582.00,0.0143
3581.00,0.0144
3580.00,0.0145
3579.00,0.0146
3578.00,0.0147
3577.00,0.0148
3576.00,0.0149
3575.00,0.0150
3574.00,0.0151
3573.00,0.0152
3572.00,0.0154
3571.00,0.0155
3570.00,0.0156
3569.00,0.0157
3568.00,0.0158
3567.00,0.0159
3566.00,0.0160
3565.00,0.0162
3564.00,0.0163
3563.00,0.0164
3562.00,0.0164
3561.00,0.0165
3560.00,0.0166
3559.00,0.0167
3558.00,0.0168
3557.00,0.0169
3556.00,0.0170
3555.00,0.0171
3554.00,0.0172
3553.00,0.0173
3552.00,0.0174
3551.00,0.0176
3550.00,0.0177
3549.00,0.0179
3548.00,0.0180
3547.00,0.0181
3546.00,0.0182
3545.00,0.0182
3544.00,0.0183
3543.00,0.0184
3542.00,0.0185
3541.00,0.0185
3540.00,0.0186
3539.00,0.0187
3538.00,0.0188
3537.00,0.0189
3536.00,0.0190
3535.00,0.0191
3534.00,0.0192
3533.00,0.0193
3532.00,0.0194
3531.00,0.0195
3530.00,0.0196
3529.00,0.0196
3528.00,0.0197
3527.00,0.0198
3526.00,0.0199
3525.00,0.0200
3524.00,0.0201
3523.00,0.0202
3522.00,0.0202
3521.00,0.0203
3520.00,0.0204
3519.00,0.0204
3518.00,0.0205
3517.00,0.0206
3516.00,0.0207
3515.00,0.0207
3514.00,0.0208
3513.00,0.0209
3512.00,0.0209
3511.00,0.0210
3510.00,0.0210
3509.00,0.0211
3508.00,0.0212
3507.00,0.0213
3506.00,0.0213
3505.00,0.0214
3504.00,0.0215
3503.00,0.0216
3502.00,0.0217
3501.00,0.0217
3500.00,0.0218
3499.00,0.0219
3498.00,0.0219
3497.00,0.0220
3496.00,0.0221
3495.00,0.0221
3494.00,0.0222
3493.00,0.0222
3492.00,0.0222
3491.00,0.0223
3490.00,0.0223
3489.00,0.0224
3488.00,0.0225
3487.00,0.0225
3486.00,0.0226
3485.00,0.0227
3484.00,0.0228
3483.00,0.0228
3482.00,0.0229
3481.00,0.0230
3480.00,0.0230
3479.00,0.0231
3478.00,0.0231
3477.00,0.0232
3476.00,0.0233
3475.00,0.0233
3474.00,0.0234
3473.00,0.0235
3472.00,0.0236
3471.00,0.0237
3470.00,0.0238
3469.00,0.0239
3468.00,0.0240
3467.00,0.0240
3466.00,0.0241
3465.00,0.0241
3464.00,0.0242
3463.00,0.0242
3462.00,0.0243
3461.00,0.0244
3460.00,0.0245
3459.00,0.0246
3458.00,0.0246
3457.00,0.0247
3456.00,0.0247
3455.00,0.0248
3454.00,0.0249
3453.00,0.0249
3452.00,0.0250
3451.00,0.0251
3450.00,0.0251
3449.00,0.0252
3448.00,0.0253
3447.00,0.0254
3446.00,0.0255
3445.00,0.0256
3444.00,0.0257
3443.00,0.0257
3442.00,0.0258
3441.00,0.0259
3440.00,0.0260
3439.00,0.0260
3438.00,0.0261
3437.00,0.0262
3436.00,0.0263
3435.00,0.0264
3434.00,0.0266
3433.00,0.0267
3432.00,0.0268
3431.00,0.0268
3430.00,0.0269
3429.00,0.0269
3428.00,0.0270
3427.00,0.0271
3426.00,0.0272
3425.00,0.0273
3424.00,0.0274
3423.00,0.0275
3422.00,0.0276
3421.00,0.0277
3420.00,0.0278
3419.00,0.0279
3418.00,0.0280
3417.00,0.0281
3416.00,0.0282
3415.00,0.0283
3414.00,0.0284
3413.00,0.0285
3412.00,0.0286
3411.00,0.0286
3410.00,0.0286
3409.00,0.0287
3408.00,0.0287
3407.00,0.0287
3406.00,0.0288
3405.00,0.0288
3404.00,0.0289
3403.00,0.0289
3402.00,0.0290
3401.00,0.0290
3400.00,0.0290
3399.00,0.0290
3398.00,0.0289
3397.00,0.0289
3396.00,0.0288
3395.00,0.0288
3394.00,0.0288
3393.00,0.0287
3392.00,0.0286
3391.00,0.0286
3390.00,0.0285
3389.00,0.0284
3388.00,0.0284
3387.00,0.0283
3386.00,0.0282
3385.00,0.0282
3384.00,0.0281
3383.00,0.0280
3382.00,0.0279
3381.00,0.0278
3380.00,0.0278
3379.00,0.0277
3378.00,0.0276
3377.00,0.0275
3376.00,0.0274
3375.00,0.0273
3374.00,0.0272
3373.00,0.0271
3372.00,0.0270
3371.00,0.0270
3370.00,0.0269
3369.00,0.0268
3368.00,0.0267
3367.00,0.0266
3366.00,0.0265
3365.00,0.0264
3364.00,0.0264
3363.00,0.0263
3362.00,0.0263
3361.00,0.0262
3360.00,0.0261
3359.00,0.0261
3358.00,0.0260
3357.00,0.0259
3356.00,0.0258
3355.00,0.0258
3354.00,0.0257
3353.00,0.0256
3352.00,0.0255
3351.00,0.0255
3350.00,0.0254
3349.00,0.0254
3348.00,0.0253
3347.00,0.0253
3346.00,0.0252
3345.00,0.0251
3344.00,0.0251
3343.00,0.0250
3342.00,0.0250
3341.00,0.0249
3340.00,0.0249
3339.00,0.0248
3338.00,0.0248
3337.00,0.0248
3336.00,0.0248
3335.00,0.0248
3334.00,0.0248
3333.00,0.0248
3332.00,0.0248
3331.00,0.0247
3330.00,0.0247
3329.00,0.0246
3328.00,0.0245
3327.00,0.0245
3326.00,0.0244
3325.00,0.0244
3324.00,0.0245
3323.00,0.0245
3322.00,0.0245
3321.00,0.0246
3320.00,0.0246
3319.00,0.0246
3318.00,0.0246
3317.00,0.0246
3316.00,0.0246
3315.00,0.0245
3314.00,0.0245
3313.00,0.0245
3312.00,0.0244
3311.00,0.0244
3310.00,0.0243
3309.00,0.0243
3308.00,0.0243
3307.00,0.0243
3306.00,0.0244
3305.00,0.0244
3304.00,0.0245
3303.00,0.0245
3302.00,0.0246
3301.00,0.0246
3300.00,0.0246
3299.00,0.0246
3298.00,0.0246
3297.00,0.0246
3296.00,0.0246
3295.00,0.0245
3294.00,0.0245
3293.00,0.0246
3292.00,0.0246
3291.00,0.0246
3290.00,0.0247
3289.00,0.0248
3288.00,0.0248
3287.00,0.0249
3286.00,0.0249
3285.00,0.0249
3284.00,0.0249
3283.00,0.0249
3282.00,0.0249
3281.00,0.0249
3280.00,0.0248
3279.00,0.0248
3278.00,0.0248
3277.00,0.0248
3276.00,0.0248
3275.00,0.0248
3274.00,0.0247
3273.00,0.0247
3272.00,0.0247
3271.00,0.0247
3270.00,0.0247
3269.00,0.0248
3268.00,0.0248
3267.00,0.0249
3266.00,0.0249
3265.00,0.0249
3264.00,0.0249
3263.00,0.0249
3262.00,0.0249
3261.00,0.0248
3260.00,0.0248
3259.00,0.0248
3258.00,0.0248
3257.00,0.0247
3256.00,0.0247
3255.00,0.0247
3254.00,0.0247
3253.00,0.0247
3252.00,0.0247
3251.00,0.0247
3250.00,0.0246
3249.00,0.0246
3248.00,0.0245
3247.00,0.0245
3246.00,0.0245
3245.00,0.0245
3244.00,0.0245
3243.00,0.0245
3242.00,0.0245
3241.00,0.0244
3240.00,0.0244
3239.00,0.0244
3238.00,0.0244
3237.00,0.0243
3236.00,0.0242
3235.00,0.0241
3234.00,0.0241
3233.00,0.0240
3232.00,0.0240
3231.00,0.0240
3230.00,0.0239
3229.00,0.0239
3228.00,0.0238
3227.00,0.0237
3226.00,0.0237
3225.00,0.0236
3224.00,0.0235
3223.00,0.0234
3222.00,0.0234
3221.00,0.0233
3220.00,0.0233
3219.00,0.0232
3218.00,0.0231
3217.00,0.0230
3216.00,0.0229
3215.00,0.0229
3214.00,0.0228
3213.00,0.0227
3212.00,0.0226
3211.00,0.0225
3210.00,0.0224
3209.00,0.0223
3208.00,0.0222
3207.00,0.0221
3206.00,0.0220
3205.00,0.0219
3204.00,0.0218
3203.00,0.0217
3202.00,0.0216
3201.00,0.0216
3200.00,0.0215
3199.00,0.0214
3198.00,0.0213
3197.00,0.0212
3196.00,0.0211
3195.00,0.0210
3194.00,0.0209
3193.00,0.0208
3192.00,0.0207
3191.00,0.0206
3190.00,0.0205
3189.00,0.0204
3188.00,0.0203
3187.00,0.0202
3186.00,0.0201
3185.00,0.0201
3184.00,0.0200
3183.00,0.0199
3182.00,0.0198
3181.00,0.0197
3180.00,0.0196
3179.00,0.0195
3178.00,0.0194
3177.00,0.0193
3176.00,0.0192
3175.00,0.0191
3174.00,0.0190
3173.00,0.0189
3172.00,0.0189
3171.00,0.0188
3170.00,0.0187
3169.00,0.0186
3168.00,0.0185
3167.00,0.0185
3166.00,0.0184
3165.00,0.0183
3164.00,0.0182
3163.00,0.0181
3162.00,0.0180
3161.00,0.0179
3160.00,0.0178
3159.00,0.0177
3158.00,0.0176
3157.00,0.0175
3156.00,0.0175
3155.00,0.0174
3154.00,0.0173
3153.00,0.0173
3152.00,0.0172
3151.00,0.0171
3150.00,0.0170
3149.00,0.0169
3148.00,0.0169
3147.00,0.0168
3146.00,0.0167
3145.00,0.0166
3144.00,0.0165
3143.00,0.0165
3142.00,0.0164
3141.00,0.0163
3140.00,0.0163
3139.00,0.0162
3138.00,0.0162
3137.00,0.0162
3136.00,0.0161
3135.00,0.0160
3134.00,0.0160
3133.00,0.0159
3132.00,0.0158
3131.00,0.0157
3130.00,0.0157
3129.00,0.0156
3128.00,0.0156
3127.00,0.0155
3126.00,0.0155
3125.00,0.0154
3124.00,0.0154
3123.00,0.0153
3122.00,0.0153
3121.00,0.0152
3120.00,0.0152
3119.00,0.0151
3118.00,0.0151
3117.00,0.0151
3116.00,0.0150
3115.00,0.0150
3114.00,0.0149
3113.00,0.0148
3112.00,0.0148
3111.00,0.0147
3110.00,0.0147
3109.00,0.0147
3108.00,0.0146
3107.00,0.0145
3106.00,0.0145
3105.00,0.0145
3104.00,0.0144
3103.00,0.0144
3102.00,0.0143
3101.00,0.0143
3100.00,0.0142
3099.00,0.0142
3098.00,0.0142
3097.00,0.0141
3096.00,0.0141
3095.00,0.0141
3094.00,0.0140
3093.00,0.0140
3092.00,0.0140
3091.00,0.0140
3090.00,0.0140
3089.00,0.0140
3088.00,0.0140
3087.00,0.0139
3086.00,0.0139
3085.00,0.0139
3084.00,0.0139
3083.00,0.0139
3082.00,0.0139
3081.00,0.0138
3080.00,0.0138
3079.00,0.0138
3078.00,0.0138
3077.00,0.0138
3076.00,0.0137
3075.00,0.0137
3074.00,0.0136
3073.00,0.0136
3072.00,0.0135
3071.00,0.0135
3070.00,0.0135
3069.00,0.0135
3068.00,0.0135
3067.00,0.0134
3066.00,0.0134
3065.00,0.0134
3064.00,0.0134
3063.00,0.0134
3062.00,0.0133
3061.00,0.0133
3060.00,0.0133
3059.00,0.0133
3058.00,0.0133
3057.00,0.0133
3056.00,0.0133
3055.00,0.0132
3054.00,0.0132
3053.00,0.0132
3052.00,0.0132
3051.00,0.0132
3050.00,0.0132
3049.00,0.0131
3048.00,0.0131
3047.00,0.0131
3046.00,0.0131
3045.00,0.0131
3044.00,0.0131
3043.00,0.0131
3042.00,0.0130
3041.00,0.0130
3040.00,0.0130
3039.00,0.0130
3038.00,0.0130
3037.00,0.0131
3036.00,0.0131
3035.00,0.0132
3034.00,0.0132
3033.00,0.0133
3032.00,0.0133
3031.00,0.0132
3030.00,0.0132
3029.00,0.0132
3028.00,0.0131
3027.00,0.0131
3026.00,0.0130
3025.00,0.0130
3024.00,0.0129
3023.00,0.0129
3022.00,0.0129
3021.00,0.0129
3020.00,0.0128
3019.00,0.0128
3018.00,0.0128
3017.00,0.0128
3016.00,0.0128
3015.00,0.0128
3014.00,0.0128
3013.00,0.0129
3012.00,0.0129
3011.00,0.0130
3010.00,0.0131
3009.00,0.0132
3008.00,0.0133
3007.00,0.0134
3006.00,0.0135
3005.00,0.0136
3004.00,0.0137
3003.00,0.0139
3002.00,0.0141
3001.00,0.0143
3000.00,0.0145
2999.00,0.0148
2998.00,0.0151
2997.00,0.0154
2996.00,0.0157
2995.00,0.0160
2994.00,0.0163
2993.00,0.0166
2992.00,0.0169
2991.00,0.0172
2990.00,0.0175
2989.00,0.0177
2988.00,0.0180
2987.00,0.0182
2986.00,0.0185
2985.00,0.0187
2984.00,0.0191
2983.00,0.0194
2982.00,0.0198
2981.00,0.0203
2980.00,0.0207
2979.00,0.0211
2978.00,0.0214
2977.00,0.0216
2976.00,0.0217
2975.00,0.0219
2974.00,0.0223
2973.00,0.0227
2972.00,0.0232
2971.00,0.0238
2970.00,0.0243
2969.00,0.0247
2968.00,0.0250
2967.00,0.0253
2966.00,0.0255
2965.00,0.0259
2964.00,0.0262
2963.00,0.0266
2962.00,0.0270
2961.00,0.0273
2960.00,0.0275
2959.00,0.0276
2958.00,0.0276
2957.00,0.0274
2956.00,0.0271
2955.00,0.0268
2954.00,0.0265
2953.00,0.0261
2952.00,0.0258
2951.00,0.0255
2950.00,0.0253
2949.00,0.0251
2948.00,0.0250
2947.00,0.0249
2946.00,0.0249
2945.00,0.0249
2944.00,0.0250
2943.00,0.0251
2942.00,0.0252
2941.00,0.0254
2940.00,0.0257
2939.00,0.0260
2938.00,0.0264
2937.00,0.0269
2936.00,0.0275
2935.00,0.0282
2934.00,0.0290
2933.00,0.0298
2932.00,0.0306
2931.00,0.0314
2930.00,0.0322
2929.00,0.0328
2928.00,0.0334
2927.00,0.0337
2926.00,0.0339
2925.00,0.0338
2924.00,0.0336
2923.00,0.0333
2922.00,0.0329
2921.00,0.0324
2920.00,0.0319
2919.00,0.0314
2918.00,0.0308
2917.00,0.0302
2916.00,0.0296
2915.00,0.0290
2914.00,0.0284
2913.00,0.0279
2912.00,0.0274
2911.00,0.0269
2910.00,0.0265
2909.00,0.0260
2908.00,0.0257
2907.00,0.0253
2906.00,0.0250
2905.00,0.0247
2904.00,0.0244
2903.00,0.0242
2902.00,0.0240
2901.00,0.0238
2900.00,0.0236
2899.00,0.0235
2898.00,0.0233
2897.00,0.0232
2896.00,0.0231
2895.00,0.0230
2894.00,0.0229
2893.00,0.0228
2892.00,0.0227
2891.00,0.0225
2890.00,0.0224
2889.00,0.0223
2888.00,0.0222
2887.00,0.0222
2886.00,0.0221
2885.00,0.0220
2884.00,0.0220
2883.00,0.0219
2882.00,0.0219
2881.00,0.0219
2880.00,0.0220
2879.00,0.0221
2878.00,0.0222
2877.00,0.0224
2876.00,0.0226
2875.00,0.0228
2874.00,0.0230
2873.00,0.0231
2872.00,0.0232
2871.00,0.0232
2870.00,0.0231
2869.00,0.0231
2868.00,0.0229
2867.00,0.0229
2866.00,0.0229
2865.00,0.0229
2864.00,0.0231
2863.00,0.0234
2862.00,0.0238
2861.00,0.0243
2860.00,0.0249
2859.00,0.0254
2858.00,0.0258
2857.00,0.0262
2856.00,0.0263
2855.00,0.0263
2854.00,0.0262
2853.00,0.0260
2852.00,0.0256
2851.00,0.0252
2850.00,0.0246
2849.00,0.0239
2848.00,0.0231
2847.00,0.0224
2846.00,0.0217
2845.00,0.0210
2844.00,0.0203
2843.00,0.0198
2842.00,0.0192
2841.00,0.0187
2840.00,0.0183
2839.00,0.0180
2838.00,0.0177
2837.00,0.0174
2836.00,0.0172
2835.00,0.0170
2834.00,0.0168
2833.00,0.0166
2832.00,0.0164
2831.00,0.0162
2830.00,0.0160
2829.00,0.0159
2828.00,0.0157
2827.00,0.0156
2826.00,0.0154
2825.00,0.0153
2824.00,0.0152
2823.00,0.0151
2822.00,0.0149
2821.00,0.0148
2820.00,0.0147
2819.00,0.0146
2818.00,0.0145
2817.00,0.0144
2816.00,0.0143
2815.00,0.0143
2814.00,0.0142
2813.00,0.0141
2812.00,0.0141
2811.00,0.0140
2810.00,0.0140
2809.00,0.0139
2808.00,0.0139
2807.00,0.0138
2806.00,0.0138
2805.00,0.0137
2804.00,0.0137
2803.00,0.0136
2802.00,0.0136
2801.00,0.0135
2800.00,0.0135
2799.00,0.0134
2798.00,0.0134
2797.00,0.0134
2796.00,0.0134
2795.00,0.0133
2794.00,0.0133
2793.00,0.0133
2792.00,0.0132
2791.00,0.0132
2790.00,0.0132
2789.00,0.0131
2788.00,0.0131
2787.00,0.0131
2786.00,0.0131
2785.00,0.0130
2784.00,0.0130
2783.00,0.0129
2782.00,0.0129
2781.00,0.0129
2780.00,0.0129
2779.00,0.0129
2778.00,0.0128
2777.00,0.0128
2776.00,0.0128
2775.00,0.0128
2774.00,0.0127
2773.00,0.0127
2772.00,0.0127
2771.00,0.0127
2770.00,0.0127
2769.00,0.0126
2768.00,0.0126
2767.00,0.0126
2766.00,0.0126
2765.00,0.0126
2764.00,0.0126
2763.00,0.0125
2762.00,0.0125
2761.00,0.0125
2760.00,0.0126
2759.00,0.0126
2758.00,0.0126
2757.00,0.0126
2756.00,0.0125
2755.00,0.0125
2754.00,0.0125
2753.00,0.0125
2752.00,0.0125
2751.00,0.0125
2750.00,0.0125
2749.00,0.0125
2748.00,0.0125
2747.00,0.0125
2746.00,0.0125
2745.00,0.0125
2744.00,0.0125
2743.00,0.0125
2742.00,0.0125
2741.00,0.0125
2740.00,0.0125
2739.00,0.0125
2738.00,0.0125
2737.00,0.0126
2736.00,0.0126
2735.00,0.0126
2734.00,0.0126
2733.00,0.0127
2732.00,0.0127
2731.00,0.0127
2730.00,0.0127
2729.00,0.0127
2728.00,0.0127
2727.00,0.0126
2726.00,0.0126
2725.00,0.0126
2724.00,0.0125
2723.00,0.0125
2722.00,0.0125
2721.00,0.0125
2720.00,0.0125
2719.00,0.0125
2718.00,0.0125
2717.00,0.0125
2716.00,0.0125
2715.00,0.0124
2714.00,0.0124
2713.00,0.0124
2712.00,0.0124
2711.00,0.0124
2710.00,0.0124
2709.00,0.0124
2708.00,0.0124
2707.00,0.0124
2706.00,0.0123
2705.00,0.0123
2704.00,0.0123
2703.00,0.0123
2702.00,0.0123
2701.00,0.0123
2700.00,0.0123
2699.00,0.0122
2698.00,0.0122
2697.00,0.0122
2696.00,0.0123
2695.00,0.0123
2694.00,0.0123
2693.00,0.0123
2692.00,0.0122
2691.00,0.0122
2690.00,0.0122
2689.00,0.0121
2688.00,0.0121
2687.00,0.0121
2686.00,0.0121
2685.00,0.0121
2684.00,0.0121
2683.00,0.0121
2682.00,0.0121
2681.00,0.0121
2680.00,0.0121
2679.00,0.0121
2678.00,0.0121
2677.00,0.0121
2676.00,0.0121
2675.00,0.0121
2674.00,0.0121
2673.00,0.0121
2672.00,0.0121
2671.00,0.0121
2670.00,0.0121
2669.00,0.0121
2668.00,0.0121
2667.00,0.0121
2666.00,0.0122
2665.00,0.0122
2664.00,0.0122
2663.00,0.0123
2662.00,0.0123
2661.00,0.0124
2660.00,0.0124
2659.00,0.0124
2658.00,0.0124
2657.00,0.0125
2656.00,0.0125
2655.00,0.0125
2654.00,0.0125
2653.00,0.0124
2652.00,0.0124
2651.00,0.0124
2650.00,0.0124
2649.00,0.0124
2648.00,0.0124
2647.00,0.0124
2646.00,0.0124
2645.00,0.0124
2644.00,0.0124
2643.00,0.0124
2642.00,0.0124
2641.00,0.0124
2640.00,0.0124
2639.00,0.0124
2638.00,0.0124
2637.00,0.0124
2636.00,0.0124
2635.00,0.0124
2634.00,0.0123
2633.00,0.0123
2632.00,0.0123
2631.00,0.0122
2630.00,0.0122
2629.00,0.0121
2628.00,0.0121
2627.00,0.0121
2626.00,0.0121
2625.00,0.0121
2624.00,0.0121
2623.00,0.0121
2622.00,0.0120
2621.00,0.0120
2620.00,0.0120
2619.00,0.0120
2618.00,0.0119
2617.00,0.0119
2616.00,0.0119
2615.00,0.0120
2614.00,0.0120
2613.00,0.0120
2612.00,0.0120
2611.00,0.0120
2610.00,0.0120
2609.00,0.0120
2608.00,0.0119
2607.00,0.0119
2606.00,0.0119
2605.00,0.0119
2604.00,0.0119
2603.00,0.0119
2602.00,0.0119
2601.00,0.0119
2600.00,0.0119
2599.00,0.0119
2598.00,0.0119
2597.00,0.0119
2596.00,0.0119
2595.00,0.0119
2594.00,0.0119
2593.00,0.0119
2592.00,0.0119
2591.00,0.0119
2590.00,0.0119
2589.00,0.0119
2588.00,0.0119
2587.00,0.0119
2586.00,0.0119
2585.00,0.0119
2584.00,0.0119
2583.00,0.0120
2582.00,0.0120
2581.00,0.0120
2580.00,0.0120
2579.00,0.0119
2578.00,0.0119
2577.00,0.0119
2576.00,0.0118
2575.00,0.0118
2574.00,0.0118
2573.00,0.0118
2572.00,0.0118
2571.00,0.0118
2570.00,0.0118
2569.00,0.0118
2568.00,0.0118
2567.00,0.0118
2566.00,0.0118
2565.00,0.0118
2564.00,0.0118
2563.00,0.0118
2562.00,0.0117
2561.00,0.0117
2560.00,0.0117
2559.00,0.0116
2558.00,0.0116
2557.00,0.0116
2556.00,0.0116
2555.00,0.0117
2554.00,0.0117
2553.00,0.0117
2552.00,0.0117
2551.00,0.0117
2550.00,0.0116
2549.00,0.0116
2548.00,0.0115
2547.00,0.0115
2546.00,0.0115
2545.00,0.0116
2544.00,0.0116
2543.00,0.0116
2542.00,0.0116
2541.00,0.0115
2540.00,0.0115
2539.00,0.0115
2538.00,0.0115
2537.00,0.0115
2536.00,0.0115
2535.00,0.0115
2534.00,0.0115
2533.00,0.0116
2532.00,0.0116
2531.00,0.0115
2530.00,0.0115
2529.00,0.0114
2528.00,0.0114
2527.00,0.0114
2526.00,0.0114
2525.00,0.0114
2524.00,0.0114
2523.00,0.0114
2522.00,0.0113
2521.00,0.0113
2520.00,0.0113
2519.00,0.0113
2518.00,0.0113
2517.00,0.0113
2516.00,0.0113
2515.00,0.0113
2514.00,0.0113
2513.00,0.0113
2512.00,0.0113
2511.00,0.0113
2510.00,0.0114
2509.00,0.0113
2508.00,0.0113
2507.00,0.0112
2506.00,0.0112
2505.00,0.0112
2504.00,0.0112
2503.00,0.0111
2502.00,0.0111
2501.00,0.0111
2500.00,0.0112
2499.00,0.0112
2498.00,0.0112
2497.00,0.0113
2496.00,0.0113
2495.00,0.0113
2494.00,0.0113
2493.00,0.0113
2492.00,0.0113
2491.00,0.0112
2490.00,0.0112
2489.00,0.0112
2488.00,0.0112
2487.00,0.0112
2486.00,0.0111
2485.00,0.0111
2484.00,0.0111
2483.00,0.0111
2482.00,0.0111
2481.00,0.0111
2480.00,0.0111
2479.00,0.0111
2478.00,0.0111
2477.00,0.0111
2476.00,0.0111
2475.00,0.0111
2474.00,0.0111
2473.00,0.0111
2472.00,0.0111
2471.00,0.0111
2470.00,0.0111
2469.00,0.0111
2468.00,0.0110
2467.00,0.0110
2466.00,0.0110
2465.00,0.0110
2464.00,0.0110
2463.00,0.0110
2462.00,0.0111
2461.00,0.0111
2460.00,0.0111
2459.00,0.0111
2458.00,0.0111
2457.00,0.0111
2456.00,0.0111
2455.00,0.0111
2454.00,0.0111
2453.00,0.0111
2452.00,0.0112
2451.00,0.0112
2450.00,0.0112
2449.00,0.0112
2448.00,0.0112
2447.00,0.0111
2446.00,0.0111
2445.00,0.0112
2444.00,0.0112
2443.00,0.0112
2442.00,0.0112
2441.00,0.0111
2440.00,0.0111
2439.00,0.0111
2438.00,0.0110
2437.00,0.0110
2436.00,0.0110
2435.00,0.0110
2434.00,0.0110
2433.00,0.0110
2432.00,0.0109
2431.00,0.0109
2430.00,0.0109
2429.00,0.0110
2428.00,0.0110
2427.00,0.0110
2426.00,0.0110
2425.00,0.0110
2424.00,0.0110
2423.00,0.0110
2422.00,0.0110
2421.00,0.0109
2420.00,0.0110
2419.00,0.0110
2418.00,0.0110
2417.00,0.0109
2416.00,0.0109
2415.00,0.0109
2414.00,0.0109
2413.00,0.0109
2412.00,0.0110
2411.00,0.0110
2410.00,0.0110
2409.00,0.0109
2408.00,0.0109
2407.00,0.0109
2406.00,0.0109
2405.00,0.0109
2404.00,0.0109
2403.00,0.0110
2402.00,0.0110
2401.00,0.0109
2400.00,0.0109
2399.00,0.0109
2398.00,0.0109
2397.00,0.0109
2396.00,0.0109
2395.00,0.0109
2394.00,0.0108
2393.00,0.0108
2392.00,0.0108
2391.00,0.0108
2390.00,0.0109
2389.00,0.0109
2388.00,0.0109
2387.00,0.0108
2386.00,0.0108
2385.00,0.0108
2384.00,0.0108
2383.00,0.0108
2382.00,0.0107
2381.00,0.0107
2380.00,0.0107
2379.00,0.0107
2378.00,0.0107
2377.00,0.0108
2376.00,0.0108
2375.00,0.0109
2374.00,0.0108
2373.00,0.0108
2372.00,0.0108
2371.00,0.0108
2370.00,0.0108
2369.00,0.0108
2368.00,0.0108
2367.00,0.0108
2366.00,0.0108
2365.00,0.0108
2364.00,0.0109
2363.00,0.0110
2362.00,0.0110
2361.00,0.0110
2360.00,0.0110
2359.00,0.0109
2358.00,0.0109
2357.00,0.0109
2356.00,0.0109
2355.00,0.0109
2354.00,0.0109
2353.00,0.0109
2352.00,0.0110
2351.00,0.0110
2350.00,0.0110
2349.00,0.0110
2348.00,0.0110
2347.00,0.0111
2346.00,0.0112
2345.00,0.0112
2344.00,0.0112
2343.00,0.0112
2342.00,0.0112
2341.00,0.0112
2340.00,0.0112
2339.00,0.0112
2338.00,0.0112
2337.00,0.0112
2336.00,0.0111
2335.00,0.0111
2334.00,0.0111
2333.00,0.0111
2332.00,0.0111
2331.00,0.0112
2330.00,0.0112
2329.00,0.0113
2328.00,0.0116
2327.00,0.0119
2326.00,0.0122
2325.00,0.0123
2324.00,0.0123
2323.00,0.0122
2322.00,0.0120
2321.00,0.0119
2320.00,0.0118
2319.00,0.0117
2318.00,0.0117
2317.00,0.0116
2316.00,0.0116
2315.00,0.0116
2314.00,0.0116
2313.00,0.0115
2312.00,0.0115
2311.00,0.0115
2310.00,0.0115
2309.00,0.0114
2308.00,0.0114
2307.00,0.0114
2306.00,0.0114
2305.00,0.0114
2304.00,0.0115
2303.00,0.0114
2302.00,0.0114
2301.00,0.0115
2300.00,0.0115
2299.00,0.0116
2298.00,0.0116
2297.00,0.0117
2296.00,0.0117
2295.00,0.0118
2294.00,0.0119
2293.00,0.0119
2292.00,0.0120
2291.00,0.0120
2290.00,0.0120
2289.00,0.0120
2288.00,0.0120
2287.00,0.0121
2286.00,0.0120
2285.00,0.0119
2284.00,0.0119
2283.00,0.0118
2282.00,0.0118
2281.00,0.0118
2280.00,0.0118
2279.00,0.0118
2278.00,0.0118
2277.00,0.0117
2276.00,0.0117
2275.00,0.0117
2274.00,0.0116
2273.00,0.0116
2272.00,0.0116
2271.00,0.0116
2270.00,0.0115
2269.00,0.0114
2268.00,0.0114
2267.00,0.0113
2266.00,0.0113
2265.00,0.0113
2264.00,0.0113
2263.00,0.0113
2262.00,0.0114
2261.00,0.0114
2260.00,0.0115
2259.00,0.0115
2258.00,0.0114
2257.00,0.0113
2256.00,0.0111
2255.00,0.0110
2254.00,0.0109
2253.00,0.0109
2252.00,0.0110
2251.00,0.0111
2250.00,0.0111
2249.00,0.0111
2248.00,0.0112
2247.00,0.0112
2246.00,0.0113
2245.00,0.0113
2244.00,0.0114
2243.00,0.0114
2242.00,0.0113
2241.00,0.0113
2240.00,0.0113
2239.00,0.0113
2238.00,0.0112
2237.00,0.0112
2236.00,0.0111
2235.00,0.0111
2234.00,0.0112
2233.00,0.0112
2232.00,0.0113
2231.00,0.0113
2230.00,0.0112
2229.00,0.0112
2228.00,0.0112
2227.00,0.0111
2226.00,0.0111
2225.00,0.0112
2224.00,0.0112
2223.00,0.0113
2222.00,0.0113
2221.00,0.0113
2220.00,0.0113
2219.00,0.0114
2218.00,0.0114
2217.00,0.0114
2216.00,0.0114
2215.00,0.0114
2214.00,0.0114
2213.00,0.0115
2212.00,0.0115
2211.00,0.0115
2210.00,0.0114
2209.00,0.0113
2208.00,0.0113
2207.00,0.0112
2206.00,0.0112
2205.00,0.0112
2204.00,0.0112
2203.00,0.0112
2202.00,0.0113
2201.00,0.0113
2200.00,0.0113
2199.00,0.0113
2198.00,0.0112
2197.00,0.0112
2196.00,0.0113
2195.00,0.0115
2194.00,0.0116
2193.00,0.0117
2192.00,0.0118
2191.00,0.0117
2190.00,0.0116
2189.00,0.0115
2188.00,0.0115
2187.00,0.0115
2186.00,0.0115
2185.00,0.0114
2184.00,0.0113
2183.00,0.0111
2182.00,0.0109
2181.00,0.0109
2180.00,0.0111
2179.00,0.0111
2178.00,0.0111
2177.00,0.0110
2176.00,0.0109
2175.00,0.0109
2174.00,0.0110
2173.00,0.0111
2172.00,0.0113
2171.00,0.0114
2170.00,0.0116
2169.00,0.0119
2168.00,0.0120
2167.00,0.0121
2166.00,0.0121
2165.00,0.0121
2164.00,0.0122
2163.00,0.0123
2162.00,0.0121
2161.00,0.0113
2160.00,0.0102
2159.00,0.0093
2158.00,0.0088
2157.00,0.0088
2156.00,0.0090
2155.00,0.0092
2154.00,0.0094
2153.00,0.0095
2152.00,0.0097
2151.00,0.0098
2150.00,0.0098
2149.00,0.0098
2148.00,0.0098
2147.00,0.0097
2146.00,0.0097
2145.00,0.0097
2144.00,0.0097
2143.00,0.0098
2142.00,0.0097
2141.00,0.0097
2140.00,0.0097
2139.00,0.0097
2138.00,0.0096
2137.00,0.0096
2136.00,0.0094
2135.00,0.0094
2134.00,0.0094
2133.00,0.0095
2132.00,0.0097
2131.00,0.0098
2130.00,0.0099
2129.00,0.0101
2128.00,0.0102
2127.00,0.0103
2126.00,0.0104
2125.00,0.0105
2124.00,0.0105
2123.00,0.0106
2122.00,0.0106
2121.00,0.0106
2120.00,0.0107
2119.00,0.0108
2118.00,0.0109
2117.00,0.0110
2116.00,0.0112
2115.00,0.0112
2114.00,0.0112
2113.00,0.0112
2112.00,0.0111
2111.00,0.0111
2110.00,0.0110
2109.00,0.0110
2108.00,0.0111
2107.00,0.0111
2106.00,0.0111
2105.00,0.0111
2104.00,0.0111
2103.00,0.0110
2102.00,0.0110
2101.00,0.0110
2100.00,0.0109
2099.00,0.0108
2098.00,0.0106
2097.00,0.0104
2096.00,0.0103
2095.00,0.0103
2094.00,0.0103
2093.00,0.0104
2092.00,0.0105
2091.00,0.0106
2090.00,0.0107
2089.00,0.0107
2088.00,0.0107
2087.00,0.0107
2086.00,0.0107
2085.00,0.0108
2084.00,0.0109
2083.00,0.0109
2082.00,0.0109
2081.00,0.0109
2080.00,0.0110
2079.00,0.0110
2078.00,0.0110
2077.00,0.0110
2076.00,0.0110
2075.00,0.0109
2074.00,0.0110
2073.00,0.0110
2072.00,0.0111
2071.00,0.0111
2070.00,0.0110
2069.00,0.0109
2068.00,0.0108
2067.00,0.0107
2066.00,0.0107
2065.00,0.0107
2064.00,0.0107
2063.00,0.0106
2062.00,0.0106
2061.00,0.0106
2060.00,0.0106
2059.00,0.0106
2058.00,0.0105
2057.00,0.0105
2056.00,0.0104
2055.00,0.0105
2054.00,0.0107
2053.00,0.0111
2052.00,0.0115
2051.00,0.0117
2050.00,0.0115
2049.00,0.0112
2048.00,0.0109
2047.00,0.0108
2046.00,0.0107
2045.00,0.0107
2044.00,0.0108
2043.00,0.0109
2042.00,0.0109
2041.00,0.0108
2040.00,0.0108
2039.00,0.0107
2038.00,0.0106
2037.00,0.0105
2036.00,0.0104
2035.00,0.0103
2034.00,0.0101
2033.00,0.0099
2032.00,0.0099
2031.00,0.0099
2030.00,0.0098
2029.00,0.0099
2028.00,0.0099
2027.00,0.0099
2026.00,0.0098
2025.00,0.0097
2024.00,0.0098
2023.00,0.0099
2022.00,0.0099
2021.00,0.0099
2020.00,0.0098
2019.00,0.0098
2018.00,0.0097
2017.00,0.0097
2016.00,0.0097
2015.00,0.0098
2014.00,0.0097
2013.00,0.0098
2012.00,0.0099
2011.00,0.0100
2010.00,0.0099
2009.00,0.0097
2008.00,0.0095
2007.00,0.0092
2006.00,0.0090
2005.00,0.0089
2004.00,0.0090
2003.00,0.0092
2002.00,0.0092
2001.00,0.0093
2000.00,0.0094
1999.00,0.0095
1998.00,0.0096
1997.00,0.0097
1996.00,0.0098
1995.00,0.0098
1994.00,0.0097
1993.00,0.0097
1992.00,0.0098
1991.00,0.0099
1990.00,0.0100
1989.00,0.0101
1988.00,0.0102
1987.00,0.0104
1986.00,0.0105
1985.00,0.0107
1984.00,0.0110
1983.00,0.0112
1982.00,0.0114
1981.00,0.0114
1980.00,0.0112
1979.00,0.0107
1978.00,0.0100
1977.00,0.0095
1976.00,0.0094
1975.00,0.0093
1974.00,0.0093
1973.00,0.0093
1972.00,0.0094
1971.00,0.0095
1970.00,0.0094
1969.00,0.0094
1968.00,0.0093
1967.00,0.0092
1966.00,0.0091
1965.00,0.0091
1964.00,0.0092
1963.00,0.0092
1962.00,0.0091
1961.00,0.0091
1960.00,0.0091
1959.00,0.0090
1958.00,0.0090
1957.00,0.0090
1956.00,0.0091
1955.00,0.0091
1954.00,0.0091
1953.00,0.0091
1952.00,0.0091
1951.00,0.0091
1950.00,0.0091
1949.00,0.0091
1948.00,0.0092
1947.00,0.0091
1946.00,0.0090
1945.00,0.0090
1944.00,0.0090
1943.00,0.0090
1942.00,0.0091
1941.00,0.0092
1940.00,0.0092
1939.00,0.0093
1938.00,0.0092
1937.00,0.0092
1936.00,0.0092
1935.00,0.0092
1934.00,0.0092
1933.00,0.0092
1932.00,0.0093
1931.00,0.0094
1930.00,0.0094
1929.00,0.0094
1928.00,0.0093
1927.00,0.0092
1926.00,0.0092
1925.00,0.0092
1924.00,0.0093
1923.00,0.0094
1922.00,0.0095
1921.00,0.0096
1920.00,0.0096
1919.00,0.0096
1918.00,0.0095
1917.00,0.0095
1916.00,0.0095
1915.00,0.0095
1914.00,0.0095
1913.00,0.0096
1912.00,0.0097
1911.00,0.0098
1910.00,0.0099
1909.00,0.0100
1908.00,0.0100
1907.00,0.0100
1906.00,0.0099
1905.00,0.0098
1904.00,0.0097
1903.00,0.0097
1902.00,0.0097
1901.00,0.0097
1900.00,0.0097
1899.00,0.0097
1898.00,0.0097
1897.00,0.0097
1896.00,0.0098
1895.00,0.0098
1894.00,0.0098
1893.00,0.0098
1892.00,0.0098
1891.00,0.0098
1890.00,0.0097
1889.00,0.0097
1888.00,0.0096
1887.00,0.0095
1886.00,0.0095
1885.00,0.0095
1884.00,0.0095
1883.00,0.0096
1882.00,0.0096
1881.00,0.0096
1880.00,0.0096
1879.00,0.0096
1878.00,0.0095
1877.00,0.0095
1876.00,0.0095
1875.00,0.0095
1874.00,0.0095
1873.00,0.0096
1872.00,0.0096
1871.00,0.0096
1870.00,0.0095
1869.00,0.0095
1868.00,0.0095
1867.00,0.0095
1866.00,0.0095
1865.00,0.0095
1864.00,0.0095
1863.00,0.0096
1862.00,0.0096
1861.00,0.0096
1860.00,0.0096
1859.00,0.0096
1858.00,0.0096
1857.00,0.0096
1856.00,0.0096
1855.00,0.0096
1854.00,0.0095
1853.00,0.0095
1852.00,0.0095
1851.00,0.0095
1850.00,0.0095
1849.00,0.0095
1848.00,0.0096
1847.00,0.0096
1846.00,0.0096
1845.00,0.0096
1844.00,0.0096
1843.00,0.0096
1842.00,0.0095
1841.00,0.0094
1840.00,0.0094
1839.00,0.0095
1838.00,0.0095
1837.00,0.0095
1836.00,0.0096
1835.00,0.0096
1834.00,0.0095
1833.00,0.0095
1832.00,0.0095
1831.00,0.0094
1830.00,0.0094
1829.00,0.0094
1828.00,0.0093
1827.00,0.0093
1826.00,0.0093
1825.00,0.0093
1824.00,0.0094
1823.00,0.0094
1822.00,0.0094
1821.00,0.0094
1820.00,0.0093
1819.00,0.0093
1818.00,0.0092
1817.00,0.0091
1816.00,0.0091
1815.00,0.0092
1814.00,0.0092
1813.00,0.0093
1812.00,0.0093
1811.00,0.0093
1810.00,0.0093
1809.00,0.0093
1808.00,0.0093
1807.00,0.0093
1806.00,0.0093
1805.00,0.0094
1804.00,0.0094
1803.00,0.0094
1802.00,0.0094
1801.00,0.0094
1800.00,0.0094
1799.00,0.0094
1798.00,0.0094
1797.00,0.0094
1796.00,0.0094
1795.00,0.0094
1794.00,0.0094
1793.00,0.0093
1792.00,0.0093
1791.00,0.0093
1790.00,0.0093
1789.00,0.0092
1788.00,0.0093
1787.00,0.0093
1786.00,0.0093
1785.00,0.0093
1784.00,0.0094
1783.00,0.0094
1782.00,0.0093
1781.00,0.0093
1780.00,0.0093
1779.00,0.0093
1778.00,0.0093
1777.00,0.0093
1776.00,0.0094
1775.00,0.0094
1774.00,0.0094
1773.00,0.0094
1772.00,0.0093
1771.00,0.0093
1770.00,0.0092
1769.00,0.0091
1768.00,0.0092
1767.00,0.0093
1766.00,0.0093
1765.00,0.0093
1764.00,0.0094
1763.00,0.0094
1762.00,0.0094
1761.00,0.0094
1760.00,0.0094
1759.00,0.0094
1758.00,0.0094
1757.00,0.0094
1756.00,0.0095
1755.00,0.0095
1754.00,0.0094
1753.00,0.0094
1752.00,0.0094
1751.00,0.0094
1750.00,0.0094
1749.00,0.0093
1748.00,0.0093
1747.00,0.0094
1746.00,0.0094
1745.00,0.0095
1744.00,0.0095
1743.00,0.0096
1742.00,0.0095
1741.00,0.0095
1740.00,0.0095
1739.00,0.0096
1738.00,0.0095
1737.00,0.0095
1736.00,0.0095
1735.00,0.0095
1734.00,0.0095
1733.00,0.0095
1732.00,0.0096
1731.00,0.0096
1730.00,0.0098
1729.00,0.0101
1728.00,0.0103
1727.00,0.0104
1726.00,0.0104
1725.00,0.0105
1724.00,0.0106
1723.00,0.0108
1722.00,0.0108
1721.00,0.0108
1720.00,0.0108
1719.00,0.0109
1718.00,0.0109
1717.00,0.0109
1716.00,0.0110
1715.00,0.0111
1714.00,0.0113
1713.00,0.0115
1712.00,0.0118
1711.00,0.0120
1710.00,0.0123
1709.00,0.0125
1708.00,0.0127
1707.00,0.0130
1706.00,0.0133
1705.00,0.0136
1704.00,0.0140
1703.00,0.0143
1702.00,0.0145
1701.00,0.0151
1700.00,0.0160
1699.00,0.0168
1698.00,0.0173
1697.00,0.0182
1696.00,0.0197
1695.00,0.0213
1694.00,0.0226
1693.00,0.0238
1692.00,0.0253
1691.00,0.0269
1690.00,0.0287
1689.00,0.0305
1688.00,0.0322
1687.00,0.0338
1686.00,0.0353
1685.00,0.0374
1684.00,0.0402
1683.00,0.0428
1682.00,0.0447
1681.00,0.0466
1680.00,0.0487
1679.00,0.0508
1678.00,0.0526
1677.00,0.0544
1676.00,0.0565
1675.00,0.0588
1674.00,0.0610
1673.00,0.0629
1672.00,0.0646
1671.00,0.0665
1670.00,0.0686
1669.00,0.0708
1668.00,0.0730
1667.00,0.0750
1666.00,0.0767
1665.00,0.0783
1664.00,0.0800
1663.00,0.0819
1662.00,0.0837
1661.00,0.0853
1660.00,0.0869
1659.00,0.0883
1658.00,0.0896
1657.00,0.0908
1656.00,0.0918
1655.00,0.0925
1654.00,0.0930
1653.00,0.0934
1652.00,0.0942
1651.00,0.0949
1650.00,0.0954
1649.00,0.0956
1648.00,0.0955
1647.00,0.0950
1646.00,0.0944
1645.00,0.0938
1644.00,0.0933
1643.00,0.0927
1642.00,0.0919
1641.00,0.0909
1640.00,0.0898
1639.00,0.0885
1638.00,0.0870
1637.00,0.0850
1636.00,0.0824
1635.00,0.0800
1634.00,0.0780
1633.00,0.0766
1632.00,0.0755
1631.00,0.0745
1630.00,0.0736
1629.00,0.0728
1628.00,0.0725
1627.00,0.0724
1626.00,0.0724
1625.00,0.0722
1624.00,0.0720
1623.00,0.0715
1622.00,0.0708
1621.00,0.0699
1620.00,0.0687
1619.00,0.0671
1618.00,0.0647
1617.00,0.0618
1616.00,0.0590
1615.00,0.0570
1614.00,0.0557
1613.00,0.0549
1612.00,0.0542
1611.00,0.0535
1610.00,0.0526
1609.00,0.0514
1608.00,0.0499
1607.00,0.0482
1606.00,0.0464
1605.00,0.0447
1604.00,0.0429
1603.00,0.0413
1602.00,0.0397
1601.00,0.0383
1600.00,0.0370
1599.00,0.0358
1598.00,0.0348
1597.00,0.0340
1596.00,0.0333
1595.00,0.0329
1594.00,0.0326
1593.00,0.0325
1592.00,0.0327
1591.00,0.0332
1590.00,0.0339
1589.00,0.0347
1588.00,0.0357
1587.00,0.0365
1586.00,0.0372
1585.00,0.0377
1584.00,0.0378
1583.00,0.0377
1582.00,0.0373
1581.00,0.0368
1580.00,0.0361
1579.00,0.0354
1578.00,0.0344
1577.00,0.0333
1576.00,0.0321
1575.00,0.0311
1574.00,0.0303
1573.00,0.0297
1572.00,0.0292
1571.00,0.0288
1570.00,0.0283
1569.00,0.0279
1568.00,0.0275
1567.00,0.0270
1566.00,0.0265
1565.00,0.0259
1564.00,0.0252
1563.00,0.0245
1562.00,0.0239
1561.00,0.0232
1560.00,0.0223
1559.00,0.0215
1558.00,0.0210
1557.00,0.0207
1556.00,0.0205
1555.00,0.0205
1554.00,0.0205
1553.00,0.0204
1552.00,0.0203
1551.00,0.0202
1550.00,0.0201
1549.00,0.0200
1548.00,0.0198
1547.00,0.0196
1546.00,0.0194
1545.00,0.0193
1544.00,0.0190
1543.00,0.0188
1542.00,0.0185
1541.00,0.0182
1540.00,0.0180
1539.00,0.0179
1538.00,0.0179
1537.00,0.0179
1536.00,0.0179
1535.00,0.0179
1534.00,0.0179
1533.00,0.0178
1532.00,0.0177
1531.00,0.0176
1530.00,0.0176
1529.00,0.0176
1528.00,0.0175
1527.00,0.0175
1526.00,0.0174
1525.00,0.0174
1524.00,0.0173
1523.00,0.0172
1522.00,0.0172
1521.00,0.0173
1520.00,0.0174
1519.00,0.0175
1518.00,0.0176
1517.00,0.0179
1516.00,0.0182
1515.00,0.0185
1514.00,0.0187
1513.00,0.0189
1512.00,0.0192
1511.00,0.0194
1510.00,0.0196
1509.00,0.0197
1508.00,0.0199
1507.00,0.0204
1506.00,0.0211
1505.00,0.0218
1504.00,0.0226
1503.00,0.0235
1502.00,0.0246
1501.00,0.0260
1500.00,0.0276
1499.00,0.0294
1498.00,0.0315
1497.00,0.0335
1496.00,0.0350
1495.00,0.0357
1494.00,0.0356
1493.00,0.0350
1492.00,0.0339
1491.00,0.0325
1490.00,0.0308
1489.00,0.0291
1488.00,0.0276
1487.00,0.0262
1486.00,0.0251
1485.00,0.0241
1484.00,0.0233
1483.00,0.0226
1482.00,0.0220
1481.00,0.0216
1480.00,0.0213
1479.00,0.0212
1478.00,0.0212
1477.00,0.0214
1476.00,0.0218
1475.00,0.0223
1474.00,0.0230
1473.00,0.0244
1472.00,0.0265
1471.00,0.0288
1470.00,0.0313
1469.00,0.0341
1468.00,0.0370
1467.00,0.0401
1466.00,0.0431
1465.00,0.0459
1464.00,0.0482
1463.00,0.0496
1462.00,0.0503
1461.00,0.0506
1460.00,0.0504
1459.00,0.0496
1458.00,0.0479
1457.00,0.0455
1456.00,0.0432
1455.00,0.0414
1454.00,0.0403
1453.00,0.0396
1452.00,0.0393
1451.00,0.0393
1450.00,0.0397
1449.00,0.0406
1448.00,0.0420
1447.00,0.0438
1446.00,0.0457
1445.00,0.0479
1444.00,0.0501
1443.00,0.0524
1442.00,0.0546
1441.00,0.0565
1440.00,0.0580
1439.00,0.0591
1438.00,0.0598
1437.00,0.0604
1436.00,0.0609
1435.00,0.0611
1434.00,0.0613
1433.00,0.0615
1432.00,0.0618
1431.00,0.0622
1430.00,0.0628
1429.00,0.0638
1428.00,0.0650
1427.00,0.0663
1426.00,0.0676
1425.00,0.0689
1424.00,0.0699
1423.00,0.0704
1422.00,0.0703
1421.00,0.0694
1420.00,0.0675
1419.00,0.0644
1418.00,0.0610
1417.00,0.0578
1416.00,0.0548
1415.00,0.0519
1414.00,0.0493
1413.00,0.0469
1412.00,0.0448
1411.00,0.0430
1410.00,0.0417
1409.00,0.0409
1408.00,0.0403
1407.00,0.0401
1406.00,0.0402
1405.00,0.0406
1404.00,0.0411
1403.00,0.0415
1402.00,0.0418
1401.00,0.0419
1400.00,0.0417
1399.00,0.0412
1398.00,0.0404
1397.00,0.0394
1396.00,0.0382
1395.00,0.0368
1394.00,0.0355
1393.00,0.0345
1392.00,0.0336
1391.00,0.0330
1390.00,0.0328
1389.00,0.0329
1388.00,0.0334
1387.00,0.0341
1386.00,0.0346
1385.00,0.0347
1384.00,0.0346
1383.00,0.0346
1382.00,0.0349
1381.00,0.0353
1380.00,0.0359
1379.00,0.0363
1378.00,0.0366
1377.00,0.0367
1376.00,0.0365
1375.00,0.0361
1374.00,0.0355
1373.00,0.0349
1372.00,0.0345
1371.00,0.0342
1370.00,0.0342
1369.00,0.0345
1368.00,0.0350
1367.00,0.0356
1366.00,0.0361
1365.00,0.0363
1364.00,0.0362
1363.00,0.0361
1362.00,0.0364
1361.00,0.0370
1360.00,0.0373
1359.00,0.0370
1358.00,0.0361
1357.00,0.0348
1356.00,0.0336
1355.00,0.0325
1354.00,0.0317
1353.00,0.0312
1352.00,0.0307
1351.00,0.0304
1350.00,0.0303
1349.00,0.0302
1348.00,0.0302
1347.00,0.0301
1346.00,0.0300
1345.00,0.0298
1344.00,0.0295
1343.00,0.0291
1342.00,0.0287
1341.00,0.0282
1340.00,0.0277
1339.00,0.0273
1338.00,0.0270
1337.00,0.0269
1336.00,0.0270
1335.00,0.0272
1334.00,0.0276
1333.00,0.0281
1332.00,0.0286
1331.00,0.0292
1330.00,0.0298
1329.00,0.0304
1328.00,0.0311
1327.00,0.0317
1326.00,0.0323
1325.00,0.0329
1324.00,0.0335
1323.00,0.0342
1322.00,0.0348
1321.00,0.0355
1320.00,0.0360
1319.00,0.0363
1318.00,0.0364
1317.00,0.0363
1316.00,0.0360
1315.00,0.0355
1314.00,0.0349
1313.00,0.0343
1312.00,0.0336
1311.00,0.0331
1310.00,0.0328
1309.00,0.0327
1308.00,0.0328
1307.00,0.0332
1306.00,0.0339
1305.00,0.0350
1304.00,0.0366
1303.00,0.0384
1302.00,0.0405
1301.00,0.0427
1300.00,0.0448
1299.00,0.0470
1298.00,0.0494
1297.00,0.0521
1296.00,0.0553
1295.00,0.0588
1294.00,0.0624
1293.00,0.0659
1292.00,0.0690
1291.00,0.0716
1290.00,0.0737
1289.00,0.0754
1288.00,0.0767
1287.00,0.0775
1286.00,0.0779
1285.00,0.0778
1284.00,0.0773
1283.00,0.0764
1282.00,0.0752
1281.00,0.0739
1280.00,0.0727
1279.00,0.0716
1278.00,0.0708
1277.00,0.0703
1276.00,0.0701
1275.00,0.0700
1274.00,0.0699
1273.00,0.0696
1272.00,0.0690
1271.00,0.0681
1270.00,0.0669
1269.00,0.0654
1268.00,0.0637
1267.00,0.0619
1266.00,0.0599
1265.00,0.0578
1264.00,0.0558
1263.00,0.0538
1262.00,0.0518
1261.00,0.0499
1260.00,0.0482
1259.00,0.0466
1258.00,0.0452
1257.00,0.0439
1256.00,0.0427
1255.00,0.0417
1254.00,0.0408
1253.00,0.0401
1252.00,0.0395
1251.00,0.0391
1250.00,0.0388
1249.00,0.0388
1248.00,0.0389
1247.00,0.0393
1246.00,0.0398
1245.00,0.0403
1244.00,0.0409
1243.00,0.0414
1242.00,0.0418
1241.00,0.0422
1240.00,0.0427
1239.00,0.0434
1238.00,0.0443
1237.00,0.0454
1236.00,0.0465
1235.00,0.0476
1234.00,0.0485
1233.00,0.0490
1232.00,0.0491
1231.00,0.0488
1230.00,0.0483
1229.00,0.0476
1228.00,0.0468
1227.00,0.0461
1226.00,0.0455
1225.00,0.0450
1224.00,0.0446
1223.00,0.0443
1222.00,0.0442
1221.00,0.0441
1220.00,0.0443
1219.00,0.0445
1218.00,0.0448
1217.00,0.0451
1216.00,0.0454
1215.00,0.0456
1214.00,0.0455
1213.00,0.0451
1212.00,0.0444
1211.00,0.0435
1210.00,0.0424
1209.00,0.0413
1208.00,0.0403
1207.00,0.0395
1206.00,0.0388
1205.00,0.0383
1204.00,0.0382
1203.00,0.0382
1202.00,0.0385
1201.00,0.0390
1200.00,0.0397
1199.00,0.0405
1198.00,0.0415
1197.00,0.0425
1196.00,0.0435
1195.00,0.0442
1194.00,0.0444
1193.00,0.0442
1192.00,0.0436
1191.00,0.0426
1190.00,0.0415
1189.00,0.0402
1188.00,0.0390
1187.00,0.0378
1186.00,0.0367
1185.00,0.0357
1184.00,0.0349
1183.00,0.0343
1182.00,0.0339
1181.00,0.0335
1180.00,0.0333
1179.00,0.0332
1178.00,0.0332
1177.00,0.0333
1176.00,0.0334
1175.00,0.0335
1174.00,0.0337
1173.00,0.0339
1172.00,0.0341
1171.00,0.0341
1170.00,0.0342
1169.00,0.0341
1168.00,0.0341
1167.00,0.0340
1166.00,0.0338
1165.00,0.0337
1164.00,0.0336
1163.00,0.0336
1162.00,0.0337
1161.00,0.0341
1160.00,0.0348
1159.00,0.0360
1158.00,0.0375
1157.00,0.0393
1156.00,0.0409
1155.00,0.0420
1154.00,0.0421
1153.00,0.0412
1152.00,0.0395
1151.00,0.0373
1150.00,0.0352
1149.00,0.0334
1148.00,0.0319
1147.00,0.0309
1146.00,0.0301
1145.00,0.0295
1144.00,0.0291
1143.00,0.0288
1142.00,0.0286
1141.00,0.0284
1140.00,0.0283
1139.00,0.0283
1138.00,0.0284
1137.00,0.0287
1136.00,0.0292
1135.00,0.0301
1134.00,0.0315
1133.00,0.0335
1132.00,0.0358
1131.00,0.0382
1130.00,0.0404
1129.00,0.0419
1128.00,0.0426
1127.00,0.0424
1126.00,0.0417
1125.00,0.0405
1124.00,0.0390
1123.00,0.0374
1122.00,0.0358
1121.00,0.0344
1120.00,0.0332
1119.00,0.0323
1118.00,0.0317
1117.00,0.0313
1116.00,0.0311
1115.00,0.0310
1114.00,0.0309
1113.00,0.0308
1112.00,0.0305
1111.00,0.0302
1110.00,0.0299
1109.00,0.0296
1108.00,0.0294
1107.00,0.0294
1106.00,0.0295
1105.00,0.0299
1104.00,0.0307
1103.00,0.0318
1102.00,0.0332
1101.00,0.0346
1100.00,0.0357
1099.00,0.0361
1098.00,0.0359
1097.00,0.0350
1096.00,0.0337
1095.00,0.0324
1094.00,0.0312
1093.00,0.0302
1092.00,0.0294
1091.00,0.0288
1090.00,0.0284
1089.00,0.0280
1088.00,0.0277
1087.00,0.0275
1086.00,0.0273
1085.00,0.0272
1084.00,0.0271
1083.00,0.0270
1082.00,0.0270
1081.00,0.0270
1080.00,0.0271
1079.00,0.0272
1078.00,0.0273
1077.00,0.0274
1076.00,0.0275
1075.00,0.0276
1074.00,0.0276
1073.00,0.0277
1072.00,0.0277
1071.00,0.0278
1070.00,0.0279
1069.00,0.0280
1068.00,0.0281
1067.00,0.0283
1066.00,0.0285
1065.00,0.0288
1064.00,0.0293
1063.00,0.0300
1062.00,0.0310
1061.00,0.0323
1060.00,0.0340
1059.00,0.0361
1058.00,0.0386
1057.00,0.0414
1056.00,0.0440
1055.00,0.0463
1054.00,0.0479
1053.00,0.0488
1052.00,0.0493
1051.00,0.0494
1050.00,0.0494
1049.00,0.0491
1048.00,0.0485
1047.00,0.0474
1046.00,0.0459
1045.00,0.0441
1044.00,0.0422
1043.00,0.0403
1042.00,0.0384
1041.00,0.0368
1040.00,0.0355
1039.00,0.0346
1038.00,0.0340
1037.00,0.0338
1036.00,0.0339
1035.00,0.0341
1034.00,0.0344
1033.00,0.0349
1032.00,0.0358
1031.00,0.0372
1030.00,0.0394
1029.00,0.0419
1028.00,0.0444
1027.00,0.0463
1026.00,0.0471
1025.00,0.0468
1024.00,0.0455
1023.00,0.0437
1022.00,0.0418
1021.00,0.0400
1020.00,0.0385
1019.00,0.0372
1018.00,0.0361
1017.00,0.0350
1016.00,0.0340
1015.00,0.0331
1014.00,0.0322
1013.00,0.0313
1012.00,0.0307
1011.00,0.0303
1010.00,0.0301
1009.00,0.0303
1008.00,0.0309
1007.00,0.0317
1006.00,0.0328
1005.00,0.0339
1004.00,0.0349
1003.00,0.0354
1002.00,0.0355
1001.00,0.0352
1000.00,0.0346
999.00,0.0340
998.00,0.0333
997.00,0.0326
996.00,0.0320
995.00,0.0315
994.00,0.0310
993.00,0.0305
992.00,0.0300
991.00,0.0293
990.00,0.0287
989.00,0.0282
988.00,0.0276
987.00,0.0272
986.00,0.0269
985.00,0.0266
984.00,0.0263
983.00,0.0261
982.00,0.0259
981.00,0.0257
980.00,0.0255
979.00,0.0254
978.00,0.0253
977.00,0.0252
976.00,0.0251
975.00,0.0251
974.00,0.0250
973.00,0.0249
972.00,0.0248
971.00,0.0247
970.00,0.0246
969.00,0.0245
968.00,0.0245
967.00,0.0245
966.00,0.0246
965.00,0.0246
964.00,0.0248
963.00,0.0249
962.00,0.0249
961.00,0.0248
960.00,0.0246
959.00,0.0242
958.00,0.0239
957.00,0.0236
956.00,0.0233
955.00,0.0231
954.00,0.0229
953.00,0.0228
952.00,0.0226
951.00,0.0226
950.00,0.0226
949.00,0.0227
948.00,0.0228
947.00,0.0228
946.00,0.0228
945.00,0.0228
944.00,0.0229
943.00,0.0231
942.00,0.0234
941.00,0.0238
940.00,0.0243
939.00,0.0248
938.00,0.0253
937.00,0.0257
936.00,0.0261
935.00,0.0265
934.00,0.0268
933.00,0.0270
932.00,0.0270
931.00,0.0268
930.00,0.0265
929.00,0.0261
928.00,0.0258
927.00,0.0256
926.00,0.0256
925.00,0.0257
924.00,0.0259
923.00,0.0262
922.00,0.0264
921.00,0.0264
920.00,0.0262
919.00,0.0257
918.00,0.0252
917.00,0.0246
916.00,0.0241
915.00,0.0237
914.00,0.0235
913.00,0.0233
912.00,0.0232
911.00,0.0231
910.00,0.0230
909.00,0.0229
908.00,0.0230
907.00,0.0231
906.00,0.0233
905.00,0.0235
904.00,0.0239
903.00,0.0245
902.00,0.0253
901.00,0.0262
900.00,0.0270
899.00,0.0276
898.00,0.0277
897.00,0.0275
896.00,0.0270
895.00,0.0265
894.00,0.0262
893.00,0.0262
892.00,0.0266
891.00,0.0271
890.00,0.0274
889.00,0.0272
888.00,0.0264
887.00,0.0255
886.00,0.0246
885.00,0.0240
884.00,0.0236
883.00,0.0235
882.00,0.0234
881.00,0.0234
880.00,0.0236
879.00,0.0239
878.00,0.0245
877.00,0.0253
876.00,0.0265
875.00,0.0280
874.00,0.0298
873.00,0.0317
872.00,0.0335
871.00,0.0352
870.00,0.0362
869.00,0.0366
868.00,0.0361
867.00,0.0352
866.00,0.0342
865.00,0.0331
864.00,0.0322
863.00,0.0312
862.00,0.0304
861.00,0.0297
860.00,0.0292
859.00,0.0291
858.00,0.0292
857.00,0.0298
856.00,0.0307
855.00,0.0319
854.00,0.0331
853.00,0.0343
852.00,0.0355
851.00,0.0368
850.00,0.0382
849.00,0.0392
848.00,0.0395
847.00,0.0393
846.00,0.0386
845.00,0.0377
844.00,0.0368
843.00,0.0360
842.00,0.0354
841.00,0.0350
840.00,0.0349
839.00,0.0351
838.00,0.0356
837.00,0.0365
836.00,0.0375
835.00,0.0384
834.00,0.0391
833.00,0.0393
832.00,0.0390
831.00,0.0382
830.00,0.0369
829.00,0.0354
828.00,0.0337
827.00,0.0321
826.00,0.0310
825.00,0.0305
824.00,0.0308
823.00,0.0322
822.00,0.0347
821.00,0.0373
820.00,0.0391
819.00,0.0399
818.00,0.0405
817.00,0.0415
816.00,0.0427
815.00,0.0429
814.00,0.0413
813.00,0.0384
812.00,0.0353
811.00,0.0328
810.00,0.0311
809.00,0.0299
808.00,0.0291
807.00,0.0285
806.00,0.0280
805.00,0.0276
804.00,0.0274
803.00,0.0272
802.00,0.0271
801.00,0.0270
800.00,0.0270
799.00,0.0269
798.00,0.0268
797.00,0.0268
796.00,0.0267
795.00,0.0267
794.00,0.0267
793.00,0.0267
792.00,0.0268
791.00,0.0269
790.00,0.0270
789.00,0.0271
788.00,0.0272
787.00,0.0272
786.00,0.0273
785.00,0.0274
784.00,0.0275
783.00,0.0276
782.00,0.0277
781.00,0.0278
780.00,0.0280
779.00,0.0282
778.00,0.0286
777.00,0.0290
776.00,0.0297
775.00,0.0303
774.00,0.0307
773.00,0.0307
772.00,0.0306
771.00,0.0303
770.00,0.0301
769.00,0.0301
768.00,0.0302
767.00,0.0303
766.00,0.0305
765.00,0.0307
764.00,0.0309
763.00,0.0313
762.00,0.0318
761.00,0.0323
760.00,0.0328
759.00,0.0332
758.00,0.0336
757.00,0.0338
756.00,0.0340
755.00,0.0342
754.00,0.0345
753.00,0.0347
752.00,0.0350
751.00,0.0354
750.00,0.0357
749.00,0.0361
748.00,0.0365
747.00,0.0370
746.00,0.0374
745.00,0.0378
744.00,0.0383
743.00,0.0387
742.00,0.0393
741.00,0.0400
740.00,0.0408
739.00,0.0419
738.00,0.0433
737.00,0.0449
736.00,0.0465
735.00,0.0477
734.00,0.0482
733.00,0.0480
732.00,0.0474
731.00,0.0469
730.00,0.0467
729.00,0.0466
728.00,0.0464
727.00,0.0458
726.00,0.0448
725.00,0.0437
724.00,0.0426
723.00,0.0418
722.00,0.0412
721.00,0.0408
720.00,0.0406
719.00,0.0406
718.00,0.0408
717.00,0.0412
716.00,0.0417
715.00,0.0422
714.00,0.0424
713.00,0.0423
712.00,0.0422
711.00,0.0419
710.00,0.0417
709.00,0.0414
708.00,0.0413
707.00,0.0412
706.00,0.0412
705.00,0.0414
704.00,0.0416
703.00,0.0419
702.00,0.0423
701.00,0.0427
700.00,0.0432
699.00,0.0436
698.00,0.0440
697.00,0.0442
696.00,0.0443
695.00,0.0442
694.00,0.0440
693.00,0.0440
692.00,0.0442
691.00,0.0446
690.00,0.0453
689.00,0.0460
688.00,0.0467
687.00,0.0470
686.00,0.0471
685.00,0.0471
684.00,0.0470
683.00,0.0470
682.00,0.0471
681.00,0.0473
680.00,0.0476
679.00,0.0480
678.00,0.0486
677.00,0.0492
676.00,0.0499
675.00,0.0507
674.00,0.0515
673.00,0.0523
672.00,0.0531
671.00,0.0537
670.00,0.0542
669.00,0.0545
668.00,0.0547
667.00,0.0549
666.00,0.0552
665.00,0.0556
664.00,0.0563
663.00,0.0570
662.00,0.0578
661.00,0.0584
660.00,0.0588
659.00,0.0591
658.00,0.0593
657.00,0.0595
656.00,0.0599
655.00,0.0602
654.00,0.0607
653.00,0.0611
652.00,0.0616
651.00,0.0620
650.00,0.0624
649.00,0.0627
648.00,0.0629
647.00,0.0630
646.00,0.0630
645.00,0.0629
644.00,0.0627
643.00,0.0625
642.00,0.0622
641.00,0.0618
640.00,0.0615
639.00,0.0611
638.00,0.0608
637.00,0.0605
636.00,0.0602
635.00,0.0600
634.00,0.0597
633.00,0.0595
632.00,0.0593
631.00,0.0591
630.00,0.0589
629.00,0.0588
628.00,0.0587
627.00,0.0586
626.00,0.0587
625.00,0.0588
624.00,0.0590
623.00,0.0594
622.00,0.0597
621.00,0.0600
620.00,0.0603
619.00,0.0604
618.00,0.0603
617.00,0.0601
616.00,0.0597
615.00,0.0592
614.00,0.0588
613.00,0.0586
612.00,0.0584
611.00,0.0584
610.00,0.0586
609.00,0.0590
608.00,0.0597
607.00,0.0605
606.00,0.0615
605.00,0.0624
604.00,0.0633
603.00,0.0640
602.00,0.0645
601.00,0.0648
600.00,0.0651
599.00,0.0653
598.00,0.0655
597.00,0.0657
596.00,0.0658
595.00,0.0659
594.00,0.0661
593.00,0.0663
592.00,0.0665
591.00,0.0668
590.00,0.0669
589.00,0.0670
588.00,0.0672
587.00,0.0675
586.00,0.0679
585.00,0.0685
584.00,0.0691
583.00,0.0697
582.00,0.0704
581.00,0.0712
580.00,0.0720
579.00,0.0731
578.00,0.0743
577.00,0.0754
576.00,0.0763
575.00,0.0765
574.00,0.0762
573.00,0.0756
572.00,0.0748
571.00,0.0741
570.00,0.0735
569.00,0.0730
568.00,0.0726
567.00,0.0724
566.00,0.0723
565.00,0.0725
564.00,0.0728
563.00,0.0732
562.00,0.0736
561.00,0.0740
560.00,0.0742
559.00,0.0742
558.00,0.0738
557.00,0.0732
556.00,0.0725
555.00,0.0718
554.00,0.0711
553.00,0.0708
552.00,0.0708
551.00,0.0710
550.00,0.0714
549.00,0.0719
548.00,0.0725
547.00,0.0731
546.00,0.0734
545.00,0.0735
544.00,0.0732
543.00,0.0725
542.00,0.0718
541.00,0.0711
540.00,0.0707
539.00,0.0704
538.00,0.0702
537.00,0.0701
536.00,0.0701
535.00,0.0702
534.00,0.0706
533.00,0.0711
532.00,0.0717
531.00,0.0722
530.00,0.0723
529.00,0.0720
528.00,0.0715
527.00,0.0709
526.00,0.0703
525.00,0.0698
524.00,0.0695
523.00,0.0693
522.00,0.0689
521.00,0.0684
520.00,0.0680
519.00,0.0677
518.00,0.0677
517.00,0.0676
516.00,0.0675
515.00,0.0674
514.00,0.0673
513.00,0.0672
512.00,0.0672
511.00,0.0672
510.00,0.0671
509.00,0.0672
508.00,0.0673
507.00,0.0676
506.00,0.0679
505.00,0.0679
504.00,0.0677
503.00,0.0673
502.00,0.0670
501.00,0.0671
500.00,0.0672
499.00,0.0672
498.00,0.0672
497.00,0.0672
496.00,0.0673
495.00,0.0675
494.00,0.0678
493.00,0.0681
492.00,0.0683
491.00,0.0683
490.00,0.0682
489.00,0.0682
488.00,0.0682
487.00,0.0683
486.00,0.0682
485.00,0.0680
484.00,0.0679
483.00,0.0679
482.00,0.0678
481.00,0.0677
480.00,0.0676
479.00,0.0675
478.00,0.0673
477.00,0.0671
476.00,0.0670
475.00,0.0669
474.00,0.0670
473.00,0.0671
472.00,0.0672
471.00,0.0673
470.00,0.0674
469.00,0.0674
468.00,0.0674
467.00,0.0672
466.00,0.0669
465.00,0.0667
464.00,0.0667
463.00,0.0667
462.00,0.0664
461.00,0.0661
460.00,0.0659
459.00,0.0659
458.00,0.0661
457.00,0.0662
456.00,0.0662
455.00,0.0660
454.00,0.0657
453.00,0.0653
452.00,0.0648
451.00,0.0642
450.00,0.0638
449.00,0.0635
448.00,0.0634
447.00,0.0635
446.00,0.0636
445.00,0.0637
444.00,0.0635
443.00,0.0631
442.00,0.0626
441.00,0.0622
440.00,0.0620
439.00,0.0620
438.00,0.0621
437.00,0.0619
436.00,0.0615
435.00,0.0611
434.00,0.0609
433.00,0.0607
432.00,0.0606
431.00,0.0602
430.00,0.0600
429.00,0.0598
428.00,0.0596
427.00,0.0593
426.00,0.0589
425.00,0.0585
424.00,0.0581
423.00,0.0577
422.00,0.0573
421.00,0.0570
420.00,0.0565
419.00,0.0557
418.00,0.0551
417.00,0.0556
416.00,0.0566
415.00,0.0575
414.00,0.0577
413.00,0.0576
412.00,0.0575
411.00,0.0579
410.00,0.0588
409.00,0.0597
408.00,0.0600
407.00,0.0590
406.00,0.0572
405.00,0.0554
404.00,0.0545
403.00,0.0548
402.00,0.0556
401.00,0.0565
400.00,0.0569
