Created as New Dataset,Sample 700 By YargerLab Date Wednesday, June 18 2025
cm-1,A
4000.00,0.0043
3999.00,0.0043
3998.00,0.0043
3997.00,0.0043
3996.00,0.0043
3995.00,0.0043
3994.00,0.0043
3993.00,0.0043
3992.00,0.0043
3991.00,0.0043
3990.00,0.0042
3989.00,0.0043
3988.00,0.0043
3987.00,0.0043
3986.00,0.0043
3985.00,0.0043
3984.00,0.0043
3983.00,0.0043
3982.00,0.0043
3981.00,0.0043
3980.00,0.0043
3979.00,0.0044
3978.00,0.0044
3977.00,0.0044
3976.00,0.0043
3975.00,0.0043
3974.00,0.0043
3973.00,0.0043
3972.00,0.0043
3971.00,0.0043
3970.00,0.0043
3969.00,0.0044
3968.00,0.0044
3967.00,0.0044
3966.00,0.0045
3965.00,0.0045
3964.00,0.0045
3963.00,0.0046
3962.00,0.0046
3961.00,0.0046
3960.00,0.0045
3959.00,0.0045
3958.00,0.0045
3957.00,0.0045
3956.00,0.0046
3955.00,0.0046
3954.00,0.0046
3953.00,0.0046
3952.00,0.0046
3951.00,0.0045
3950.00,0.0045
3949.00,0.0045
3948.00,0.0045
3947.00,0.0045
3946.00,0.0045
3945.00,0.0045
3944.00,0.0045
3943.00,0.0044
3942.00,0.0044
3941.00,0.0044
3940.00,0.0044
3939.00,0.0045
3938.00,0.0045
3937.00,0.0045
3936.00,0.0045
3935.00,0.0045
3934.00,0.0045
3933.00,0.0045
3932.00,0.0045
3931.00,0.0045
3930.00,0.0046
3929.00,0.0046
3928.00,0.0046
3927.00,0.0046
3926.00,0.0046
3925.00,0.0046
3924.00,0.0046
3923.00,0.0046
3922.00,0.0047
3921.00,0.0047
3920.00,0.0047
3919.00,0.0046
3918.00,0.0046
3917.00,0.0046
3916.00,0.0045
3915.00,0.0045
3914.00,0.0045
3913.00,0.0045
3912.00,0.0045
3911.00,0.0045
3910.00,0.0045
3909.00,0.0045
3908.00,0.0045
3907.00,0.0045
3906.00,0.0044
3905.00,0.0044
3904.00,0.0044
3903.00,0.0044
3902.00,0.0044
3901.00,0.0044
3900.00,0.0044
3899.00,0.0044
3898.00,0.0044
3897.00,0.0044
3896.00,0.0044
3895.00,0.0044
3894.00,0.0043
3893.00,0.0043
3892.00,0.0043
3891.00,0.0043
3890.00,0.0044
3889.00,0.0044
3888.00,0.0044
3887.00,0.0043
3886.00,0.0043
3885.00,0.0043
3884.00,0.0043
3883.00,0.0043
3882.00,0.0043
3881.00,0.0043
3880.00,0.0043
3879.00,0.0043
3878.00,0.0043
3877.00,0.0043
3876.00,0.0042
3875.00,0.0042
3874.00,0.0043
3873.00,0.0043
3872.00,0.0043
3871.00,0.0043
3870.00,0.0043
3869.00,0.0043
3868.00,0.0043
3867.00,0.0043
3866.00,0.0043
3865.00,0.0042
3864.00,0.0042
3863.00,0.0042
3862.00,0.0043
3861.00,0.0043
3860.00,0.0043
3859.00,0.0043
3858.00,0.0043
3857.00,0.0044
3856.00,0.0045
3855.00,0.0045
3854.00,0.0045
3853.00,0.0045
3852.00,0.0045
3851.00,0.0044
3850.00,0.0044
3849.00,0.0043
3848.00,0.0042
3847.00,0.0042
3846.00,0.0042
3845.00,0.0042
3844.00,0.0042
3843.00,0.0042
3842.00,0.0042
3841.00,0.0042
3840.00,0.0042
3839.00,0.0042
3838.00,0.0043
3837.00,0.0043
3836.00,0.0043
3835.00,0.0043
3834.00,0.0043
3833.00,0.0043
3832.00,0.0043
3831.00,0.0042
3830.00,0.0042
3829.00,0.0042
3828.00,0.0042
3827.00,0.0042
3826.00,0.0042
3825.00,0.0042
3824.00,0.0042
3823.00,0.0042
3822.00,0.0041
3821.00,0.0041
3820.00,0.0042
3819.00,0.0042
3818.00,0.0043
3817.00,0.0042
3816.00,0.0042
3815.00,0.0042
3814.00,0.0042
3813.00,0.0042
3812.00,0.0042
3811.00,0.0042
3810.00,0.0042
3809.00,0.0042
3808.00,0.0042
3807.00,0.0042
3806.00,0.0042
3805.00,0.0042
3804.00,0.0042
3803.00,0.0042
3802.00,0.0042
3801.00,0.0042
3800.00,0.0042
3799.00,0.0042
3798.00,0.0042
3797.00,0.0041
3796.00,0.0041
3795.00,0.0042
3794.00,0.0041
3793.00,0.0041
3792.00,0.0041
3791.00,0.0041
3790.00,0.0041
3789.00,0.0041
3788.00,0.0041
3787.00,0.0041
3786.00,0.0041
3785.00,0.0041
3784.00,0.0041
3783.00,0.0041
3782.00,0.0041
3781.00,0.0041
3780.00,0.0041
3779.00,0.0041
3778.00,0.0041
3777.00,0.0041
3776.00,0.0041
3775.00,0.0041
3774.00,0.0041
3773.00,0.0041
3772.00,0.0041
3771.00,0.0041
3770.00,0.0041
3769.00,0.0041
3768.00,0.0042
3767.00,0.0042
3766.00,0.0042
3765.00,0.0041
3764.00,0.0041
3763.00,0.0041
3762.00,0.0041
3761.00,0.0041
3760.00,0.0041
3759.00,0.0041
3758.00,0.0041
3757.00,0.0041
3756.00,0.0041
3755.00,0.0041
3754.00,0.0041
3753.00,0.0041
3752.00,0.0041
3751.00,0.0041
3750.00,0.0041
3749.00,0.0041
3748.00,0.0041
3747.00,0.0041
3746.00,0.0041
3745.00,0.0041
3744.00,0.0041
3743.00,0.0040
3742.00,0.0039
3741.00,0.0038
3740.00,0.0038
3739.00,0.0038
3738.00,0.0037
3737.00,0.0037
3736.00,0.0037
3735.00,0.0037
3734.00,0.0037
3733.00,0.0038
3732.00,0.0038
3731.00,0.0038
3730.00,0.0038
3729.00,0.0038
3728.00,0.0037
3727.00,0.0037
3726.00,0.0037
3725.00,0.0037
3724.00,0.0037
3723.00,0.0037
3722.00,0.0037
3721.00,0.0037
3720.00,0.0037
3719.00,0.0037
3718.00,0.0038
3717.00,0.0038
3716.00,0.0038
3715.00,0.0039
3714.00,0.0039
3713.00,0.0039
3712.00,0.0038
3711.00,0.0038
3710.00,0.0038
3709.00,0.0038
3708.00,0.0038
3707.00,0.0038
3706.00,0.0038
3705.00,0.0038
3704.00,0.0037
3703.00,0.0037
3702.00,0.0037
3701.00,0.0037
3700.00,0.0037
3699.00,0.0037
3698.00,0.0037
3697.00,0.0037
3696.00,0.0037
3695.00,0.0037
3694.00,0.0038
3693.00,0.0038
3692.00,0.0038
3691.00,0.0038
3690.00,0.0038
3689.00,0.0038
3688.00,0.0038
3687.00,0.0038
3686.00,0.0037
3685.00,0.0037
3684.00,0.0037
3683.00,0.0037
3682.00,0.0036
3681.00,0.0036
3680.00,0.0036
3679.00,0.0037
3678.00,0.0037
3677.00,0.0037
3676.00,0.0036
3675.00,0.0036
3674.00,0.0037
3673.00,0.0037
3672.00,0.0037
3671.00,0.0037
3670.00,0.0037
3669.00,0.0037
3668.00,0.0037
3667.00,0.0037
3666.00,0.0037
3665.00,0.0036
3664.00,0.0036
3663.00,0.0036
3662.00,0.0036
3661.00,0.0036
3660.00,0.0036
3659.00,0.0036
3658.00,0.0036
3657.00,0.0036
3656.00,0.0036
3655.00,0.0036
3654.00,0.0036
3653.00,0.0036
3652.00,0.0036
3651.00,0.0036
3650.00,0.0035
3649.00,0.0035
3648.00,0.0035
3647.00,0.0036
3646.00,0.0036
3645.00,0.0036
3644.00,0.0036
3643.00,0.0036
3642.00,0.0035
3641.00,0.0035
3640.00,0.0035
3639.00,0.0035
3638.00,0.0035
3637.00,0.0035
3636.00,0.0035
3635.00,0.0036
3634.00,0.0036
3633.00,0.0036
3632.00,0.0036
3631.00,0.0036
3630.00,0.0036
3629.00,0.0036
3628.00,0.0037
3627.00,0.0037
3626.00,0.0037
3625.00,0.0037
3624.00,0.0037
3623.00,0.0036
3622.00,0.0036
3621.00,0.0037
3620.00,0.0037
3619.00,0.0037
3618.00,0.0038
3617.00,0.0038
3616.00,0.0038
3615.00,0.0038
3614.00,0.0039
3613.00,0.0039
3612.00,0.0040
3611.00,0.0040
3610.00,0.0040
3609.00,0.0040
3608.00,0.0040
3607.00,0.0040
3606.00,0.0040
3605.00,0.0040
3604.00,0.0040
3603.00,0.0039
3602.00,0.0039
3601.00,0.0039
3600.00,0.0039
3599.00,0.0039
3598.00,0.0039
3597.00,0.0040
3596.00,0.0040
3595.00,0.0041
3594.00,0.0041
3593.00,0.0041
3592.00,0.0042
3591.00,0.0042
3590.00,0.0042
3589.00,0.0042
3588.00,0.0042
3587.00,0.0043
3586.00,0.0043
3585.00,0.0044
3584.00,0.0044
3583.00,0.0045
3582.00,0.0045
3581.00,0.0046
3580.00,0.0046
3579.00,0.0047
3578.00,0.0048
3577.00,0.0048
3576.00,0.0049
3575.00,0.0050
3574.00,0.0050
3573.00,0.0050
3572.00,0.0051
3571.00,0.0051
3570.00,0.0052
3569.00,0.0052
3568.00,0.0052
3567.00,0.0052
3566.00,0.0054
3565.00,0.0055
3564.00,0.0057
3563.00,0.0058
3562.00,0.0060
3561.00,0.0061
3560.00,0.0063
3559.00,0.0064
3558.00,0.0066
3557.00,0.0068
3556.00,0.0069
3555.00,0.0071
3554.00,0.0073
3553.00,0.0075
3552.00,0.0077
3551.00,0.0080
3550.00,0.0082
3549.00,0.0085
3548.00,0.0087
3547.00,0.0091
3546.00,0.0095
3545.00,0.0099
3544.00,0.0105
3543.00,0.0110
3542.00,0.0116
3541.00,0.0123
3540.00,0.0130
3539.00,0.0137
3538.00,0.0146
3537.00,0.0156
3536.00,0.0168
3535.00,0.0181
3534.00,0.0196
3533.00,0.0213
3532.00,0.0234
3531.00,0.0258
3530.00,0.0287
3529.00,0.0321
3528.00,0.0358
3527.00,0.0397
3526.00,0.0436
3525.00,0.0475
3524.00,0.0509
3523.00,0.0539
3522.00,0.0560
3521.00,0.0574
3520.00,0.0578
3519.00,0.0574
3518.00,0.0563
3517.00,0.0546
3516.00,0.0524
3515.00,0.0499
3514.00,0.0473
3513.00,0.0445
3512.00,0.0419
3511.00,0.0393
3510.00,0.0370
3509.00,0.0349
3508.00,0.0331
3507.00,0.0315
3506.00,0.0302
3505.00,0.0290
3504.00,0.0281
3503.00,0.0274
3502.00,0.0268
3501.00,0.0264
3500.00,0.0261
3499.00,0.0258
3498.00,0.0256
3497.00,0.0255
3496.00,0.0254
3495.00,0.0255
3494.00,0.0255
3493.00,0.0256
3492.00,0.0258
3491.00,0.0259
3490.00,0.0261
3489.00,0.0263
3488.00,0.0266
3487.00,0.0269
3486.00,0.0272
3485.00,0.0275
3484.00,0.0279
3483.00,0.0283
3482.00,0.0287
3481.00,0.0292
3480.00,0.0297
3479.00,0.0303
3478.00,0.0308
3477.00,0.0313
3476.00,0.0318
3475.00,0.0324
3474.00,0.0331
3473.00,0.0337
3472.00,0.0344
3471.00,0.0351
3470.00,0.0358
3469.00,0.0365
3468.00,0.0373
3467.00,0.0380
3466.00,0.0388
3465.00,0.0396
3464.00,0.0404
3463.00,0.0412
3462.00,0.0421
3461.00,0.0429
3460.00,0.0438
3459.00,0.0447
3458.00,0.0455
3457.00,0.0463
3456.00,0.0472
3455.00,0.0480
3454.00,0.0489
3453.00,0.0497
3452.00,0.0505
3451.00,0.0513
3450.00,0.0520
3449.00,0.0528
3448.00,0.0537
3447.00,0.0545
3446.00,0.0554
3445.00,0.0562
3444.00,0.0570
3443.00,0.0577
3442.00,0.0584
3441.00,0.0592
3440.00,0.0599
3439.00,0.0607
3438.00,0.0615
3437.00,0.0622
3436.00,0.0629
3435.00,0.0636
3434.00,0.0642
3433.00,0.0649
3432.00,0.0656
3431.00,0.0663
3430.00,0.0670
3429.00,0.0677
3428.00,0.0684
3427.00,0.0691
3426.00,0.0699
3425.00,0.0707
3424.00,0.0715
3423.00,0.0725
3422.00,0.0735
3421.00,0.0747
3420.00,0.0759
3419.00,0.0772
3418.00,0.0784
3417.00,0.0797
3416.00,0.0810
3415.00,0.0823
3414.00,0.0836
3413.00,0.0849
3412.00,0.0860
3411.00,0.0869
3410.00,0.0876
3409.00,0.0880
3408.00,0.0882
3407.00,0.0880
3406.00,0.0875
3405.00,0.0868
3404.00,0.0857
3403.00,0.0843
3402.00,0.0825
3401.00,0.0805
3400.00,0.0782
3399.00,0.0757
3398.00,0.0731
3397.00,0.0705
3396.00,0.0679
3395.00,0.0653
3394.00,0.0628
3393.00,0.0604
3392.00,0.0581
3391.00,0.0559
3390.00,0.0538
3389.00,0.0518
3388.00,0.0499
3387.00,0.0482
3386.00,0.0466
3385.00,0.0452
3384.00,0.0438
3383.00,0.0425
3382.00,0.0413
3381.00,0.0402
3380.00,0.0391
3379.00,0.0380
3378.00,0.0371
3377.00,0.0362
3376.00,0.0353
3375.00,0.0344
3374.00,0.0336
3373.00,0.0328
3372.00,0.0321
3371.00,0.0313
3370.00,0.0306
3369.00,0.0300
3368.00,0.0293
3367.00,0.0287
3366.00,0.0280
3365.00,0.0275
3364.00,0.0269
3363.00,0.0263
3362.00,0.0258
3361.00,0.0252
3360.00,0.0247
3359.00,0.0242
3358.00,0.0238
3357.00,0.0233
3356.00,0.0229
3355.00,0.0224
3354.00,0.0221
3353.00,0.0217
3352.00,0.0213
3351.00,0.0209
3350.00,0.0206
3349.00,0.0202
3348.00,0.0198
3347.00,0.0195
3346.00,0.0192
3345.00,0.0189
3344.00,0.0186
3343.00,0.0183
3342.00,0.0180
3341.00,0.0178
3340.00,0.0175
3339.00,0.0172
3338.00,0.0170
3337.00,0.0168
3336.00,0.0165
3335.00,0.0163
3334.00,0.0161
3333.00,0.0159
3332.00,0.0157
3331.00,0.0155
3330.00,0.0153
3329.00,0.0152
3328.00,0.0150
3327.00,0.0148
3326.00,0.0147
3325.00,0.0145
3324.00,0.0143
3323.00,0.0141
3322.00,0.0140
3321.00,0.0138
3320.00,0.0137
3319.00,0.0135
3318.00,0.0134
3317.00,0.0133
3316.00,0.0131
3315.00,0.0130
3314.00,0.0129
3313.00,0.0128
3312.00,0.0126
3311.00,0.0125
3310.00,0.0123
3309.00,0.0122
3308.00,0.0121
3307.00,0.0120
3306.00,0.0119
3305.00,0.0118
3304.00,0.0116
3303.00,0.0115
3302.00,0.0114
3301.00,0.0113
3300.00,0.0112
3299.00,0.0111
3298.00,0.0110
3297.00,0.0109
3296.00,0.0108
3295.00,0.0107
3294.00,0.0106
3293.00,0.0105
3292.00,0.0104
3291.00,0.0103
3290.00,0.0103
3289.00,0.0102
3288.00,0.0101
3287.00,0.0100
3286.00,0.0099
3285.00,0.0098
3284.00,0.0097
3283.00,0.0096
3282.00,0.0095
3281.00,0.0094
3280.00,0.0094
3279.00,0.0092
3278.00,0.0091
3277.00,0.0091
3276.00,0.0090
3275.00,0.0089
3274.00,0.0088
3273.00,0.0088
3272.00,0.0088
3271.00,0.0087
3270.00,0.0087
3269.00,0.0087
3268.00,0.0087
3267.00,0.0087
3266.00,0.0087
3265.00,0.0087
3264.00,0.0086
3263.00,0.0086
3262.00,0.0086
3261.00,0.0086
3260.00,0.0085
3259.00,0.0085
3258.00,0.0084
3257.00,0.0084
3256.00,0.0083
3255.00,0.0083
3254.00,0.0082
3253.00,0.0082
3252.00,0.0082
3251.00,0.0082
3250.00,0.0081
3249.00,0.0081
3248.00,0.0080
3247.00,0.0080
3246.00,0.0080
3245.00,0.0080
3244.00,0.0080
3243.00,0.0080
3242.00,0.0079
3241.00,0.0079
3240.00,0.0079
3239.00,0.0078
3238.00,0.0077
3237.00,0.0076
3236.00,0.0075
3235.00,0.0074
3234.00,0.0074
3233.00,0.0073
3232.00,0.0073
3231.00,0.0073
3230.00,0.0073
3229.00,0.0073
3228.00,0.0073
3227.00,0.0072
3226.00,0.0072
3225.00,0.0072
3224.00,0.0072
3223.00,0.0072
3222.00,0.0071
3221.00,0.0071
3220.00,0.0071
3219.00,0.0071
3218.00,0.0071
3217.00,0.0071
3216.00,0.0071
3215.00,0.0070
3214.00,0.0070
3213.00,0.0070
3212.00,0.0070
3211.00,0.0070
3210.00,0.0070
3209.00,0.0070
3208.00,0.0070
3207.00,0.0070
3206.00,0.0069
3205.00,0.0069
3204.00,0.0069
3203.00,0.0069
3202.00,0.0069
3201.00,0.0068
3200.00,0.0068
3199.00,0.0068
3198.00,0.0068
3197.00,0.0067
3196.00,0.0067
3195.00,0.0067
3194.00,0.0067
3193.00,0.0067
3192.00,0.0066
3191.00,0.0066
3190.00,0.0066
3189.00,0.0066
3188.00,0.0066
3187.00,0.0066
3186.00,0.0066
3185.00,0.0066
3184.00,0.0066
3183.00,0.0066
3182.00,0.0066
3181.00,0.0067
3180.00,0.0067
3179.00,0.0067
3178.00,0.0067
3177.00,0.0067
3176.00,0.0067
3175.00,0.0068
3174.00,0.0068
3173.00,0.0068
3172.00,0.0068
3171.00,0.0068
3170.00,0.0068
3169.00,0.0069
3168.00,0.0069
3167.00,0.0069
3166.00,0.0069
3165.00,0.0068
3164.00,0.0068
3163.00,0.0068
3162.00,0.0068
3161.00,0.0068
3160.00,0.0068
3159.00,0.0067
3158.00,0.0067
3157.00,0.0066
3156.00,0.0065
3155.00,0.0064
3154.00,0.0063
3153.00,0.0062
3152.00,0.0062
3151.00,0.0063
3150.00,0.0063
3149.00,0.0064
3148.00,0.0064
3147.00,0.0064
3146.00,0.0064
3145.00,0.0063
3144.00,0.0063
3143.00,0.0062
3142.00,0.0062
3141.00,0.0061
3140.00,0.0061
3139.00,0.0061
3138.00,0.0061
3137.00,0.0062
3136.00,0.0062
3135.00,0.0062
3134.00,0.0062
3133.00,0.0061
3132.00,0.0061
3131.00,0.0061
3130.00,0.0061
3129.00,0.0061
3128.00,0.0061
3127.00,0.0061
3126.00,0.0060
3125.00,0.0060
3124.00,0.0060
3123.00,0.0059
3122.00,0.0059
3121.00,0.0059
3120.00,0.0058
3119.00,0.0058
3118.00,0.0058
3117.00,0.0058
3116.00,0.0058
3115.00,0.0058
3114.00,0.0058
3113.00,0.0058
3112.00,0.0058
3111.00,0.0058
3110.00,0.0058
3109.00,0.0058
3108.00,0.0058
3107.00,0.0058
3106.00,0.0058
3105.00,0.0058
3104.00,0.0058
3103.00,0.0058
3102.00,0.0058
3101.00,0.0059
3100.00,0.0059
3099.00,0.0059
3098.00,0.0060
3097.00,0.0060
3096.00,0.0060
3095.00,0.0061
3094.00,0.0061
3093.00,0.0061
3092.00,0.0062
3091.00,0.0062
3090.00,0.0063
3089.00,0.0064
3088.00,0.0066
3087.00,0.0067
3086.00,0.0069
3085.00,0.0072
3084.00,0.0076
3083.00,0.0081
3082.00,0.0088
3081.00,0.0097
3080.00,0.0109
3079.00,0.0123
3078.00,0.0139
3077.00,0.0155
3076.00,0.0166
3075.00,0.0172
3074.00,0.0170
3073.00,0.0161
3072.00,0.0148
3071.00,0.0133
3070.00,0.0119
3069.00,0.0106
3068.00,0.0097
3067.00,0.0089
3066.00,0.0084
3065.00,0.0080
3064.00,0.0077
3063.00,0.0074
3062.00,0.0072
3061.00,0.0070
3060.00,0.0069
3059.00,0.0068
3058.00,0.0067
3057.00,0.0066
3056.00,0.0066
3055.00,0.0065
3054.00,0.0065
3053.00,0.0065
3052.00,0.0065
3051.00,0.0066
3050.00,0.0066
3049.00,0.0067
3048.00,0.0068
3047.00,0.0070
3046.00,0.0071
3045.00,0.0073
3044.00,0.0074
3043.00,0.0076
3042.00,0.0077
3041.00,0.0079
3040.00,0.0080
3039.00,0.0082
3038.00,0.0084
3037.00,0.0086
3036.00,0.0088
3035.00,0.0090
3034.00,0.0092
3033.00,0.0093
3032.00,0.0093
3031.00,0.0092
3030.00,0.0091
3029.00,0.0088
3028.00,0.0086
3027.00,0.0083
3026.00,0.0081
3025.00,0.0079
3024.00,0.0078
3023.00,0.0077
3022.00,0.0076
3021.00,0.0075
3020.00,0.0075
3019.00,0.0074
3018.00,0.0074
3017.00,0.0074
3016.00,0.0074
3015.00,0.0074
3014.00,0.0075
3013.00,0.0076
3012.00,0.0077
3011.00,0.0079
3010.00,0.0080
3009.00,0.0080
3008.00,0.0081
3007.00,0.0082
3006.00,0.0083
3005.00,0.0083
3004.00,0.0084
3003.00,0.0085
3002.00,0.0086
3001.00,0.0088
3000.00,0.0090
2999.00,0.0092
2998.00,0.0094
2997.00,0.0096
2996.00,0.0099
2995.00,0.0102
2994.00,0.0105
2993.00,0.0109
2992.00,0.0114
2991.00,0.0119
2990.00,0.0123
2989.00,0.0128
2988.00,0.0131
2987.00,0.0134
2986.00,0.0136
2985.00,0.0138
2984.00,0.0141
2983.00,0.0146
2982.00,0.0152
2981.00,0.0161
2980.00,0.0172
2979.00,0.0186
2978.00,0.0202
2977.00,0.0221
2976.00,0.0243
2975.00,0.0267
2974.00,0.0293
2973.00,0.0322
2972.00,0.0351
2971.00,0.0382
2970.00,0.0412
2969.00,0.0439
2968.00,0.0462
2967.00,0.0480
2966.00,0.0491
2965.00,0.0497
2964.00,0.0498
2963.00,0.0497
2962.00,0.0493
2961.00,0.0487
2960.00,0.0479
2959.00,0.0468
2958.00,0.0454
2957.00,0.0439
2956.00,0.0424
2955.00,0.0409
2954.00,0.0395
2953.00,0.0384
2952.00,0.0376
2951.00,0.0372
2950.00,0.0373
2949.00,0.0380
2948.00,0.0393
2947.00,0.0412
2946.00,0.0436
2945.00,0.0463
2944.00,0.0491
2943.00,0.0517
2942.00,0.0542
2941.00,0.0564
2940.00,0.0586
2939.00,0.0608
2938.00,0.0631
2937.00,0.0656
2936.00,0.0684
2935.00,0.0713
2934.00,0.0744
2933.00,0.0776
2932.00,0.0808
2931.00,0.0841
2930.00,0.0874
2929.00,0.0906
2928.00,0.0934
2927.00,0.0956
2926.00,0.0972
2925.00,0.0978
2924.00,0.0977
2923.00,0.0970
2922.00,0.0961
2921.00,0.0950
2920.00,0.0940
2919.00,0.0932
2918.00,0.0924
2917.00,0.0915
2916.00,0.0905
2915.00,0.0891
2914.00,0.0873
2913.00,0.0850
2912.00,0.0824
2911.00,0.0794
2910.00,0.0764
2909.00,0.0733
2908.00,0.0704
2907.00,0.0676
2906.00,0.0650
2905.00,0.0628
2904.00,0.0608
2903.00,0.0591
2902.00,0.0576
2901.00,0.0561
2900.00,0.0546
2899.00,0.0530
2898.00,0.0512
2897.00,0.0494
2896.00,0.0475
2895.00,0.0456
2894.00,0.0440
2893.00,0.0426
2892.00,0.0414
2891.00,0.0404
2890.00,0.0397
2889.00,0.0391
2888.00,0.0386
2887.00,0.0383
2886.00,0.0381
2885.00,0.0379
2884.00,0.0379
2883.00,0.0378
2882.00,0.0379
2881.00,0.0381
2880.00,0.0385
2879.00,0.0390
2878.00,0.0397
2877.00,0.0405
2876.00,0.0413
2875.00,0.0423
2874.00,0.0431
2873.00,0.0439
2872.00,0.0443
2871.00,0.0444
2870.00,0.0440
2869.00,0.0435
2868.00,0.0429
2867.00,0.0426
2866.00,0.0427
2865.00,0.0435
2864.00,0.0450
2863.00,0.0474
2862.00,0.0505
2861.00,0.0545
2860.00,0.0591
2859.00,0.0638
2858.00,0.0681
2857.00,0.0712
2856.00,0.0726
2855.00,0.0719
2854.00,0.0693
2853.00,0.0653
2852.00,0.0605
2851.00,0.0554
2850.00,0.0505
2849.00,0.0459
2848.00,0.0417
2847.00,0.0380
2846.00,0.0347
2845.00,0.0319
2844.00,0.0295
2843.00,0.0276
2842.00,0.0260
2841.00,0.0248
2840.00,0.0240
2839.00,0.0236
2838.00,0.0235
2837.00,0.0239
2836.00,0.0249
2835.00,0.0264
2834.00,0.0286
2833.00,0.0311
2832.00,0.0338
2831.00,0.0362
2830.00,0.0375
2829.00,0.0375
2828.00,0.0360
2827.00,0.0334
2826.00,0.0303
2825.00,0.0270
2824.00,0.0240
2823.00,0.0215
2822.00,0.0195
2821.00,0.0179
2820.00,0.0167
2819.00,0.0156
2818.00,0.0148
2817.00,0.0142
2816.00,0.0136
2815.00,0.0131
2814.00,0.0127
2813.00,0.0124
2812.00,0.0121
2811.00,0.0118
2810.00,0.0115
2809.00,0.0113
2808.00,0.0111
2807.00,0.0109
2806.00,0.0107
2805.00,0.0105
2804.00,0.0103
2803.00,0.0101
2802.00,0.0100
2801.00,0.0098
2800.00,0.0097
2799.00,0.0095
2798.00,0.0094
2797.00,0.0093
2796.00,0.0092
2795.00,0.0091
2794.00,0.0090
2793.00,0.0089
2792.00,0.0088
2791.00,0.0086
2790.00,0.0085
2789.00,0.0085
2788.00,0.0084
2787.00,0.0084
2786.00,0.0083
2785.00,0.0082
2784.00,0.0081
2783.00,0.0080
2782.00,0.0080
2781.00,0.0079
2780.00,0.0078
2779.00,0.0077
2778.00,0.0076
2777.00,0.0076
2776.00,0.0076
2775.00,0.0075
2774.00,0.0075
2773.00,0.0074
2772.00,0.0073
2771.00,0.0073
2770.00,0.0072
2769.00,0.0072
2768.00,0.0071
2767.00,0.0071
2766.00,0.0070
2765.00,0.0070
2764.00,0.0069
2763.00,0.0069
2762.00,0.0068
2761.00,0.0068
2760.00,0.0067
2759.00,0.0067
2758.00,0.0067
2757.00,0.0066
2756.00,0.0066
2755.00,0.0066
2754.00,0.0066
2753.00,0.0066
2752.00,0.0066
2751.00,0.0066
2750.00,0.0066
2749.00,0.0066
2748.00,0.0066
2747.00,0.0066
2746.00,0.0067
2745.00,0.0067
2744.00,0.0068
2743.00,0.0068
2742.00,0.0069
2741.00,0.0069
2740.00,0.0070
2739.00,0.0071
2738.00,0.0072
2737.00,0.0073
2736.00,0.0074
2735.00,0.0076
2734.00,0.0078
2733.00,0.0080
2732.00,0.0082
2731.00,0.0084
2730.00,0.0086
2729.00,0.0087
2728.00,0.0087
2727.00,0.0085
2726.00,0.0083
2725.00,0.0081
2724.00,0.0079
2723.00,0.0077
2722.00,0.0076
2721.00,0.0074
2720.00,0.0073
2719.00,0.0071
2718.00,0.0070
2717.00,0.0069
2716.00,0.0068
2715.00,0.0067
2714.00,0.0066
2713.00,0.0066
2712.00,0.0065
2711.00,0.0064
2710.00,0.0064
2709.00,0.0063
2708.00,0.0063
2707.00,0.0063
2706.00,0.0062
2705.00,0.0061
2704.00,0.0061
2703.00,0.0060
2702.00,0.0060
2701.00,0.0059
2700.00,0.0059
2699.00,0.0058
2698.00,0.0058
2697.00,0.0058
2696.00,0.0058
2695.00,0.0058
2694.00,0.0058
2693.00,0.0058
2692.00,0.0058
2691.00,0.0058
2690.00,0.0058
2689.00,0.0059
2688.00,0.0059
2687.00,0.0059
2686.00,0.0059
2685.00,0.0060
2684.00,0.0060
2683.00,0.0060
2682.00,0.0061
2681.00,0.0061
2680.00,0.0061
2679.00,0.0062
2678.00,0.0062
2677.00,0.0063
2676.00,0.0063
2675.00,0.0064
2674.00,0.0064
2673.00,0.0064
2672.00,0.0065
2671.00,0.0065
2670.00,0.0065
2669.00,0.0065
2668.00,0.0066
2667.00,0.0066
2666.00,0.0066
2665.00,0.0066
2664.00,0.0066
2663.00,0.0066
2662.00,0.0066
2661.00,0.0066
2660.00,0.0066
2659.00,0.0065
2658.00,0.0065
2657.00,0.0065
2656.00,0.0065
2655.00,0.0064
2654.00,0.0064
2653.00,0.0064
2652.00,0.0064
2651.00,0.0063
2650.00,0.0063
2649.00,0.0062
2648.00,0.0062
2647.00,0.0061
2646.00,0.0061
2645.00,0.0060
2644.00,0.0060
2643.00,0.0060
2642.00,0.0059
2641.00,0.0059
2640.00,0.0059
2639.00,0.0059
2638.00,0.0059
2637.00,0.0059
2636.00,0.0059
2635.00,0.0059
2634.00,0.0059
2633.00,0.0059
2632.00,0.0059
2631.00,0.0059
2630.00,0.0059
2629.00,0.0059
2628.00,0.0059
2627.00,0.0059
2626.00,0.0059
2625.00,0.0059
2624.00,0.0059
2623.00,0.0059
2622.00,0.0059
2621.00,0.0058
2620.00,0.0058
2619.00,0.0058
2618.00,0.0058
2617.00,0.0058
2616.00,0.0058
2615.00,0.0058
2614.00,0.0058
2613.00,0.0058
2612.00,0.0058
2611.00,0.0058
2610.00,0.0058
2609.00,0.0058
2608.00,0.0057
2607.00,0.0057
2606.00,0.0057
2605.00,0.0057
2604.00,0.0057
2603.00,0.0057
2602.00,0.0057
2601.00,0.0057
2600.00,0.0057
2599.00,0.0057
2598.00,0.0057
2597.00,0.0056
2596.00,0.0056
2595.00,0.0056
2594.00,0.0056
2593.00,0.0056
2592.00,0.0056
2591.00,0.0056
2590.00,0.0056
2589.00,0.0055
2588.00,0.0055
2587.00,0.0055
2586.00,0.0054
2585.00,0.0054
2584.00,0.0053
2583.00,0.0053
2582.00,0.0052
2581.00,0.0052
2580.00,0.0052
2579.00,0.0052
2578.00,0.0052
2577.00,0.0052
2576.00,0.0052
2575.00,0.0052
2574.00,0.0052
2573.00,0.0052
2572.00,0.0052
2571.00,0.0052
2570.00,0.0052
2569.00,0.0052
2568.00,0.0052
2567.00,0.0052
2566.00,0.0052
2565.00,0.0052
2564.00,0.0052
2563.00,0.0052
2562.00,0.0052
2561.00,0.0052
2560.00,0.0052
2559.00,0.0052
2558.00,0.0052
2557.00,0.0052
2556.00,0.0052
2555.00,0.0052
2554.00,0.0052
2553.00,0.0051
2552.00,0.0051
2551.00,0.0051
2550.00,0.0051
2549.00,0.0051
2548.00,0.0051
2547.00,0.0051
2546.00,0.0051
2545.00,0.0051
2544.00,0.0051
2543.00,0.0051
2542.00,0.0051
2541.00,0.0051
2540.00,0.0051
2539.00,0.0051
2538.00,0.0050
2537.00,0.0050
2536.00,0.0050
2535.00,0.0050
2534.00,0.0051
2533.00,0.0051
2532.00,0.0052
2531.00,0.0052
2530.00,0.0052
2529.00,0.0052
2528.00,0.0052
2527.00,0.0052
2526.00,0.0052
2525.00,0.0052
2524.00,0.0052
2523.00,0.0051
2522.00,0.0051
2521.00,0.0051
2520.00,0.0051
2519.00,0.0051
2518.00,0.0051
2517.00,0.0052
2516.00,0.0052
2515.00,0.0052
2514.00,0.0052
2513.00,0.0052
2512.00,0.0053
2511.00,0.0053
2510.00,0.0054
2509.00,0.0054
2508.00,0.0054
2507.00,0.0054
2506.00,0.0054
2505.00,0.0053
2504.00,0.0053
2503.00,0.0053
2502.00,0.0053
2501.00,0.0053
2500.00,0.0053
2499.00,0.0053
2498.00,0.0054
2497.00,0.0054
2496.00,0.0054
2495.00,0.0055
2494.00,0.0055
2493.00,0.0054
2492.00,0.0054
2491.00,0.0054
2490.00,0.0054
2489.00,0.0055
2488.00,0.0055
2487.00,0.0055
2486.00,0.0056
2485.00,0.0057
2484.00,0.0057
2483.00,0.0057
2482.00,0.0056
2481.00,0.0056
2480.00,0.0056
2479.00,0.0057
2478.00,0.0057
2477.00,0.0058
2476.00,0.0058
2475.00,0.0058
2474.00,0.0058
2473.00,0.0058
2472.00,0.0058
2471.00,0.0058
2470.00,0.0058
2469.00,0.0058
2468.00,0.0058
2467.00,0.0058
2466.00,0.0058
2465.00,0.0058
2464.00,0.0059
2463.00,0.0059
2462.00,0.0060
2461.00,0.0061
2460.00,0.0061
2459.00,0.0061
2458.00,0.0061
2457.00,0.0062
2456.00,0.0062
2455.00,0.0062
2454.00,0.0062
2453.00,0.0062
2452.00,0.0061
2451.00,0.0061
2450.00,0.0061
2449.00,0.0060
2448.00,0.0060
2447.00,0.0059
2446.00,0.0059
2445.00,0.0058
2444.00,0.0058
2443.00,0.0058
2442.00,0.0057
2441.00,0.0057
2440.00,0.0056
2439.00,0.0055
2438.00,0.0054
2437.00,0.0054
2436.00,0.0053
2435.00,0.0053
2434.00,0.0053
2433.00,0.0052
2432.00,0.0052
2431.00,0.0052
2430.00,0.0052
2429.00,0.0052
2428.00,0.0052
2427.00,0.0052
2426.00,0.0051
2425.00,0.0051
2424.00,0.0051
2423.00,0.0050
2422.00,0.0049
2421.00,0.0049
2420.00,0.0049
2419.00,0.0048
2418.00,0.0048
2417.00,0.0048
2416.00,0.0048
2415.00,0.0048
2414.00,0.0048
2413.00,0.0048
2412.00,0.0049
2411.00,0.0049
2410.00,0.0048
2409.00,0.0048
2408.00,0.0047
2407.00,0.0047
2406.00,0.0047
2405.00,0.0047
2404.00,0.0047
2403.00,0.0047
2402.00,0.0047
2401.00,0.0047
2400.00,0.0046
2399.00,0.0046
2398.00,0.0046
2397.00,0.0046
2396.00,0.0046
2395.00,0.0046
2394.00,0.0046
2393.00,0.0046
2392.00,0.0047
2391.00,0.0047
2390.00,0.0047
2389.00,0.0047
2388.00,0.0047
2387.00,0.0047
2386.00,0.0047
2385.00,0.0046
2384.00,0.0045
2383.00,0.0044
2382.00,0.0043
2381.00,0.0043
2380.00,0.0042
2379.00,0.0042
2378.00,0.0042
2377.00,0.0042
2376.00,0.0043
2375.00,0.0043
2374.00,0.0043
2373.00,0.0043
2372.00,0.0043
2371.00,0.0043
2370.00,0.0042
2369.00,0.0042
2368.00,0.0042
2367.00,0.0041
2366.00,0.0041
2365.00,0.0041
2364.00,0.0041
2363.00,0.0042
2362.00,0.0042
2361.00,0.0042
2360.00,0.0043
2359.00,0.0043
2358.00,0.0043
2357.00,0.0044
2356.00,0.0044
2355.00,0.0045
2354.00,0.0045
2353.00,0.0045
2352.00,0.0044
2351.00,0.0044
2350.00,0.0044
2349.00,0.0044
2348.00,0.0045
2347.00,0.0046
2346.00,0.0046
2345.00,0.0046
2344.00,0.0045
2343.00,0.0045
2342.00,0.0045
2341.00,0.0046
2340.00,0.0046
2339.00,0.0047
2338.00,0.0048
2337.00,0.0048
2336.00,0.0048
2335.00,0.0048
2334.00,0.0048
2333.00,0.0048
2332.00,0.0048
2331.00,0.0047
2330.00,0.0048
2329.00,0.0049
2328.00,0.0053
2327.00,0.0057
2326.00,0.0060
2325.00,0.0061
2324.00,0.0059
2323.00,0.0057
2322.00,0.0055
2321.00,0.0053
2320.00,0.0053
2319.00,0.0052
2318.00,0.0051
2317.00,0.0051
2316.00,0.0050
2315.00,0.0050
2314.00,0.0049
2313.00,0.0049
2312.00,0.0048
2311.00,0.0047
2310.00,0.0046
2309.00,0.0046
2308.00,0.0046
2307.00,0.0046
2306.00,0.0046
2305.00,0.0047
2304.00,0.0047
2303.00,0.0047
2302.00,0.0047
2301.00,0.0047
2300.00,0.0048
2299.00,0.0048
2298.00,0.0049
2297.00,0.0050
2296.00,0.0051
2295.00,0.0053
2294.00,0.0054
2293.00,0.0055
2292.00,0.0055
2291.00,0.0056
2290.00,0.0057
2289.00,0.0058
2288.00,0.0059
2287.00,0.0059
2286.00,0.0059
2285.00,0.0059
2284.00,0.0058
2283.00,0.0057
2282.00,0.0057
2281.00,0.0056
2280.00,0.0055
2279.00,0.0055
2278.00,0.0054
2277.00,0.0054
2276.00,0.0054
2275.00,0.0054
2274.00,0.0054
2273.00,0.0054
2272.00,0.0054
2271.00,0.0053
2270.00,0.0052
2269.00,0.0051
2268.00,0.0050
2267.00,0.0050
2266.00,0.0049
2265.00,0.0049
2264.00,0.0049
2263.00,0.0049
2262.00,0.0049
2261.00,0.0049
2260.00,0.0050
2259.00,0.0051
2258.00,0.0050
2257.00,0.0050
2256.00,0.0049
2255.00,0.0048
2254.00,0.0047
2253.00,0.0047
2252.00,0.0048
2251.00,0.0048
2250.00,0.0049
2249.00,0.0050
2248.00,0.0050
2247.00,0.0050
2246.00,0.0050
2245.00,0.0050
2244.00,0.0050
2243.00,0.0050
2242.00,0.0050
2241.00,0.0050
2240.00,0.0051
2239.00,0.0051
2238.00,0.0051
2237.00,0.0051
2236.00,0.0050
2235.00,0.0050
2234.00,0.0050
2233.00,0.0050
2232.00,0.0050
2231.00,0.0050
2230.00,0.0049
2229.00,0.0050
2228.00,0.0050
2227.00,0.0050
2226.00,0.0050
2225.00,0.0049
2224.00,0.0050
2223.00,0.0050
2222.00,0.0050
2221.00,0.0051
2220.00,0.0050
2219.00,0.0049
2218.00,0.0049
2217.00,0.0048
2216.00,0.0048
2215.00,0.0048
2214.00,0.0048
2213.00,0.0049
2212.00,0.0050
2211.00,0.0050
2210.00,0.0050
2209.00,0.0050
2208.00,0.0049
2207.00,0.0048
2206.00,0.0047
2205.00,0.0046
2204.00,0.0047
2203.00,0.0047
2202.00,0.0048
2201.00,0.0048
2200.00,0.0048
2199.00,0.0048
2198.00,0.0048
2197.00,0.0048
2196.00,0.0048
2195.00,0.0047
2194.00,0.0047
2193.00,0.0048
2192.00,0.0048
2191.00,0.0048
2190.00,0.0048
2189.00,0.0050
2188.00,0.0051
2187.00,0.0052
2186.00,0.0052
2185.00,0.0050
2184.00,0.0047
2183.00,0.0044
2182.00,0.0042
2181.00,0.0042
2180.00,0.0044
2179.00,0.0045
2178.00,0.0044
2177.00,0.0043
2176.00,0.0042
2175.00,0.0042
2174.00,0.0043
2173.00,0.0046
2172.00,0.0048
2171.00,0.0050
2170.00,0.0050
2169.00,0.0051
2168.00,0.0052
2167.00,0.0053
2166.00,0.0055
2165.00,0.0058
2164.00,0.0062
2163.00,0.0062
2162.00,0.0056
2161.00,0.0042
2160.00,0.0025
2159.00,0.0012
2158.00,0.0006
2157.00,0.0006
2156.00,0.0011
2155.00,0.0015
2154.00,0.0019
2153.00,0.0022
2152.00,0.0024
2151.00,0.0024
2150.00,0.0023
2149.00,0.0022
2148.00,0.0022
2147.00,0.0022
2146.00,0.0023
2145.00,0.0025
2144.00,0.0026
2143.00,0.0027
2142.00,0.0027
2141.00,0.0027
2140.00,0.0027
2139.00,0.0026
2138.00,0.0025
2137.00,0.0023
2136.00,0.0021
2135.00,0.0019
2134.00,0.0018
2133.00,0.0019
2132.00,0.0022
2131.00,0.0024
2130.00,0.0026
2129.00,0.0028
2128.00,0.0030
2127.00,0.0031
2126.00,0.0032
2125.00,0.0033
2124.00,0.0034
2123.00,0.0035
2122.00,0.0036
2121.00,0.0037
2120.00,0.0038
2119.00,0.0039
2118.00,0.0040
2117.00,0.0041
2116.00,0.0043
2115.00,0.0043
2114.00,0.0042
2113.00,0.0042
2112.00,0.0041
2111.00,0.0040
2110.00,0.0040
2109.00,0.0040
2108.00,0.0040
2107.00,0.0040
2106.00,0.0040
2105.00,0.0040
2104.00,0.0039
2103.00,0.0039
2102.00,0.0039
2101.00,0.0039
2100.00,0.0039
2099.00,0.0038
2098.00,0.0036
2097.00,0.0034
2096.00,0.0032
2095.00,0.0032
2094.00,0.0033
2093.00,0.0035
2092.00,0.0037
2091.00,0.0039
2090.00,0.0040
2089.00,0.0041
2088.00,0.0042
2087.00,0.0041
2086.00,0.0041
2085.00,0.0041
2084.00,0.0042
2083.00,0.0043
2082.00,0.0043
2081.00,0.0044
2080.00,0.0044
2079.00,0.0043
2078.00,0.0043
2077.00,0.0043
2076.00,0.0042
2075.00,0.0041
2074.00,0.0040
2073.00,0.0038
2072.00,0.0037
2071.00,0.0036
2070.00,0.0036
2069.00,0.0036
2068.00,0.0036
2067.00,0.0035
2066.00,0.0035
2065.00,0.0034
2064.00,0.0034
2063.00,0.0034
2062.00,0.0035
2061.00,0.0035
2060.00,0.0036
2059.00,0.0036
2058.00,0.0037
2057.00,0.0038
2056.00,0.0038
2055.00,0.0039
2054.00,0.0041
2053.00,0.0045
2052.00,0.0049
2051.00,0.0049
2050.00,0.0045
2049.00,0.0039
2048.00,0.0036
2047.00,0.0033
2046.00,0.0032
2045.00,0.0032
2044.00,0.0032
2043.00,0.0032
2042.00,0.0032
2041.00,0.0032
2040.00,0.0032
2039.00,0.0032
2038.00,0.0031
2037.00,0.0029
2036.00,0.0027
2035.00,0.0024
2034.00,0.0021
2033.00,0.0021
2032.00,0.0021
2031.00,0.0022
2030.00,0.0021
2029.00,0.0021
2028.00,0.0022
2027.00,0.0023
2026.00,0.0024
2025.00,0.0025
2024.00,0.0026
2023.00,0.0026
2022.00,0.0026
2021.00,0.0026
2020.00,0.0026
2019.00,0.0026
2018.00,0.0025
2017.00,0.0025
2016.00,0.0025
2015.00,0.0025
2014.00,0.0025
2013.00,0.0027
2012.00,0.0028
2011.00,0.0029
2010.00,0.0028
2009.00,0.0025
2008.00,0.0022
2007.00,0.0019
2006.00,0.0018
2005.00,0.0018
2004.00,0.0019
2003.00,0.0020
2002.00,0.0021
2001.00,0.0022
2000.00,0.0024
1999.00,0.0025
1998.00,0.0027
1997.00,0.0029
1996.00,0.0031
1995.00,0.0032
1994.00,0.0032
1993.00,0.0033
1992.00,0.0033
1991.00,0.0034
1990.00,0.0035
1989.00,0.0037
1988.00,0.0039
1987.00,0.0039
1986.00,0.0039
1985.00,0.0041
1984.00,0.0045
1983.00,0.0048
1982.00,0.0050
1981.00,0.0050
1980.00,0.0045
1979.00,0.0037
1978.00,0.0028
1977.00,0.0024
1976.00,0.0023
1975.00,0.0023
1974.00,0.0022
1973.00,0.0021
1972.00,0.0020
1971.00,0.0019
1970.00,0.0019
1969.00,0.0020
1968.00,0.0022
1967.00,0.0022
1966.00,0.0021
1965.00,0.0021
1964.00,0.0020
1963.00,0.0020
1962.00,0.0019
1961.00,0.0019
1960.00,0.0019
1959.00,0.0020
1958.00,0.0020
1957.00,0.0022
1956.00,0.0024
1955.00,0.0025
1954.00,0.0025
1953.00,0.0026
1952.00,0.0026
1951.00,0.0027
1950.00,0.0026
1949.00,0.0027
1948.00,0.0027
1947.00,0.0028
1946.00,0.0027
1945.00,0.0027
1944.00,0.0027
1943.00,0.0026
1942.00,0.0027
1941.00,0.0027
1940.00,0.0028
1939.00,0.0029
1938.00,0.0029
1937.00,0.0029
1936.00,0.0029
1935.00,0.0029
1934.00,0.0029
1933.00,0.0029
1932.00,0.0029
1931.00,0.0029
1930.00,0.0030
1929.00,0.0030
1928.00,0.0031
1927.00,0.0032
1926.00,0.0032
1925.00,0.0031
1924.00,0.0031
1923.00,0.0031
1922.00,0.0032
1921.00,0.0033
1920.00,0.0034
1919.00,0.0034
1918.00,0.0034
1917.00,0.0033
1916.00,0.0033
1915.00,0.0034
1914.00,0.0034
1913.00,0.0035
1912.00,0.0035
1911.00,0.0035
1910.00,0.0034
1909.00,0.0034
1908.00,0.0035
1907.00,0.0036
1906.00,0.0036
1905.00,0.0036
1904.00,0.0036
1903.00,0.0037
1902.00,0.0037
1901.00,0.0037
1900.00,0.0037
1899.00,0.0037
1898.00,0.0037
1897.00,0.0037
1896.00,0.0037
1895.00,0.0038
1894.00,0.0038
1893.00,0.0038
1892.00,0.0038
1891.00,0.0038
1890.00,0.0038
1889.00,0.0038
1888.00,0.0038
1887.00,0.0038
1886.00,0.0038
1885.00,0.0039
1884.00,0.0039
1883.00,0.0039
1882.00,0.0039
1881.00,0.0040
1880.00,0.0040
1879.00,0.0041
1878.00,0.0041
1877.00,0.0041
1876.00,0.0041
1875.00,0.0041
1874.00,0.0040
1873.00,0.0040
1872.00,0.0040
1871.00,0.0040
1870.00,0.0039
1869.00,0.0039
1868.00,0.0039
1867.00,0.0039
1866.00,0.0040
1865.00,0.0040
1864.00,0.0041
1863.00,0.0041
1862.00,0.0040
1861.00,0.0040
1860.00,0.0040
1859.00,0.0040
1858.00,0.0040
1857.00,0.0040
1856.00,0.0041
1855.00,0.0041
1854.00,0.0040
1853.00,0.0040
1852.00,0.0041
1851.00,0.0041
1850.00,0.0041
1849.00,0.0041
1848.00,0.0041
1847.00,0.0041
1846.00,0.0041
1845.00,0.0041
1844.00,0.0041
1843.00,0.0040
1842.00,0.0040
1841.00,0.0040
1840.00,0.0041
1839.00,0.0041
1838.00,0.0042
1837.00,0.0042
1836.00,0.0042
1835.00,0.0042
1834.00,0.0042
1833.00,0.0043
1832.00,0.0044
1831.00,0.0044
1830.00,0.0044
1829.00,0.0044
1828.00,0.0044
1827.00,0.0044
1826.00,0.0044
1825.00,0.0044
1824.00,0.0045
1823.00,0.0045
1822.00,0.0045
1821.00,0.0045
1820.00,0.0045
1819.00,0.0044
1818.00,0.0043
1817.00,0.0043
1816.00,0.0044
1815.00,0.0045
1814.00,0.0046
1813.00,0.0047
1812.00,0.0048
1811.00,0.0049
1810.00,0.0049
1809.00,0.0051
1808.00,0.0052
1807.00,0.0054
1806.00,0.0055
1805.00,0.0056
1804.00,0.0057
1803.00,0.0057
1802.00,0.0057
1801.00,0.0057
1800.00,0.0057
1799.00,0.0057
1798.00,0.0057
1797.00,0.0056
1796.00,0.0056
1795.00,0.0055
1794.00,0.0054
1793.00,0.0053
1792.00,0.0052
1791.00,0.0052
1790.00,0.0051
1789.00,0.0051
1788.00,0.0052
1787.00,0.0052
1786.00,0.0052
1785.00,0.0052
1784.00,0.0053
1783.00,0.0053
1782.00,0.0053
1781.00,0.0053
1780.00,0.0054
1779.00,0.0055
1778.00,0.0056
1777.00,0.0057
1776.00,0.0059
1775.00,0.0061
1774.00,0.0062
1773.00,0.0064
1772.00,0.0065
1771.00,0.0065
1770.00,0.0064
1769.00,0.0063
1768.00,0.0062
1767.00,0.0060
1766.00,0.0059
1765.00,0.0058
1764.00,0.0057
1763.00,0.0056
1762.00,0.0056
1761.00,0.0055
1760.00,0.0055
1759.00,0.0054
1758.00,0.0054
1757.00,0.0054
1756.00,0.0054
1755.00,0.0053
1754.00,0.0053
1753.00,0.0053
1752.00,0.0053
1751.00,0.0052
1750.00,0.0051
1749.00,0.0051
1748.00,0.0051
1747.00,0.0051
1746.00,0.0051
1745.00,0.0052
1744.00,0.0052
1743.00,0.0053
1742.00,0.0053
1741.00,0.0054
1740.00,0.0055
1739.00,0.0056
1738.00,0.0057
1737.00,0.0057
1736.00,0.0058
1735.00,0.0058
1734.00,0.0057
1733.00,0.0057
1732.00,0.0057
1731.00,0.0057
1730.00,0.0058
1729.00,0.0059
1728.00,0.0061
1727.00,0.0062
1726.00,0.0063
1725.00,0.0063
1724.00,0.0064
1723.00,0.0065
1722.00,0.0066
1721.00,0.0067
1720.00,0.0068
1719.00,0.0068
1718.00,0.0068
1717.00,0.0068
1716.00,0.0069
1715.00,0.0070
1714.00,0.0071
1713.00,0.0072
1712.00,0.0073
1711.00,0.0073
1710.00,0.0073
1709.00,0.0072
1708.00,0.0072
1707.00,0.0071
1706.00,0.0069
1705.00,0.0067
1704.00,0.0065
1703.00,0.0063
1702.00,0.0060
1701.00,0.0055
1700.00,0.0048
1699.00,0.0040
1698.00,0.0033
1697.00,0.0027
1696.00,0.0021
1695.00,0.0016
1694.00,0.0013
1693.00,0.0011
1692.00,0.0011
1691.00,0.0012
1690.00,0.0012
1689.00,0.0013
1688.00,0.0014
1687.00,0.0015
1686.00,0.0015
1685.00,0.0014
1684.00,0.0014
1683.00,0.0015
1682.00,0.0014
1681.00,0.0014
1680.00,0.0013
1679.00,0.0012
1678.00,0.0010
1677.00,0.0008
1676.00,0.0005
1675.00,0.0002
1674.00,-0.0001
1673.00,-0.0002
1672.00,-0.0001
1671.00,0.0003
1670.00,0.0009
1669.00,0.0019
1668.00,0.0030
1667.00,0.0040
1666.00,0.0049
1665.00,0.0058
1664.00,0.0068
1663.00,0.0078
1662.00,0.0085
1661.00,0.0090
1660.00,0.0094
1659.00,0.0096
1658.00,0.0098
1657.00,0.0101
1656.00,0.0105
1655.00,0.0112
1654.00,0.0125
1653.00,0.0146
1652.00,0.0167
1651.00,0.0181
1650.00,0.0194
1649.00,0.0216
1648.00,0.0255
1647.00,0.0316
1646.00,0.0384
1645.00,0.0434
1644.00,0.0456
1643.00,0.0453
1642.00,0.0432
1641.00,0.0402
1640.00,0.0374
1639.00,0.0353
1638.00,0.0348
1637.00,0.0372
1636.00,0.0437
1635.00,0.0527
1634.00,0.0606
1633.00,0.0663
1632.00,0.0703
1631.00,0.0735
1630.00,0.0760
1629.00,0.0786
1628.00,0.0818
1627.00,0.0855
1626.00,0.0895
1625.00,0.0936
1624.00,0.0975
1623.00,0.0995
1622.00,0.0976
1621.00,0.0920
1620.00,0.0843
1619.00,0.0753
1618.00,0.0657
1617.00,0.0560
1616.00,0.0476
1615.00,0.0412
1614.00,0.0365
1613.00,0.0327
1612.00,0.0296
1611.00,0.0271
1610.00,0.0252
1609.00,0.0238
1608.00,0.0229
1607.00,0.0223
1606.00,0.0218
1605.00,0.0216
1604.00,0.0215
1603.00,0.0215
1602.00,0.0217
1601.00,0.0222
1600.00,0.0229
1599.00,0.0238
1598.00,0.0250
1597.00,0.0266
1596.00,0.0288
1595.00,0.0316
1594.00,0.0353
1593.00,0.0402
1592.00,0.0464
1591.00,0.0541
1590.00,0.0631
1589.00,0.0731
1588.00,0.0834
1587.00,0.0933
1586.00,0.1023
1585.00,0.1104
1584.00,0.1174
1583.00,0.1227
1582.00,0.1255
1581.00,0.1250
1580.00,0.1214
1579.00,0.1152
1578.00,0.1067
1577.00,0.0965
1576.00,0.0861
1575.00,0.0769
1574.00,0.0694
1573.00,0.0630
1572.00,0.0571
1571.00,0.0514
1570.00,0.0459
1569.00,0.0409
1568.00,0.0369
1567.00,0.0335
1566.00,0.0305
1565.00,0.0278
1564.00,0.0255
1563.00,0.0238
1562.00,0.0225
1561.00,0.0213
1560.00,0.0201
1559.00,0.0190
1558.00,0.0184
1557.00,0.0179
1556.00,0.0173
1555.00,0.0167
1554.00,0.0162
1553.00,0.0157
1552.00,0.0152
1551.00,0.0148
1550.00,0.0144
1549.00,0.0141
1548.00,0.0138
1547.00,0.0135
1546.00,0.0133
1545.00,0.0130
1544.00,0.0128
1543.00,0.0127
1542.00,0.0126
1541.00,0.0125
1540.00,0.0125
1539.00,0.0126
1538.00,0.0126
1537.00,0.0126
1536.00,0.0126
1535.00,0.0126
1534.00,0.0126
1533.00,0.0128
1532.00,0.0128
1531.00,0.0129
1530.00,0.0129
1529.00,0.0130
1528.00,0.0132
1527.00,0.0135
1526.00,0.0140
1525.00,0.0145
1524.00,0.0152
1523.00,0.0163
1522.00,0.0180
1521.00,0.0205
1520.00,0.0230
1519.00,0.0251
1518.00,0.0272
1517.00,0.0295
1516.00,0.0316
1515.00,0.0328
1514.00,0.0330
1513.00,0.0323
1512.00,0.0309
1511.00,0.0291
1510.00,0.0271
1509.00,0.0253
1508.00,0.0236
1507.00,0.0222
1506.00,0.0213
1505.00,0.0208
1504.00,0.0203
1503.00,0.0197
1502.00,0.0192
1501.00,0.0187
1500.00,0.0182
1499.00,0.0176
1498.00,0.0170
1497.00,0.0164
1496.00,0.0158
1495.00,0.0152
1494.00,0.0146
1493.00,0.0141
1492.00,0.0137
1491.00,0.0132
1490.00,0.0128
1489.00,0.0126
1488.00,0.0125
1487.00,0.0125
1486.00,0.0125
1485.00,0.0125
1484.00,0.0126
1483.00,0.0126
1482.00,0.0127
1481.00,0.0129
1480.00,0.0132
1479.00,0.0135
1478.00,0.0138
1477.00,0.0143
1476.00,0.0150
1475.00,0.0157
1474.00,0.0168
1473.00,0.0188
1472.00,0.0217
1471.00,0.0252
1470.00,0.0290
1469.00,0.0331
1468.00,0.0370
1467.00,0.0402
1466.00,0.0427
1465.00,0.0447
1464.00,0.0465
1463.00,0.0480
1462.00,0.0494
1461.00,0.0506
1460.00,0.0516
1459.00,0.0527
1458.00,0.0546
1457.00,0.0580
1456.00,0.0622
1455.00,0.0659
1454.00,0.0699
1453.00,0.0751
1452.00,0.0819
1451.00,0.0898
1450.00,0.0989
1449.00,0.1096
1448.00,0.1215
1447.00,0.1327
1446.00,0.1417
1445.00,0.1479
1444.00,0.1516
1443.00,0.1530
1442.00,0.1527
1441.00,0.1513
1440.00,0.1487
1439.00,0.1453
1438.00,0.1418
1437.00,0.1386
1436.00,0.1350
1435.00,0.1303
1434.00,0.1248
1433.00,0.1189
1432.00,0.1125
1431.00,0.1053
1430.00,0.0971
1429.00,0.0877
1428.00,0.0778
1427.00,0.0680
1426.00,0.0591
1425.00,0.0510
1424.00,0.0441
1423.00,0.0388
1422.00,0.0347
1421.00,0.0314
1420.00,0.0284
1419.00,0.0259
1418.00,0.0240
1417.00,0.0224
1416.00,0.0212
1415.00,0.0204
1414.00,0.0197
1413.00,0.0191
1412.00,0.0186
1411.00,0.0183
1410.00,0.0181
1409.00,0.0178
1408.00,0.0176
1407.00,0.0175
1406.00,0.0174
1405.00,0.0173
1404.00,0.0172
1403.00,0.0171
1402.00,0.0170
1401.00,0.0168
1400.00,0.0166
1399.00,0.0165
1398.00,0.0165
1397.00,0.0163
1396.00,0.0162
1395.00,0.0161
1394.00,0.0160
1393.00,0.0159
1392.00,0.0157
1391.00,0.0158
1390.00,0.0159
1389.00,0.0162
1388.00,0.0166
1387.00,0.0174
1386.00,0.0185
1385.00,0.0199
1384.00,0.0217
1383.00,0.0243
1382.00,0.0278
1381.00,0.0323
1380.00,0.0380
1379.00,0.0450
1378.00,0.0524
1377.00,0.0592
1376.00,0.0641
1375.00,0.0663
1374.00,0.0655
1373.00,0.0623
1372.00,0.0581
1371.00,0.0538
1370.00,0.0498
1369.00,0.0462
1368.00,0.0433
1367.00,0.0409
1366.00,0.0388
1365.00,0.0367
1364.00,0.0347
1363.00,0.0329
1362.00,0.0314
1361.00,0.0302
1360.00,0.0294
1359.00,0.0288
1358.00,0.0283
1357.00,0.0280
1356.00,0.0279
1355.00,0.0279
1354.00,0.0280
1353.00,0.0281
1352.00,0.0282
1351.00,0.0285
1350.00,0.0288
1349.00,0.0293
1348.00,0.0300
1347.00,0.0309
1346.00,0.0318
1345.00,0.0326
1344.00,0.0333
1343.00,0.0337
1342.00,0.0337
1341.00,0.0331
1340.00,0.0320
1339.00,0.0304
1338.00,0.0286
1337.00,0.0271
1336.00,0.0261
1335.00,0.0256
1334.00,0.0258
1333.00,0.0263
1332.00,0.0273
1331.00,0.0286
1330.00,0.0301
1329.00,0.0316
1328.00,0.0333
1327.00,0.0352
1326.00,0.0371
1325.00,0.0389
1324.00,0.0401
1323.00,0.0403
1322.00,0.0394
1321.00,0.0380
1320.00,0.0367
1319.00,0.0360
1318.00,0.0366
1317.00,0.0387
1316.00,0.0422
1315.00,0.0470
1314.00,0.0524
1313.00,0.0573
1312.00,0.0609
1311.00,0.0625
1310.00,0.0622
1309.00,0.0607
1308.00,0.0591
1307.00,0.0581
1306.00,0.0582
1305.00,0.0592
1304.00,0.0606
1303.00,0.0621
1302.00,0.0631
1301.00,0.0636
1300.00,0.0634
1299.00,0.0628
1298.00,0.0619
1297.00,0.0606
1296.00,0.0590
1295.00,0.0572
1294.00,0.0552
1293.00,0.0532
1292.00,0.0513
1291.00,0.0495
1290.00,0.0481
1289.00,0.0472
1288.00,0.0470
1287.00,0.0477
1286.00,0.0492
1285.00,0.0513
1284.00,0.0538
1283.00,0.0564
1282.00,0.0587
1281.00,0.0606
1280.00,0.0619
1279.00,0.0624
1278.00,0.0622
1277.00,0.0612
1276.00,0.0595
1275.00,0.0571
1274.00,0.0542
1273.00,0.0507
1272.00,0.0467
1271.00,0.0424
1270.00,0.0379
1269.00,0.0334
1268.00,0.0292
1267.00,0.0254
1266.00,0.0220
1265.00,0.0191
1264.00,0.0169
1263.00,0.0154
1262.00,0.0147
1261.00,0.0147
1260.00,0.0151
1259.00,0.0157
1258.00,0.0164
1257.00,0.0171
1256.00,0.0178
1255.00,0.0186
1254.00,0.0195
1253.00,0.0207
1252.00,0.0223
1251.00,0.0242
1250.00,0.0261
1249.00,0.0279
1248.00,0.0292
1247.00,0.0302
1246.00,0.0313
1245.00,0.0331
1244.00,0.0360
1243.00,0.0403
1242.00,0.0460
1241.00,0.0530
1240.00,0.0606
1239.00,0.0679
1238.00,0.0739
1237.00,0.0777
1236.00,0.0792
1235.00,0.0790
1234.00,0.0776
1233.00,0.0752
1232.00,0.0723
1231.00,0.0694
1230.00,0.0675
1229.00,0.0673
1228.00,0.0695
1227.00,0.0739
1226.00,0.0798
1225.00,0.0864
1224.00,0.0934
1223.00,0.1008
1222.00,0.1089
1221.00,0.1183
1220.00,0.1296
1219.00,0.1429
1218.00,0.1574
1217.00,0.1716
1216.00,0.1835
1215.00,0.1911
1214.00,0.1933
1213.00,0.1902
1212.00,0.1826
1211.00,0.1721
1210.00,0.1602
1209.00,0.1482
1208.00,0.1372
1207.00,0.1274
1206.00,0.1186
1205.00,0.1104
1204.00,0.1024
1203.00,0.0942
1202.00,0.0860
1201.00,0.0781
1200.00,0.0708
1199.00,0.0643
1198.00,0.0587
1197.00,0.0542
1196.00,0.0507
1195.00,0.0482
1194.00,0.0466
1193.00,0.0457
1192.00,0.0456
1191.00,0.0461
1190.00,0.0469
1189.00,0.0480
1188.00,0.0492
1187.00,0.0505
1186.00,0.0520
1185.00,0.0536
1184.00,0.0551
1183.00,0.0565
1182.00,0.0576
1181.00,0.0584
1180.00,0.0591
1179.00,0.0597
1178.00,0.0602
1177.00,0.0607
1176.00,0.0614
1175.00,0.0630
1174.00,0.0657
1173.00,0.0685
1172.00,0.0698
1171.00,0.0681
1170.00,0.0631
1169.00,0.0562
1168.00,0.0491
1167.00,0.0429
1166.00,0.0379
1165.00,0.0339
1164.00,0.0309
1163.00,0.0285
1162.00,0.0268
1161.00,0.0255
1160.00,0.0249
1159.00,0.0248
1158.00,0.0254
1157.00,0.0270
1156.00,0.0299
1155.00,0.0349
1154.00,0.0425
1153.00,0.0521
1152.00,0.0619
1151.00,0.0690
1150.00,0.0704
1149.00,0.0657
1148.00,0.0569
1147.00,0.0473
1146.00,0.0392
1145.00,0.0334
1144.00,0.0294
1143.00,0.0269
1142.00,0.0253
1141.00,0.0245
1140.00,0.0242
1139.00,0.0245
1138.00,0.0251
1137.00,0.0259
1136.00,0.0266
1135.00,0.0270
1134.00,0.0269
1133.00,0.0262
1132.00,0.0250
1131.00,0.0236
1130.00,0.0222
1129.00,0.0209
1128.00,0.0198
1127.00,0.0189
1126.00,0.0183
1125.00,0.0179
1124.00,0.0175
1123.00,0.0173
1122.00,0.0171
1121.00,0.0171
1120.00,0.0170
1119.00,0.0172
1118.00,0.0174
1117.00,0.0177
1116.00,0.0181
1115.00,0.0184
1114.00,0.0188
1113.00,0.0192
1112.00,0.0195
1111.00,0.0200
1110.00,0.0206
1109.00,0.0213
1108.00,0.0223
1107.00,0.0234
1106.00,0.0247
1105.00,0.0261
1104.00,0.0276
1103.00,0.0294
1102.00,0.0315
1101.00,0.0336
1100.00,0.0354
1099.00,0.0364
1098.00,0.0361
1097.00,0.0345
1096.00,0.0321
1095.00,0.0296
1094.00,0.0274
1093.00,0.0257
1092.00,0.0244
1091.00,0.0234
1090.00,0.0226
1089.00,0.0220
1088.00,0.0218
1087.00,0.0219
1086.00,0.0227
1085.00,0.0240
1084.00,0.0260
1083.00,0.0286
1082.00,0.0315
1081.00,0.0341
1080.00,0.0359
1079.00,0.0364
1078.00,0.0355
1077.00,0.0335
1076.00,0.0312
1075.00,0.0290
1074.00,0.0272
1073.00,0.0258
1072.00,0.0246
1071.00,0.0238
1070.00,0.0231
1069.00,0.0226
1068.00,0.0222
1067.00,0.0221
1066.00,0.0221
1065.00,0.0224
1064.00,0.0229
1063.00,0.0237
1062.00,0.0248
1061.00,0.0263
1060.00,0.0284
1059.00,0.0315
1058.00,0.0362
1057.00,0.0427
1056.00,0.0511
1055.00,0.0607
1054.00,0.0700
1053.00,0.0774
1052.00,0.0820
1051.00,0.0835
1050.00,0.0820
1049.00,0.0778
1048.00,0.0713
1047.00,0.0638
1046.00,0.0568
1045.00,0.0515
1044.00,0.0481
1043.00,0.0467
1042.00,0.0468
1041.00,0.0477
1040.00,0.0494
1039.00,0.0518
1038.00,0.0555
1037.00,0.0607
1036.00,0.0678
1035.00,0.0763
1034.00,0.0851
1033.00,0.0922
1032.00,0.0960
1031.00,0.0956
1030.00,0.0917
1029.00,0.0859
1028.00,0.0800
1027.00,0.0757
1026.00,0.0739
1025.00,0.0750
1024.00,0.0794
1023.00,0.0869
1022.00,0.0966
1021.00,0.1070
1020.00,0.1158
1019.00,0.1206
1018.00,0.1203
1017.00,0.1154
1016.00,0.1075
1015.00,0.0986
1014.00,0.0897
1013.00,0.0817
1012.00,0.0751
1011.00,0.0703
1010.00,0.0673
1009.00,0.0659
1008.00,0.0656
1007.00,0.0663
1006.00,0.0682
1005.00,0.0712
1004.00,0.0748
1003.00,0.0781
1002.00,0.0799
1001.00,0.0796
1000.00,0.0767
999.00,0.0717
998.00,0.0652
997.00,0.0585
996.00,0.0525
995.00,0.0478
994.00,0.0445
993.00,0.0423
992.00,0.0414
991.00,0.0415
990.00,0.0424
989.00,0.0438
988.00,0.0454
987.00,0.0469
986.00,0.0480
985.00,0.0484
984.00,0.0479
983.00,0.0462
982.00,0.0436
981.00,0.0409
980.00,0.0387
979.00,0.0370
978.00,0.0359
977.00,0.0350
976.00,0.0341
975.00,0.0333
974.00,0.0326
973.00,0.0323
972.00,0.0325
971.00,0.0333
970.00,0.0345
969.00,0.0361
968.00,0.0379
967.00,0.0398
966.00,0.0420
965.00,0.0446
964.00,0.0477
963.00,0.0509
962.00,0.0534
961.00,0.0542
960.00,0.0529
959.00,0.0496
958.00,0.0450
957.00,0.0401
956.00,0.0356
955.00,0.0319
954.00,0.0289
953.00,0.0266
952.00,0.0249
951.00,0.0236
950.00,0.0226
949.00,0.0219
948.00,0.0213
947.00,0.0208
946.00,0.0205
945.00,0.0202
944.00,0.0199
943.00,0.0197
942.00,0.0195
941.00,0.0194
940.00,0.0193
939.00,0.0192
938.00,0.0192
937.00,0.0192
936.00,0.0194
935.00,0.0196
934.00,0.0199
933.00,0.0204
932.00,0.0211
931.00,0.0219
930.00,0.0226
929.00,0.0230
928.00,0.0232
927.00,0.0232
926.00,0.0232
925.00,0.0231
924.00,0.0231
923.00,0.0230
922.00,0.0230
921.00,0.0232
920.00,0.0237
919.00,0.0247
918.00,0.0259
917.00,0.0273
916.00,0.0284
915.00,0.0291
914.00,0.0293
913.00,0.0290
912.00,0.0288
911.00,0.0288
910.00,0.0294
909.00,0.0307
908.00,0.0327
907.00,0.0356
906.00,0.0392
905.00,0.0434
904.00,0.0483
903.00,0.0539
902.00,0.0607
901.00,0.0694
900.00,0.0803
899.00,0.0931
898.00,0.1055
897.00,0.1146
896.00,0.1177
895.00,0.1141
894.00,0.1057
893.00,0.0954
892.00,0.0856
891.00,0.0778
890.00,0.0731
889.00,0.0724
888.00,0.0763
887.00,0.0853
886.00,0.0988
885.00,0.1144
884.00,0.1274
883.00,0.1329
882.00,0.1284
881.00,0.1160
880.00,0.1002
879.00,0.0851
878.00,0.0730
877.00,0.0642
876.00,0.0584
875.00,0.0549
874.00,0.0535
873.00,0.0540
872.00,0.0559
871.00,0.0585
870.00,0.0604
869.00,0.0608
868.00,0.0597
867.00,0.0586
866.00,0.0588
865.00,0.0614
864.00,0.0660
863.00,0.0713
862.00,0.0754
861.00,0.0775
860.00,0.0775
859.00,0.0765
858.00,0.0759
857.00,0.0765
856.00,0.0783
855.00,0.0806
854.00,0.0831
853.00,0.0852
852.00,0.0869
851.00,0.0876
850.00,0.0870
849.00,0.0848
848.00,0.0814
847.00,0.0777
846.00,0.0746
845.00,0.0724
844.00,0.0709
843.00,0.0697
842.00,0.0682
841.00,0.0665
840.00,0.0649
839.00,0.0638
838.00,0.0636
837.00,0.0642
836.00,0.0656
835.00,0.0676
834.00,0.0703
833.00,0.0734
832.00,0.0767
831.00,0.0798
830.00,0.0826
829.00,0.0847
828.00,0.0859
827.00,0.0855
826.00,0.0834
825.00,0.0796
824.00,0.0746
823.00,0.0689
822.00,0.0631
821.00,0.0573
820.00,0.0520
819.00,0.0473
818.00,0.0434
817.00,0.0404
816.00,0.0383
815.00,0.0367
814.00,0.0355
813.00,0.0345
812.00,0.0338
811.00,0.0339
810.00,0.0351
809.00,0.0383
808.00,0.0442
807.00,0.0525
806.00,0.0617
805.00,0.0689
804.00,0.0714
803.00,0.0687
802.00,0.0627
801.00,0.0557
800.00,0.0493
799.00,0.0442
798.00,0.0403
797.00,0.0373
796.00,0.0353
795.00,0.0340
794.00,0.0333
793.00,0.0330
792.00,0.0327
791.00,0.0323
790.00,0.0319
789.00,0.0316
788.00,0.0316
787.00,0.0317
786.00,0.0319
785.00,0.0317
784.00,0.0310
783.00,0.0299
782.00,0.0288
781.00,0.0280
780.00,0.0276
779.00,0.0275
778.00,0.0275
777.00,0.0274
776.00,0.0271
775.00,0.0268
774.00,0.0266
773.00,0.0266
772.00,0.0268
771.00,0.0270
770.00,0.0270
769.00,0.0266
768.00,0.0258
767.00,0.0247
766.00,0.0236
765.00,0.0225
764.00,0.0217
763.00,0.0210
762.00,0.0206
761.00,0.0205
760.00,0.0204
759.00,0.0206
758.00,0.0210
757.00,0.0218
756.00,0.0230
755.00,0.0249
754.00,0.0275
753.00,0.0301
752.00,0.0324
751.00,0.0341
750.00,0.0352
749.00,0.0358
748.00,0.0354
747.00,0.0338
746.00,0.0313
745.00,0.0285
744.00,0.0260
743.00,0.0242
742.00,0.0228
741.00,0.0220
740.00,0.0215
739.00,0.0213
738.00,0.0215
737.00,0.0220
736.00,0.0229
735.00,0.0244
734.00,0.0265
733.00,0.0291
732.00,0.0316
731.00,0.0332
730.00,0.0332
729.00,0.0317
728.00,0.0297
727.00,0.0279
726.00,0.0268
725.00,0.0261
724.00,0.0256
723.00,0.0252
722.00,0.0248
721.00,0.0244
720.00,0.0240
719.00,0.0236
718.00,0.0229
717.00,0.0220
716.00,0.0211
715.00,0.0203
714.00,0.0198
713.00,0.0196
712.00,0.0197
711.00,0.0197
710.00,0.0194
709.00,0.0189
708.00,0.0183
707.00,0.0176
706.00,0.0169
705.00,0.0163
704.00,0.0157
703.00,0.0151
702.00,0.0145
701.00,0.0142
700.00,0.0142
699.00,0.0144
698.00,0.0147
697.00,0.0150
696.00,0.0152
695.00,0.0153
694.00,0.0154
693.00,0.0155
692.00,0.0158
691.00,0.0160
690.00,0.0163
689.00,0.0165
688.00,0.0167
687.00,0.0169
686.00,0.0171
685.00,0.0173
684.00,0.0176
683.00,0.0179
682.00,0.0182
681.00,0.0186
680.00,0.0191
679.00,0.0196
678.00,0.0202
677.00,0.0208
676.00,0.0215
675.00,0.0223
674.00,0.0234
673.00,0.0248
672.00,0.0265
671.00,0.0283
670.00,0.0301
669.00,0.0320
668.00,0.0339
667.00,0.0351
666.00,0.0354
665.00,0.0354
664.00,0.0356
663.00,0.0359
662.00,0.0360
661.00,0.0361
660.00,0.0361
659.00,0.0362
658.00,0.0361
657.00,0.0358
656.00,0.0354
655.00,0.0350
654.00,0.0349
653.00,0.0354
652.00,0.0363
651.00,0.0376
650.00,0.0388
649.00,0.0396
648.00,0.0395
647.00,0.0386
646.00,0.0371
645.00,0.0353
644.00,0.0334
643.00,0.0316
642.00,0.0301
641.00,0.0290
640.00,0.0282
639.00,0.0278
638.00,0.0277
637.00,0.0277
636.00,0.0279
635.00,0.0283
634.00,0.0287
633.00,0.0292
632.00,0.0298
631.00,0.0305
630.00,0.0313
629.00,0.0322
628.00,0.0330
627.00,0.0339
626.00,0.0348
625.00,0.0355
624.00,0.0360
623.00,0.0360
622.00,0.0355
621.00,0.0343
620.00,0.0327
619.00,0.0307
618.00,0.0289
617.00,0.0278
616.00,0.0279
615.00,0.0295
614.00,0.0324
613.00,0.0363
612.00,0.0400
611.00,0.0425
610.00,0.0431
609.00,0.0422
608.00,0.0409
607.00,0.0401
606.00,0.0402
605.00,0.0408
604.00,0.0417
603.00,0.0427
602.00,0.0438
601.00,0.0452
600.00,0.0469
599.00,0.0484
598.00,0.0490
597.00,0.0488
596.00,0.0483
595.00,0.0482
594.00,0.0488
593.00,0.0504
592.00,0.0527
591.00,0.0557
590.00,0.0590
589.00,0.0623
588.00,0.0650
587.00,0.0666
586.00,0.0668
585.00,0.0657
584.00,0.0635
583.00,0.0607
582.00,0.0577
581.00,0.0547
580.00,0.0521
579.00,0.0501
578.00,0.0487
577.00,0.0480
576.00,0.0477
575.00,0.0479
574.00,0.0484
573.00,0.0490
572.00,0.0499
571.00,0.0509
570.00,0.0518
569.00,0.0526
568.00,0.0533
567.00,0.0539
566.00,0.0544
565.00,0.0547
564.00,0.0549
563.00,0.0550
562.00,0.0550
561.00,0.0551
560.00,0.0551
559.00,0.0550
558.00,0.0549
557.00,0.0547
556.00,0.0547
555.00,0.0548
554.00,0.0553
553.00,0.0565
552.00,0.0582
551.00,0.0603
550.00,0.0621
549.00,0.0635
548.00,0.0648
547.00,0.0664
546.00,0.0684
545.00,0.0705
544.00,0.0720
543.00,0.0728
542.00,0.0733
541.00,0.0745
540.00,0.0769
539.00,0.0806
538.00,0.0851
537.00,0.0895
536.00,0.0924
535.00,0.0934
534.00,0.0924
533.00,0.0904
532.00,0.0883
531.00,0.0864
530.00,0.0850
529.00,0.0845
528.00,0.0858
527.00,0.0890
526.00,0.0940
525.00,0.1000
524.00,0.1062
523.00,0.1115
522.00,0.1143
521.00,0.1130
520.00,0.1073
519.00,0.0984
518.00,0.0891
517.00,0.0812
516.00,0.0756
515.00,0.0719
514.00,0.0697
513.00,0.0688
512.00,0.0689
511.00,0.0697
510.00,0.0713
509.00,0.0735
508.00,0.0764
507.00,0.0798
506.00,0.0834
505.00,0.0874
504.00,0.0916
503.00,0.0962
502.00,0.1011
501.00,0.1060
500.00,0.1105
499.00,0.1145
498.00,0.1177
497.00,0.1204
496.00,0.1224
495.00,0.1236
494.00,0.1239
493.00,0.1236
492.00,0.1230
491.00,0.1221
490.00,0.1210
489.00,0.1201
488.00,0.1196
487.00,0.1193
486.00,0.1190
485.00,0.1186
484.00,0.1180
483.00,0.1169
482.00,0.1149
481.00,0.1121
480.00,0.1088
479.00,0.1054
478.00,0.1024
477.00,0.1002
476.00,0.0990
475.00,0.0988
474.00,0.0994
473.00,0.1006
472.00,0.1023
471.00,0.1044
470.00,0.1063
469.00,0.1082
468.00,0.1100
467.00,0.1114
466.00,0.1121
465.00,0.1124
464.00,0.1127
463.00,0.1128
462.00,0.1124
461.00,0.1115
460.00,0.1105
459.00,0.1095
458.00,0.1087
457.00,0.1082
456.00,0.1079
455.00,0.1077
454.00,0.1075
453.00,0.1073
452.00,0.1068
451.00,0.1057
450.00,0.1039
449.00,0.1017
448.00,0.0995
447.00,0.0974
446.00,0.0954
445.00,0.0936
444.00,0.0921
443.00,0.0907
442.00,0.0893
441.00,0.0882
440.00,0.0877
439.00,0.0877
438.00,0.0879
437.00,0.0879
436.00,0.0878
435.00,0.0876
434.00,0.0874
433.00,0.0876
432.00,0.0887
431.00,0.0907
430.00,0.0935
429.00,0.0970
428.00,0.1011
427.00,0.1054
426.00,0.1093
425.00,0.1124
424.00,0.1143
423.00,0.1144
422.00,0.1131
421.00,0.1114
420.00,0.1097
419.00,0.1082
418.00,0.1066
417.00,0.1057
416.00,0.1056
415.00,0.1060
414.00,0.1066
413.00,0.1076
412.00,0.1090
411.00,0.1108
410.00,0.1131
409.00,0.1161
408.00,0.1194
407.00,0.1222
406.00,0.1239
405.00,0.1252
404.00,0.1266
403.00,0.1278
402.00,0.1287
401.00,0.1301
400.00,0.1328
