Created as New Dataset,Sample 1013 By YargerLab Date Friday, August 01 2025
cm-1,A
4000.00,0.0122
3999.00,0.0122
3998.00,0.0122
3997.00,0.0121
3996.00,0.0121
3995.00,0.0121
3994.00,0.0121
3993.00,0.0121
3992.00,0.0121
3991.00,0.0121
3990.00,0.0121
3989.00,0.0122
3988.00,0.0122
3987.00,0.0122
3986.00,0.0121
3985.00,0.0121
3984.00,0.0121
3983.00,0.0121
3982.00,0.0121
3981.00,0.0121
3980.00,0.0122
3979.00,0.0122
3978.00,0.0122
3977.00,0.0122
3976.00,0.0122
3975.00,0.0122
3974.00,0.0122
3973.00,0.0122
3972.00,0.0122
3971.00,0.0122
3970.00,0.0122
3969.00,0.0122
3968.00,0.0121
3967.00,0.0121
3966.00,0.0121
3965.00,0.0121
3964.00,0.0121
3963.00,0.0122
3962.00,0.0121
3961.00,0.0121
3960.00,0.0121
3959.00,0.0121
3958.00,0.0121
3957.00,0.0121
3956.00,0.0121
3955.00,0.0121
3954.00,0.0121
3953.00,0.0121
3952.00,0.0121
3951.00,0.0121
3950.00,0.0121
3949.00,0.0121
3948.00,0.0121
3947.00,0.0121
3946.00,0.0121
3945.00,0.0121
3944.00,0.0121
3943.00,0.0121
3942.00,0.0121
3941.00,0.0121
3940.00,0.0121
3939.00,0.0121
3938.00,0.0121
3937.00,0.0121
3936.00,0.0121
3935.00,0.0121
3934.00,0.0121
3933.00,0.0121
3932.00,0.0121
3931.00,0.0121
3930.00,0.0121
3929.00,0.0121
3928.00,0.0121
3927.00,0.0121
3926.00,0.0122
3925.00,0.0122
3924.00,0.0122
3923.00,0.0122
3922.00,0.0122
3921.00,0.0122
3920.00,0.0121
3919.00,0.0121
3918.00,0.0121
3917.00,0.0121
3916.00,0.0121
3915.00,0.0121
3914.00,0.0121
3913.00,0.0121
3912.00,0.0121
3911.00,0.0121
3910.00,0.0121
3909.00,0.0121
3908.00,0.0121
3907.00,0.0121
3906.00,0.0121
3905.00,0.0121
3904.00,0.0121
3903.00,0.0122
3902.00,0.0122
3901.00,0.0122
3900.00,0.0122
3899.00,0.0122
3898.00,0.0122
3897.00,0.0121
3896.00,0.0121
3895.00,0.0121
3894.00,0.0121
3893.00,0.0121
3892.00,0.0121
3891.00,0.0121
3890.00,0.0121
3889.00,0.0121
3888.00,0.0122
3887.00,0.0122
3886.00,0.0121
3885.00,0.0121
3884.00,0.0121
3883.00,0.0121
3882.00,0.0121
3881.00,0.0121
3880.00,0.0121
3879.00,0.0121
3878.00,0.0121
3877.00,0.0121
3876.00,0.0121
3875.00,0.0121
3874.00,0.0121
3873.00,0.0121
3872.00,0.0121
3871.00,0.0121
3870.00,0.0121
3869.00,0.0121
3868.00,0.0121
3867.00,0.0121
3866.00,0.0121
3865.00,0.0121
3864.00,0.0121
3863.00,0.0121
3862.00,0.0121
3861.00,0.0121
3860.00,0.0121
3859.00,0.0121
3858.00,0.0121
3857.00,0.0121
3856.00,0.0121
3855.00,0.0121
3854.00,0.0121
3853.00,0.0121
3852.00,0.0121
3851.00,0.0121
3850.00,0.0121
3849.00,0.0121
3848.00,0.0121
3847.00,0.0120
3846.00,0.0121
3845.00,0.0121
3844.00,0.0121
3843.00,0.0121
3842.00,0.0121
3841.00,0.0121
3840.00,0.0121
3839.00,0.0121
3838.00,0.0120
3837.00,0.0120
3836.00,0.0120
3835.00,0.0120
3834.00,0.0120
3833.00,0.0120
3832.00,0.0120
3831.00,0.0120
3830.00,0.0120
3829.00,0.0121
3828.00,0.0121
3827.00,0.0121
3826.00,0.0121
3825.00,0.0120
3824.00,0.0120
3823.00,0.0120
3822.00,0.0120
3821.00,0.0120
3820.00,0.0120
3819.00,0.0120
3818.00,0.0121
3817.00,0.0121
3816.00,0.0120
3815.00,0.0120
3814.00,0.0119
3813.00,0.0120
3812.00,0.0120
3811.00,0.0120
3810.00,0.0120
3809.00,0.0120
3808.00,0.0120
3807.00,0.0120
3806.00,0.0120
3805.00,0.0120
3804.00,0.0120
3803.00,0.0120
3802.00,0.0120
3801.00,0.0120
3800.00,0.0120
3799.00,0.0120
3798.00,0.0120
3797.00,0.0120
3796.00,0.0120
3795.00,0.0120
3794.00,0.0119
3793.00,0.0120
3792.00,0.0120
3791.00,0.0120
3790.00,0.0120
3789.00,0.0120
3788.00,0.0119
3787.00,0.0119
3786.00,0.0119
3785.00,0.0119
3784.00,0.0119
3783.00,0.0119
3782.00,0.0119
3781.00,0.0119
3780.00,0.0120
3779.00,0.0120
3778.00,0.0120
3777.00,0.0120
3776.00,0.0119
3775.00,0.0119
3774.00,0.0119
3773.00,0.0119
3772.00,0.0120
3771.00,0.0120
3770.00,0.0120
3769.00,0.0120
3768.00,0.0120
3767.00,0.0120
3766.00,0.0120
3765.00,0.0120
3764.00,0.0120
3763.00,0.0119
3762.00,0.0120
3761.00,0.0120
3760.00,0.0120
3759.00,0.0120
3758.00,0.0120
3757.00,0.0120
3756.00,0.0120
3755.00,0.0120
3754.00,0.0120
3753.00,0.0120
3752.00,0.0121
3751.00,0.0121
3750.00,0.0120
3749.00,0.0120
3748.00,0.0120
3747.00,0.0120
3746.00,0.0121
3745.00,0.0121
3744.00,0.0121
3743.00,0.0121
3742.00,0.0121
3741.00,0.0121
3740.00,0.0121
3739.00,0.0120
3738.00,0.0120
3737.00,0.0120
3736.00,0.0120
3735.00,0.0120
3734.00,0.0120
3733.00,0.0119
3732.00,0.0119
3731.00,0.0119
3730.00,0.0119
3729.00,0.0119
3728.00,0.0119
3727.00,0.0119
3726.00,0.0119
3725.00,0.0119
3724.00,0.0119
3723.00,0.0119
3722.00,0.0119
3721.00,0.0119
3720.00,0.0119
3719.00,0.0119
3718.00,0.0119
3717.00,0.0118
3716.00,0.0118
3715.00,0.0119
3714.00,0.0119
3713.00,0.0119
3712.00,0.0119
3711.00,0.0119
3710.00,0.0119
3709.00,0.0119
3708.00,0.0119
3707.00,0.0118
3706.00,0.0118
3705.00,0.0118
3704.00,0.0118
3703.00,0.0118
3702.00,0.0118
3701.00,0.0118
3700.00,0.0118
3699.00,0.0118
3698.00,0.0118
3697.00,0.0118
3696.00,0.0119
3695.00,0.0119
3694.00,0.0119
3693.00,0.0119
3692.00,0.0120
3691.00,0.0120
3690.00,0.0120
3689.00,0.0120
3688.00,0.0120
3687.00,0.0121
3686.00,0.0121
3685.00,0.0122
3684.00,0.0122
3683.00,0.0122
3682.00,0.0122
3681.00,0.0123
3680.00,0.0123
3679.00,0.0123
3678.00,0.0124
3677.00,0.0124
3676.00,0.0125
3675.00,0.0125
3674.00,0.0125
3673.00,0.0125
3672.00,0.0125
3671.00,0.0126
3670.00,0.0126
3669.00,0.0126
3668.00,0.0126
3667.00,0.0126
3666.00,0.0126
3665.00,0.0126
3664.00,0.0127
3663.00,0.0127
3662.00,0.0127
3661.00,0.0127
3660.00,0.0128
3659.00,0.0128
3658.00,0.0129
3657.00,0.0129
3656.00,0.0130
3655.00,0.0131
3654.00,0.0131
3653.00,0.0132
3652.00,0.0133
3651.00,0.0134
3650.00,0.0134
3649.00,0.0135
3648.00,0.0135
3647.00,0.0136
3646.00,0.0136
3645.00,0.0137
3644.00,0.0137
3643.00,0.0137
3642.00,0.0138
3641.00,0.0138
3640.00,0.0139
3639.00,0.0139
3638.00,0.0140
3637.00,0.0141
3636.00,0.0142
3635.00,0.0142
3634.00,0.0143
3633.00,0.0144
3632.00,0.0145
3631.00,0.0146
3630.00,0.0147
3629.00,0.0148
3628.00,0.0149
3627.00,0.0149
3626.00,0.0150
3625.00,0.0152
3624.00,0.0152
3623.00,0.0153
3622.00,0.0154
3621.00,0.0155
3620.00,0.0155
3619.00,0.0156
3618.00,0.0157
3617.00,0.0158
3616.00,0.0159
3615.00,0.0160
3614.00,0.0161
3613.00,0.0163
3612.00,0.0164
3611.00,0.0165
3610.00,0.0167
3609.00,0.0168
3608.00,0.0169
3607.00,0.0170
3606.00,0.0170
3605.00,0.0171
3604.00,0.0172
3603.00,0.0173
3602.00,0.0175
3601.00,0.0176
3600.00,0.0177
3599.00,0.0179
3598.00,0.0180
3597.00,0.0181
3596.00,0.0182
3595.00,0.0184
3594.00,0.0185
3593.00,0.0186
3592.00,0.0188
3591.00,0.0189
3590.00,0.0190
3589.00,0.0192
3588.00,0.0193
3587.00,0.0195
3586.00,0.0196
3585.00,0.0198
3584.00,0.0199
3583.00,0.0200
3582.00,0.0202
3581.00,0.0203
3580.00,0.0205
3579.00,0.0206
3578.00,0.0208
3577.00,0.0209
3576.00,0.0211
3575.00,0.0212
3574.00,0.0214
3573.00,0.0216
3572.00,0.0218
3571.00,0.0219
3570.00,0.0221
3569.00,0.0222
3568.00,0.0224
3567.00,0.0226
3566.00,0.0228
3565.00,0.0230
3564.00,0.0232
3563.00,0.0233
3562.00,0.0235
3561.00,0.0236
3560.00,0.0238
3559.00,0.0239
3558.00,0.0241
3557.00,0.0243
3556.00,0.0245
3555.00,0.0247
3554.00,0.0248
3553.00,0.0250
3552.00,0.0251
3551.00,0.0253
3550.00,0.0254
3549.00,0.0256
3548.00,0.0258
3547.00,0.0259
3546.00,0.0261
3545.00,0.0263
3544.00,0.0264
3543.00,0.0265
3542.00,0.0266
3541.00,0.0268
3540.00,0.0269
3539.00,0.0270
3538.00,0.0272
3537.00,0.0273
3536.00,0.0275
3535.00,0.0277
3534.00,0.0278
3533.00,0.0280
3532.00,0.0281
3531.00,0.0282
3530.00,0.0283
3529.00,0.0285
3528.00,0.0286
3527.00,0.0287
3526.00,0.0289
3525.00,0.0290
3524.00,0.0291
3523.00,0.0292
3522.00,0.0293
3521.00,0.0295
3520.00,0.0296
3519.00,0.0297
3518.00,0.0298
3517.00,0.0299
3516.00,0.0300
3515.00,0.0301
3514.00,0.0303
3513.00,0.0304
3512.00,0.0305
3511.00,0.0306
3510.00,0.0306
3509.00,0.0307
3508.00,0.0308
3507.00,0.0309
3506.00,0.0310
3505.00,0.0311
3504.00,0.0313
3503.00,0.0314
3502.00,0.0315
3501.00,0.0316
3500.00,0.0317
3499.00,0.0318
3498.00,0.0319
3497.00,0.0320
3496.00,0.0321
3495.00,0.0322
3494.00,0.0323
3493.00,0.0324
3492.00,0.0325
3491.00,0.0326
3490.00,0.0327
3489.00,0.0328
3488.00,0.0329
3487.00,0.0330
3486.00,0.0331
3485.00,0.0332
3484.00,0.0333
3483.00,0.0334
3482.00,0.0335
3481.00,0.0336
3480.00,0.0337
3479.00,0.0339
3478.00,0.0340
3477.00,0.0341
3476.00,0.0342
3475.00,0.0343
3474.00,0.0344
3473.00,0.0346
3472.00,0.0348
3471.00,0.0349
3470.00,0.0351
3469.00,0.0352
3468.00,0.0353
3467.00,0.0354
3466.00,0.0355
3465.00,0.0356
3464.00,0.0358
3463.00,0.0359
3462.00,0.0360
3461.00,0.0361
3460.00,0.0363
3459.00,0.0364
3458.00,0.0365
3457.00,0.0366
3456.00,0.0367
3455.00,0.0369
3454.00,0.0370
3453.00,0.0371
3452.00,0.0372
3451.00,0.0373
3450.00,0.0375
3449.00,0.0376
3448.00,0.0377
3447.00,0.0379
3446.00,0.0380
3445.00,0.0382
3444.00,0.0383
3443.00,0.0385
3442.00,0.0386
3441.00,0.0387
3440.00,0.0389
3439.00,0.0391
3438.00,0.0392
3437.00,0.0394
3436.00,0.0396
3435.00,0.0397
3434.00,0.0399
3433.00,0.0400
3432.00,0.0402
3431.00,0.0403
3430.00,0.0405
3429.00,0.0406
3428.00,0.0408
3427.00,0.0410
3426.00,0.0412
3425.00,0.0413
3424.00,0.0415
3423.00,0.0417
3422.00,0.0419
3421.00,0.0421
3420.00,0.0422
3419.00,0.0424
3418.00,0.0426
3417.00,0.0428
3416.00,0.0429
3415.00,0.0431
3414.00,0.0433
3413.00,0.0434
3412.00,0.0436
3411.00,0.0437
3410.00,0.0438
3409.00,0.0439
3408.00,0.0439
3407.00,0.0440
3406.00,0.0441
3405.00,0.0441
3404.00,0.0442
3403.00,0.0443
3402.00,0.0443
3401.00,0.0443
3400.00,0.0443
3399.00,0.0442
3398.00,0.0442
3397.00,0.0441
3396.00,0.0441
3395.00,0.0440
3394.00,0.0440
3393.00,0.0439
3392.00,0.0438
3391.00,0.0437
3390.00,0.0435
3389.00,0.0434
3388.00,0.0433
3387.00,0.0431
3386.00,0.0430
3385.00,0.0428
3384.00,0.0427
3383.00,0.0425
3382.00,0.0423
3381.00,0.0422
3380.00,0.0420
3379.00,0.0419
3378.00,0.0417
3377.00,0.0416
3376.00,0.0414
3375.00,0.0412
3374.00,0.0410
3373.00,0.0408
3372.00,0.0406
3371.00,0.0404
3370.00,0.0403
3369.00,0.0401
3368.00,0.0400
3367.00,0.0398
3366.00,0.0397
3365.00,0.0396
3364.00,0.0394
3363.00,0.0393
3362.00,0.0391
3361.00,0.0390
3360.00,0.0388
3359.00,0.0387
3358.00,0.0386
3357.00,0.0384
3356.00,0.0383
3355.00,0.0382
3354.00,0.0381
3353.00,0.0379
3352.00,0.0378
3351.00,0.0377
3350.00,0.0376
3349.00,0.0375
3348.00,0.0374
3347.00,0.0373
3346.00,0.0372
3345.00,0.0371
3344.00,0.0370
3343.00,0.0369
3342.00,0.0368
3341.00,0.0367
3340.00,0.0366
3339.00,0.0365
3338.00,0.0365
3337.00,0.0365
3336.00,0.0365
3335.00,0.0365
3334.00,0.0364
3333.00,0.0364
3332.00,0.0364
3331.00,0.0364
3330.00,0.0363
3329.00,0.0362
3328.00,0.0361
3327.00,0.0360
3326.00,0.0359
3325.00,0.0359
3324.00,0.0360
3323.00,0.0360
3322.00,0.0361
3321.00,0.0361
3320.00,0.0361
3319.00,0.0361
3318.00,0.0361
3317.00,0.0361
3316.00,0.0361
3315.00,0.0361
3314.00,0.0360
3313.00,0.0360
3312.00,0.0360
3311.00,0.0359
3310.00,0.0358
3309.00,0.0357
3308.00,0.0356
3307.00,0.0356
3306.00,0.0356
3305.00,0.0357
3304.00,0.0359
3303.00,0.0360
3302.00,0.0361
3301.00,0.0362
3300.00,0.0362
3299.00,0.0363
3298.00,0.0362
3297.00,0.0362
3296.00,0.0362
3295.00,0.0362
3294.00,0.0362
3293.00,0.0362
3292.00,0.0363
3291.00,0.0364
3290.00,0.0365
3289.00,0.0365
3288.00,0.0366
3287.00,0.0367
3286.00,0.0367
3285.00,0.0367
3284.00,0.0368
3283.00,0.0368
3282.00,0.0368
3281.00,0.0368
3280.00,0.0368
3279.00,0.0368
3278.00,0.0368
3277.00,0.0367
3276.00,0.0367
3275.00,0.0367
3274.00,0.0367
3273.00,0.0367
3272.00,0.0367
3271.00,0.0367
3270.00,0.0368
3269.00,0.0368
3268.00,0.0369
3267.00,0.0370
3266.00,0.0370
3265.00,0.0371
3264.00,0.0371
3263.00,0.0371
3262.00,0.0371
3261.00,0.0370
3260.00,0.0370
3259.00,0.0370
3258.00,0.0369
3257.00,0.0369
3256.00,0.0369
3255.00,0.0369
3254.00,0.0370
3253.00,0.0370
3252.00,0.0370
3251.00,0.0370
3250.00,0.0369
3249.00,0.0368
3248.00,0.0368
3247.00,0.0367
3246.00,0.0367
3245.00,0.0368
3244.00,0.0368
3243.00,0.0368
3242.00,0.0367
3241.00,0.0367
3240.00,0.0367
3239.00,0.0366
3238.00,0.0366
3237.00,0.0365
3236.00,0.0364
3235.00,0.0363
3234.00,0.0362
3233.00,0.0361
3232.00,0.0360
3231.00,0.0360
3230.00,0.0359
3229.00,0.0359
3228.00,0.0358
3227.00,0.0357
3226.00,0.0356
3225.00,0.0355
3224.00,0.0354
3223.00,0.0353
3222.00,0.0352
3221.00,0.0351
3220.00,0.0350
3219.00,0.0349
3218.00,0.0348
3217.00,0.0346
3216.00,0.0345
3215.00,0.0344
3214.00,0.0343
3213.00,0.0341
3212.00,0.0340
3211.00,0.0338
3210.00,0.0337
3209.00,0.0335
3208.00,0.0333
3207.00,0.0332
3206.00,0.0330
3205.00,0.0329
3204.00,0.0327
3203.00,0.0325
3202.00,0.0323
3201.00,0.0322
3200.00,0.0320
3199.00,0.0319
3198.00,0.0317
3197.00,0.0315
3196.00,0.0314
3195.00,0.0312
3194.00,0.0310
3193.00,0.0309
3192.00,0.0307
3191.00,0.0305
3190.00,0.0304
3189.00,0.0302
3188.00,0.0300
3187.00,0.0299
3186.00,0.0297
3185.00,0.0296
3184.00,0.0294
3183.00,0.0293
3182.00,0.0291
3181.00,0.0290
3180.00,0.0288
3179.00,0.0287
3178.00,0.0285
3177.00,0.0284
3176.00,0.0282
3175.00,0.0280
3174.00,0.0279
3173.00,0.0277
3172.00,0.0276
3171.00,0.0274
3170.00,0.0273
3169.00,0.0271
3168.00,0.0269
3167.00,0.0268
3166.00,0.0266
3165.00,0.0264
3164.00,0.0263
3163.00,0.0262
3162.00,0.0260
3161.00,0.0259
3160.00,0.0257
3159.00,0.0255
3158.00,0.0254
3157.00,0.0252
3156.00,0.0251
3155.00,0.0249
3154.00,0.0247
3153.00,0.0246
3152.00,0.0245
3151.00,0.0244
3150.00,0.0243
3149.00,0.0241
3148.00,0.0240
3147.00,0.0239
3146.00,0.0237
3145.00,0.0236
3144.00,0.0235
3143.00,0.0233
3142.00,0.0232
3141.00,0.0230
3140.00,0.0229
3139.00,0.0228
3138.00,0.0227
3137.00,0.0227
3136.00,0.0226
3135.00,0.0225
3134.00,0.0223
3133.00,0.0222
3132.00,0.0221
3131.00,0.0220
3130.00,0.0219
3129.00,0.0219
3128.00,0.0218
3127.00,0.0217
3126.00,0.0216
3125.00,0.0215
3124.00,0.0214
3123.00,0.0213
3122.00,0.0213
3121.00,0.0212
3120.00,0.0211
3119.00,0.0210
3118.00,0.0209
3117.00,0.0209
3116.00,0.0208
3115.00,0.0207
3114.00,0.0206
3113.00,0.0205
3112.00,0.0204
3111.00,0.0203
3110.00,0.0202
3109.00,0.0201
3108.00,0.0200
3107.00,0.0200
3106.00,0.0199
3105.00,0.0198
3104.00,0.0198
3103.00,0.0197
3102.00,0.0196
3101.00,0.0195
3100.00,0.0194
3099.00,0.0193
3098.00,0.0193
3097.00,0.0193
3096.00,0.0192
3095.00,0.0192
3094.00,0.0192
3093.00,0.0192
3092.00,0.0192
3091.00,0.0192
3090.00,0.0191
3089.00,0.0191
3088.00,0.0191
3087.00,0.0191
3086.00,0.0191
3085.00,0.0190
3084.00,0.0190
3083.00,0.0190
3082.00,0.0189
3081.00,0.0189
3080.00,0.0189
3079.00,0.0188
3078.00,0.0188
3077.00,0.0187
3076.00,0.0187
3075.00,0.0186
3074.00,0.0185
3073.00,0.0185
3072.00,0.0185
3071.00,0.0184
3070.00,0.0184
3069.00,0.0183
3068.00,0.0183
3067.00,0.0182
3066.00,0.0182
3065.00,0.0182
3064.00,0.0182
3063.00,0.0182
3062.00,0.0182
3061.00,0.0182
3060.00,0.0182
3059.00,0.0182
3058.00,0.0182
3057.00,0.0182
3056.00,0.0182
3055.00,0.0182
3054.00,0.0181
3053.00,0.0181
3052.00,0.0181
3051.00,0.0181
3050.00,0.0180
3049.00,0.0180
3048.00,0.0180
3047.00,0.0179
3046.00,0.0179
3045.00,0.0179
3044.00,0.0178
3043.00,0.0178
3042.00,0.0178
3041.00,0.0178
3040.00,0.0179
3039.00,0.0179
3038.00,0.0180
3037.00,0.0181
3036.00,0.0182
3035.00,0.0182
3034.00,0.0183
3033.00,0.0183
3032.00,0.0183
3031.00,0.0183
3030.00,0.0183
3029.00,0.0182
3028.00,0.0181
3027.00,0.0180
3026.00,0.0179
3025.00,0.0179
3024.00,0.0178
3023.00,0.0178
3022.00,0.0177
3021.00,0.0177
3020.00,0.0176
3019.00,0.0176
3018.00,0.0176
3017.00,0.0176
3016.00,0.0177
3015.00,0.0177
3014.00,0.0177
3013.00,0.0178
3012.00,0.0179
3011.00,0.0180
3010.00,0.0181
3009.00,0.0183
3008.00,0.0185
3007.00,0.0188
3006.00,0.0190
3005.00,0.0193
3004.00,0.0196
3003.00,0.0199
3002.00,0.0203
3001.00,0.0207
3000.00,0.0211
2999.00,0.0216
2998.00,0.0222
2997.00,0.0227
2996.00,0.0233
2995.00,0.0239
2994.00,0.0245
2993.00,0.0250
2992.00,0.0255
2991.00,0.0260
2990.00,0.0265
2989.00,0.0269
2988.00,0.0274
2987.00,0.0279
2986.00,0.0284
2985.00,0.0289
2984.00,0.0296
2983.00,0.0303
2982.00,0.0311
2981.00,0.0319
2980.00,0.0328
2979.00,0.0335
2978.00,0.0340
2977.00,0.0343
2976.00,0.0346
2975.00,0.0351
2974.00,0.0358
2973.00,0.0367
2972.00,0.0377
2971.00,0.0388
2970.00,0.0396
2969.00,0.0403
2968.00,0.0409
2967.00,0.0413
2966.00,0.0418
2965.00,0.0424
2964.00,0.0430
2963.00,0.0437
2962.00,0.0443
2961.00,0.0449
2960.00,0.0452
2959.00,0.0453
2958.00,0.0451
2957.00,0.0446
2956.00,0.0440
2955.00,0.0433
2954.00,0.0426
2953.00,0.0419
2952.00,0.0413
2951.00,0.0407
2950.00,0.0403
2949.00,0.0399
2948.00,0.0397
2947.00,0.0396
2946.00,0.0397
2945.00,0.0398
2944.00,0.0400
2943.00,0.0404
2942.00,0.0408
2941.00,0.0413
2940.00,0.0419
2939.00,0.0426
2938.00,0.0435
2937.00,0.0446
2936.00,0.0459
2935.00,0.0473
2934.00,0.0489
2933.00,0.0505
2932.00,0.0522
2931.00,0.0537
2930.00,0.0551
2929.00,0.0564
2928.00,0.0573
2927.00,0.0579
2926.00,0.0580
2925.00,0.0578
2924.00,0.0573
2923.00,0.0566
2922.00,0.0557
2921.00,0.0546
2920.00,0.0535
2919.00,0.0523
2918.00,0.0511
2917.00,0.0499
2916.00,0.0487
2915.00,0.0475
2914.00,0.0464
2913.00,0.0453
2912.00,0.0444
2911.00,0.0434
2910.00,0.0426
2909.00,0.0418
2908.00,0.0411
2907.00,0.0404
2906.00,0.0398
2905.00,0.0393
2904.00,0.0388
2903.00,0.0383
2902.00,0.0379
2901.00,0.0374
2900.00,0.0370
2899.00,0.0367
2898.00,0.0364
2897.00,0.0361
2896.00,0.0358
2895.00,0.0356
2894.00,0.0354
2893.00,0.0352
2892.00,0.0350
2891.00,0.0348
2890.00,0.0346
2889.00,0.0344
2888.00,0.0342
2887.00,0.0340
2886.00,0.0338
2885.00,0.0337
2884.00,0.0336
2883.00,0.0335
2882.00,0.0335
2881.00,0.0336
2880.00,0.0338
2879.00,0.0340
2878.00,0.0343
2877.00,0.0348
2876.00,0.0352
2875.00,0.0356
2874.00,0.0360
2873.00,0.0362
2872.00,0.0363
2871.00,0.0363
2870.00,0.0362
2869.00,0.0360
2868.00,0.0358
2867.00,0.0357
2866.00,0.0357
2865.00,0.0360
2864.00,0.0364
2863.00,0.0371
2862.00,0.0380
2861.00,0.0390
2860.00,0.0401
2859.00,0.0411
2858.00,0.0420
2857.00,0.0426
2856.00,0.0429
2855.00,0.0429
2854.00,0.0426
2853.00,0.0421
2852.00,0.0414
2851.00,0.0404
2850.00,0.0392
2849.00,0.0378
2848.00,0.0363
2847.00,0.0348
2846.00,0.0333
2845.00,0.0320
2844.00,0.0308
2843.00,0.0297
2842.00,0.0286
2841.00,0.0277
2840.00,0.0269
2839.00,0.0263
2838.00,0.0257
2837.00,0.0252
2836.00,0.0247
2835.00,0.0243
2834.00,0.0239
2833.00,0.0235
2832.00,0.0232
2831.00,0.0229
2830.00,0.0226
2829.00,0.0223
2828.00,0.0220
2827.00,0.0217
2826.00,0.0215
2825.00,0.0212
2824.00,0.0210
2823.00,0.0207
2822.00,0.0205
2821.00,0.0203
2820.00,0.0202
2819.00,0.0200
2818.00,0.0199
2817.00,0.0197
2816.00,0.0196
2815.00,0.0194
2814.00,0.0193
2813.00,0.0192
2812.00,0.0191
2811.00,0.0189
2810.00,0.0188
2809.00,0.0188
2808.00,0.0187
2807.00,0.0186
2806.00,0.0186
2805.00,0.0185
2804.00,0.0184
2803.00,0.0183
2802.00,0.0182
2801.00,0.0182
2800.00,0.0181
2799.00,0.0180
2798.00,0.0179
2797.00,0.0179
2796.00,0.0178
2795.00,0.0178
2794.00,0.0177
2793.00,0.0176
2792.00,0.0175
2791.00,0.0175
2790.00,0.0174
2789.00,0.0174
2788.00,0.0174
2787.00,0.0173
2786.00,0.0173
2785.00,0.0172
2784.00,0.0172
2783.00,0.0171
2782.00,0.0171
2781.00,0.0170
2780.00,0.0170
2779.00,0.0169
2778.00,0.0169
2777.00,0.0168
2776.00,0.0168
2775.00,0.0167
2774.00,0.0167
2773.00,0.0167
2772.00,0.0166
2771.00,0.0166
2770.00,0.0166
2769.00,0.0166
2768.00,0.0165
2767.00,0.0165
2766.00,0.0165
2765.00,0.0165
2764.00,0.0165
2763.00,0.0165
2762.00,0.0164
2761.00,0.0164
2760.00,0.0164
2759.00,0.0164
2758.00,0.0164
2757.00,0.0164
2756.00,0.0165
2755.00,0.0165
2754.00,0.0164
2753.00,0.0164
2752.00,0.0164
2751.00,0.0164
2750.00,0.0164
2749.00,0.0164
2748.00,0.0164
2747.00,0.0164
2746.00,0.0164
2745.00,0.0164
2744.00,0.0164
2743.00,0.0164
2742.00,0.0164
2741.00,0.0164
2740.00,0.0165
2739.00,0.0165
2738.00,0.0165
2737.00,0.0166
2736.00,0.0166
2735.00,0.0166
2734.00,0.0167
2733.00,0.0167
2732.00,0.0167
2731.00,0.0168
2730.00,0.0168
2729.00,0.0168
2728.00,0.0168
2727.00,0.0167
2726.00,0.0167
2725.00,0.0166
2724.00,0.0166
2723.00,0.0166
2722.00,0.0165
2721.00,0.0165
2720.00,0.0165
2719.00,0.0165
2718.00,0.0164
2717.00,0.0164
2716.00,0.0164
2715.00,0.0163
2714.00,0.0163
2713.00,0.0163
2712.00,0.0163
2711.00,0.0163
2710.00,0.0162
2709.00,0.0162
2708.00,0.0162
2707.00,0.0162
2706.00,0.0162
2705.00,0.0162
2704.00,0.0162
2703.00,0.0162
2702.00,0.0161
2701.00,0.0161
2700.00,0.0161
2699.00,0.0161
2698.00,0.0160
2697.00,0.0160
2696.00,0.0160
2695.00,0.0160
2694.00,0.0160
2693.00,0.0159
2692.00,0.0159
2691.00,0.0159
2690.00,0.0159
2689.00,0.0158
2688.00,0.0158
2687.00,0.0158
2686.00,0.0158
2685.00,0.0158
2684.00,0.0158
2683.00,0.0157
2682.00,0.0157
2681.00,0.0157
2680.00,0.0157
2679.00,0.0157
2678.00,0.0156
2677.00,0.0156
2676.00,0.0156
2675.00,0.0157
2674.00,0.0157
2673.00,0.0157
2672.00,0.0157
2671.00,0.0157
2670.00,0.0157
2669.00,0.0158
2668.00,0.0158
2667.00,0.0158
2666.00,0.0158
2665.00,0.0159
2664.00,0.0159
2663.00,0.0160
2662.00,0.0161
2661.00,0.0161
2660.00,0.0161
2659.00,0.0161
2658.00,0.0162
2657.00,0.0162
2656.00,0.0162
2655.00,0.0162
2654.00,0.0162
2653.00,0.0162
2652.00,0.0162
2651.00,0.0162
2650.00,0.0162
2649.00,0.0162
2648.00,0.0162
2647.00,0.0162
2646.00,0.0162
2645.00,0.0162
2644.00,0.0161
2643.00,0.0161
2642.00,0.0161
2641.00,0.0161
2640.00,0.0161
2639.00,0.0160
2638.00,0.0160
2637.00,0.0160
2636.00,0.0160
2635.00,0.0159
2634.00,0.0159
2633.00,0.0158
2632.00,0.0158
2631.00,0.0157
2630.00,0.0157
2629.00,0.0157
2628.00,0.0156
2627.00,0.0156
2626.00,0.0156
2625.00,0.0156
2624.00,0.0156
2623.00,0.0156
2622.00,0.0156
2621.00,0.0155
2620.00,0.0155
2619.00,0.0155
2618.00,0.0154
2617.00,0.0154
2616.00,0.0154
2615.00,0.0154
2614.00,0.0154
2613.00,0.0154
2612.00,0.0154
2611.00,0.0154
2610.00,0.0154
2609.00,0.0154
2608.00,0.0154
2607.00,0.0154
2606.00,0.0154
2605.00,0.0154
2604.00,0.0154
2603.00,0.0154
2602.00,0.0154
2601.00,0.0154
2600.00,0.0154
2599.00,0.0154
2598.00,0.0154
2597.00,0.0154
2596.00,0.0155
2595.00,0.0155
2594.00,0.0154
2593.00,0.0154
2592.00,0.0154
2591.00,0.0154
2590.00,0.0154
2589.00,0.0155
2588.00,0.0155
2587.00,0.0155
2586.00,0.0155
2585.00,0.0155
2584.00,0.0154
2583.00,0.0154
2582.00,0.0154
2581.00,0.0154
2580.00,0.0154
2579.00,0.0154
2578.00,0.0154
2577.00,0.0154
2576.00,0.0153
2575.00,0.0153
2574.00,0.0153
2573.00,0.0153
2572.00,0.0153
2571.00,0.0153
2570.00,0.0153
2569.00,0.0153
2568.00,0.0153
2567.00,0.0153
2566.00,0.0153
2565.00,0.0153
2564.00,0.0152
2563.00,0.0152
2562.00,0.0152
2561.00,0.0152
2560.00,0.0151
2559.00,0.0151
2558.00,0.0151
2557.00,0.0150
2556.00,0.0150
2555.00,0.0150
2554.00,0.0150
2553.00,0.0150
2552.00,0.0150
2551.00,0.0150
2550.00,0.0149
2549.00,0.0149
2548.00,0.0149
2547.00,0.0149
2546.00,0.0148
2545.00,0.0148
2544.00,0.0148
2543.00,0.0148
2542.00,0.0148
2541.00,0.0148
2540.00,0.0148
2539.00,0.0148
2538.00,0.0148
2537.00,0.0148
2536.00,0.0148
2535.00,0.0148
2534.00,0.0148
2533.00,0.0148
2532.00,0.0148
2531.00,0.0148
2530.00,0.0148
2529.00,0.0148
2528.00,0.0148
2527.00,0.0147
2526.00,0.0147
2525.00,0.0147
2524.00,0.0146
2523.00,0.0146
2522.00,0.0146
2521.00,0.0146
2520.00,0.0145
2519.00,0.0145
2518.00,0.0145
2517.00,0.0144
2516.00,0.0144
2515.00,0.0144
2514.00,0.0144
2513.00,0.0144
2512.00,0.0145
2511.00,0.0145
2510.00,0.0145
2509.00,0.0144
2508.00,0.0144
2507.00,0.0144
2506.00,0.0143
2505.00,0.0143
2504.00,0.0143
2503.00,0.0143
2502.00,0.0143
2501.00,0.0143
2500.00,0.0143
2499.00,0.0143
2498.00,0.0143
2497.00,0.0143
2496.00,0.0143
2495.00,0.0143
2494.00,0.0143
2493.00,0.0143
2492.00,0.0143
2491.00,0.0143
2490.00,0.0142
2489.00,0.0142
2488.00,0.0142
2487.00,0.0142
2486.00,0.0142
2485.00,0.0141
2484.00,0.0141
2483.00,0.0141
2482.00,0.0141
2481.00,0.0141
2480.00,0.0141
2479.00,0.0141
2478.00,0.0141
2477.00,0.0141
2476.00,0.0141
2475.00,0.0141
2474.00,0.0141
2473.00,0.0141
2472.00,0.0141
2471.00,0.0141
2470.00,0.0141
2469.00,0.0141
2468.00,0.0141
2467.00,0.0141
2466.00,0.0140
2465.00,0.0140
2464.00,0.0140
2463.00,0.0140
2462.00,0.0140
2461.00,0.0140
2460.00,0.0141
2459.00,0.0141
2458.00,0.0142
2457.00,0.0142
2456.00,0.0141
2455.00,0.0141
2454.00,0.0141
2453.00,0.0142
2452.00,0.0142
2451.00,0.0142
2450.00,0.0142
2449.00,0.0142
2448.00,0.0141
2447.00,0.0141
2446.00,0.0141
2445.00,0.0141
2444.00,0.0141
2443.00,0.0141
2442.00,0.0141
2441.00,0.0141
2440.00,0.0140
2439.00,0.0140
2438.00,0.0140
2437.00,0.0139
2436.00,0.0139
2435.00,0.0139
2434.00,0.0139
2433.00,0.0139
2432.00,0.0139
2431.00,0.0139
2430.00,0.0139
2429.00,0.0139
2428.00,0.0139
2427.00,0.0140
2426.00,0.0140
2425.00,0.0140
2424.00,0.0140
2423.00,0.0139
2422.00,0.0139
2421.00,0.0139
2420.00,0.0139
2419.00,0.0140
2418.00,0.0140
2417.00,0.0139
2416.00,0.0139
2415.00,0.0139
2414.00,0.0139
2413.00,0.0139
2412.00,0.0139
2411.00,0.0140
2410.00,0.0139
2409.00,0.0139
2408.00,0.0139
2407.00,0.0139
2406.00,0.0139
2405.00,0.0139
2404.00,0.0139
2403.00,0.0139
2402.00,0.0139
2401.00,0.0139
2400.00,0.0139
2399.00,0.0139
2398.00,0.0139
2397.00,0.0139
2396.00,0.0139
2395.00,0.0139
2394.00,0.0139
2393.00,0.0139
2392.00,0.0138
2391.00,0.0138
2390.00,0.0138
2389.00,0.0138
2388.00,0.0138
2387.00,0.0138
2386.00,0.0138
2385.00,0.0137
2384.00,0.0137
2383.00,0.0137
2382.00,0.0137
2381.00,0.0137
2380.00,0.0137
2379.00,0.0137
2378.00,0.0137
2377.00,0.0138
2376.00,0.0138
2375.00,0.0138
2374.00,0.0138
2373.00,0.0138
2372.00,0.0137
2371.00,0.0137
2370.00,0.0137
2369.00,0.0137
2368.00,0.0137
2367.00,0.0137
2366.00,0.0137
2365.00,0.0137
2364.00,0.0138
2363.00,0.0138
2362.00,0.0138
2361.00,0.0138
2360.00,0.0139
2359.00,0.0139
2358.00,0.0138
2357.00,0.0138
2356.00,0.0138
2355.00,0.0139
2354.00,0.0139
2353.00,0.0139
2352.00,0.0139
2351.00,0.0139
2350.00,0.0139
2349.00,0.0139
2348.00,0.0140
2347.00,0.0142
2346.00,0.0143
2345.00,0.0144
2344.00,0.0144
2343.00,0.0143
2342.00,0.0142
2341.00,0.0142
2340.00,0.0142
2339.00,0.0142
2338.00,0.0142
2337.00,0.0141
2336.00,0.0141
2335.00,0.0141
2334.00,0.0141
2333.00,0.0141
2332.00,0.0142
2331.00,0.0142
2330.00,0.0142
2329.00,0.0143
2328.00,0.0146
2327.00,0.0150
2326.00,0.0153
2325.00,0.0155
2324.00,0.0154
2323.00,0.0153
2322.00,0.0151
2321.00,0.0150
2320.00,0.0149
2319.00,0.0148
2318.00,0.0147
2317.00,0.0147
2316.00,0.0147
2315.00,0.0147
2314.00,0.0146
2313.00,0.0145
2312.00,0.0145
2311.00,0.0145
2310.00,0.0144
2309.00,0.0144
2308.00,0.0144
2307.00,0.0144
2306.00,0.0144
2305.00,0.0144
2304.00,0.0144
2303.00,0.0144
2302.00,0.0144
2301.00,0.0145
2300.00,0.0145
2299.00,0.0146
2298.00,0.0146
2297.00,0.0146
2296.00,0.0147
2295.00,0.0148
2294.00,0.0149
2293.00,0.0150
2292.00,0.0151
2291.00,0.0151
2290.00,0.0151
2289.00,0.0151
2288.00,0.0152
2287.00,0.0152
2286.00,0.0151
2285.00,0.0150
2284.00,0.0149
2283.00,0.0148
2282.00,0.0147
2281.00,0.0147
2280.00,0.0146
2279.00,0.0146
2278.00,0.0146
2277.00,0.0146
2276.00,0.0146
2275.00,0.0146
2274.00,0.0145
2273.00,0.0145
2272.00,0.0144
2271.00,0.0144
2270.00,0.0143
2269.00,0.0141
2268.00,0.0141
2267.00,0.0140
2266.00,0.0140
2265.00,0.0140
2264.00,0.0141
2263.00,0.0142
2262.00,0.0142
2261.00,0.0142
2260.00,0.0142
2259.00,0.0142
2258.00,0.0141
2257.00,0.0140
2256.00,0.0139
2255.00,0.0138
2254.00,0.0138
2253.00,0.0138
2252.00,0.0139
2251.00,0.0139
2250.00,0.0139
2249.00,0.0139
2248.00,0.0140
2247.00,0.0141
2246.00,0.0142
2245.00,0.0142
2244.00,0.0143
2243.00,0.0143
2242.00,0.0142
2241.00,0.0141
2240.00,0.0141
2239.00,0.0141
2238.00,0.0141
2237.00,0.0140
2236.00,0.0140
2235.00,0.0141
2234.00,0.0141
2233.00,0.0141
2232.00,0.0141
2231.00,0.0141
2230.00,0.0141
2229.00,0.0141
2228.00,0.0141
2227.00,0.0141
2226.00,0.0141
2225.00,0.0141
2224.00,0.0142
2223.00,0.0143
2222.00,0.0142
2221.00,0.0142
2220.00,0.0142
2219.00,0.0142
2218.00,0.0142
2217.00,0.0142
2216.00,0.0142
2215.00,0.0141
2214.00,0.0141
2213.00,0.0141
2212.00,0.0142
2211.00,0.0142
2210.00,0.0142
2209.00,0.0141
2208.00,0.0141
2207.00,0.0141
2206.00,0.0141
2205.00,0.0141
2204.00,0.0140
2203.00,0.0140
2202.00,0.0139
2201.00,0.0139
2200.00,0.0140
2199.00,0.0140
2198.00,0.0140
2197.00,0.0140
2196.00,0.0141
2195.00,0.0141
2194.00,0.0142
2193.00,0.0143
2192.00,0.0144
2191.00,0.0145
2190.00,0.0145
2189.00,0.0145
2188.00,0.0146
2187.00,0.0145
2186.00,0.0145
2185.00,0.0143
2184.00,0.0141
2183.00,0.0139
2182.00,0.0137
2181.00,0.0137
2180.00,0.0139
2179.00,0.0139
2178.00,0.0138
2177.00,0.0136
2176.00,0.0134
2175.00,0.0134
2174.00,0.0136
2173.00,0.0138
2172.00,0.0141
2171.00,0.0143
2170.00,0.0145
2169.00,0.0148
2168.00,0.0151
2167.00,0.0153
2166.00,0.0154
2165.00,0.0156
2164.00,0.0159
2163.00,0.0160
2162.00,0.0154
2161.00,0.0142
2160.00,0.0127
2159.00,0.0114
2158.00,0.0109
2157.00,0.0110
2156.00,0.0113
2155.00,0.0115
2154.00,0.0116
2153.00,0.0118
2152.00,0.0120
2151.00,0.0122
2150.00,0.0123
2149.00,0.0123
2148.00,0.0123
2147.00,0.0123
2146.00,0.0124
2145.00,0.0124
2144.00,0.0125
2143.00,0.0126
2142.00,0.0125
2141.00,0.0125
2140.00,0.0125
2139.00,0.0125
2138.00,0.0123
2137.00,0.0121
2136.00,0.0119
2135.00,0.0118
2134.00,0.0119
2133.00,0.0121
2132.00,0.0123
2131.00,0.0125
2130.00,0.0126
2129.00,0.0127
2128.00,0.0129
2127.00,0.0130
2126.00,0.0131
2125.00,0.0132
2124.00,0.0133
2123.00,0.0133
2122.00,0.0133
2121.00,0.0134
2120.00,0.0134
2119.00,0.0136
2118.00,0.0137
2117.00,0.0137
2116.00,0.0138
2115.00,0.0139
2114.00,0.0139
2113.00,0.0139
2112.00,0.0139
2111.00,0.0139
2110.00,0.0138
2109.00,0.0136
2108.00,0.0136
2107.00,0.0136
2106.00,0.0136
2105.00,0.0136
2104.00,0.0136
2103.00,0.0136
2102.00,0.0136
2101.00,0.0136
2100.00,0.0136
2099.00,0.0136
2098.00,0.0134
2097.00,0.0132
2096.00,0.0131
2095.00,0.0130
2094.00,0.0130
2093.00,0.0131
2092.00,0.0132
2091.00,0.0134
2090.00,0.0135
2089.00,0.0135
2088.00,0.0136
2087.00,0.0136
2086.00,0.0136
2085.00,0.0136
2084.00,0.0137
2083.00,0.0138
2082.00,0.0138
2081.00,0.0138
2080.00,0.0138
2079.00,0.0138
2078.00,0.0137
2077.00,0.0137
2076.00,0.0136
2075.00,0.0135
2074.00,0.0134
2073.00,0.0135
2072.00,0.0135
2071.00,0.0136
2070.00,0.0135
2069.00,0.0134
2068.00,0.0133
2067.00,0.0133
2066.00,0.0132
2065.00,0.0132
2064.00,0.0132
2063.00,0.0131
2062.00,0.0131
2061.00,0.0130
2060.00,0.0131
2059.00,0.0132
2058.00,0.0132
2057.00,0.0132
2056.00,0.0132
2055.00,0.0132
2054.00,0.0133
2053.00,0.0137
2052.00,0.0140
2051.00,0.0140
2050.00,0.0136
2049.00,0.0132
2048.00,0.0129
2047.00,0.0129
2046.00,0.0129
2045.00,0.0129
2044.00,0.0131
2043.00,0.0131
2042.00,0.0132
2041.00,0.0132
2040.00,0.0133
2039.00,0.0133
2038.00,0.0131
2037.00,0.0130
2036.00,0.0128
2035.00,0.0126
2034.00,0.0123
2033.00,0.0121
2032.00,0.0121
2031.00,0.0121
2030.00,0.0121
2029.00,0.0121
2028.00,0.0123
2027.00,0.0124
2026.00,0.0124
2025.00,0.0123
2024.00,0.0124
2023.00,0.0124
2022.00,0.0124
2021.00,0.0124
2020.00,0.0124
2019.00,0.0123
2018.00,0.0121
2017.00,0.0120
2016.00,0.0120
2015.00,0.0119
2014.00,0.0119
2013.00,0.0119
2012.00,0.0121
2011.00,0.0122
2010.00,0.0120
2009.00,0.0118
2008.00,0.0116
2007.00,0.0115
2006.00,0.0113
2005.00,0.0113
2004.00,0.0113
2003.00,0.0113
2002.00,0.0113
2001.00,0.0115
2000.00,0.0117
1999.00,0.0118
1998.00,0.0119
1997.00,0.0119
1996.00,0.0121
1995.00,0.0122
1994.00,0.0122
1993.00,0.0122
1992.00,0.0123
1991.00,0.0124
1990.00,0.0125
1989.00,0.0125
1988.00,0.0127
1987.00,0.0129
1986.00,0.0130
1985.00,0.0131
1984.00,0.0133
1983.00,0.0136
1982.00,0.0137
1981.00,0.0137
1980.00,0.0135
1979.00,0.0128
1978.00,0.0120
1977.00,0.0115
1976.00,0.0113
1975.00,0.0114
1974.00,0.0113
1973.00,0.0114
1972.00,0.0115
1971.00,0.0116
1970.00,0.0116
1969.00,0.0115
1968.00,0.0115
1967.00,0.0115
1966.00,0.0114
1965.00,0.0115
1964.00,0.0115
1963.00,0.0115
1962.00,0.0114
1961.00,0.0112
1960.00,0.0111
1959.00,0.0111
1958.00,0.0111
1957.00,0.0112
1956.00,0.0113
1955.00,0.0114
1954.00,0.0114
1953.00,0.0115
1952.00,0.0116
1951.00,0.0117
1950.00,0.0118
1949.00,0.0118
1948.00,0.0118
1947.00,0.0117
1946.00,0.0115
1945.00,0.0113
1944.00,0.0113
1943.00,0.0114
1942.00,0.0115
1941.00,0.0115
1940.00,0.0115
1939.00,0.0114
1938.00,0.0114
1937.00,0.0114
1936.00,0.0115
1935.00,0.0116
1934.00,0.0117
1933.00,0.0117
1932.00,0.0117
1931.00,0.0118
1930.00,0.0118
1929.00,0.0118
1928.00,0.0118
1927.00,0.0118
1926.00,0.0117
1925.00,0.0117
1924.00,0.0118
1923.00,0.0119
1922.00,0.0120
1921.00,0.0120
1920.00,0.0120
1919.00,0.0119
1918.00,0.0119
1917.00,0.0119
1916.00,0.0120
1915.00,0.0121
1914.00,0.0121
1913.00,0.0123
1912.00,0.0124
1911.00,0.0126
1910.00,0.0128
1909.00,0.0129
1908.00,0.0129
1907.00,0.0128
1906.00,0.0127
1905.00,0.0126
1904.00,0.0125
1903.00,0.0124
1902.00,0.0123
1901.00,0.0123
1900.00,0.0123
1899.00,0.0123
1898.00,0.0122
1897.00,0.0122
1896.00,0.0123
1895.00,0.0124
1894.00,0.0124
1893.00,0.0124
1892.00,0.0124
1891.00,0.0123
1890.00,0.0122
1889.00,0.0121
1888.00,0.0121
1887.00,0.0120
1886.00,0.0120
1885.00,0.0120
1884.00,0.0121
1883.00,0.0121
1882.00,0.0121
1881.00,0.0121
1880.00,0.0121
1879.00,0.0121
1878.00,0.0121
1877.00,0.0121
1876.00,0.0121
1875.00,0.0121
1874.00,0.0120
1873.00,0.0120
1872.00,0.0120
1871.00,0.0119
1870.00,0.0118
1869.00,0.0118
1868.00,0.0118
1867.00,0.0119
1866.00,0.0119
1865.00,0.0119
1864.00,0.0120
1863.00,0.0121
1862.00,0.0121
1861.00,0.0121
1860.00,0.0122
1859.00,0.0122
1858.00,0.0122
1857.00,0.0122
1856.00,0.0122
1855.00,0.0122
1854.00,0.0122
1853.00,0.0122
1852.00,0.0122
1851.00,0.0122
1850.00,0.0122
1849.00,0.0122
1848.00,0.0122
1847.00,0.0122
1846.00,0.0121
1845.00,0.0121
1844.00,0.0122
1843.00,0.0121
1842.00,0.0120
1841.00,0.0120
1840.00,0.0121
1839.00,0.0121
1838.00,0.0122
1837.00,0.0122
1836.00,0.0122
1835.00,0.0122
1834.00,0.0122
1833.00,0.0121
1832.00,0.0120
1831.00,0.0119
1830.00,0.0118
1829.00,0.0118
1828.00,0.0118
1827.00,0.0118
1826.00,0.0118
1825.00,0.0119
1824.00,0.0119
1823.00,0.0119
1822.00,0.0119
1821.00,0.0119
1820.00,0.0119
1819.00,0.0118
1818.00,0.0118
1817.00,0.0117
1816.00,0.0118
1815.00,0.0118
1814.00,0.0119
1813.00,0.0119
1812.00,0.0119
1811.00,0.0120
1810.00,0.0120
1809.00,0.0120
1808.00,0.0120
1807.00,0.0121
1806.00,0.0121
1805.00,0.0121
1804.00,0.0121
1803.00,0.0120
1802.00,0.0120
1801.00,0.0119
1800.00,0.0120
1799.00,0.0120
1798.00,0.0120
1797.00,0.0121
1796.00,0.0121
1795.00,0.0121
1794.00,0.0120
1793.00,0.0120
1792.00,0.0120
1791.00,0.0120
1790.00,0.0119
1789.00,0.0120
1788.00,0.0121
1787.00,0.0121
1786.00,0.0121
1785.00,0.0121
1784.00,0.0122
1783.00,0.0122
1782.00,0.0121
1781.00,0.0122
1780.00,0.0122
1779.00,0.0123
1778.00,0.0123
1777.00,0.0123
1776.00,0.0124
1775.00,0.0124
1774.00,0.0123
1773.00,0.0123
1772.00,0.0123
1771.00,0.0122
1770.00,0.0121
1769.00,0.0121
1768.00,0.0122
1767.00,0.0124
1766.00,0.0124
1765.00,0.0125
1764.00,0.0125
1763.00,0.0126
1762.00,0.0126
1761.00,0.0126
1760.00,0.0126
1759.00,0.0127
1758.00,0.0127
1757.00,0.0127
1756.00,0.0127
1755.00,0.0127
1754.00,0.0126
1753.00,0.0126
1752.00,0.0126
1751.00,0.0126
1750.00,0.0124
1749.00,0.0124
1748.00,0.0125
1747.00,0.0126
1746.00,0.0127
1745.00,0.0128
1744.00,0.0129
1743.00,0.0130
1742.00,0.0130
1741.00,0.0130
1740.00,0.0131
1739.00,0.0131
1738.00,0.0131
1737.00,0.0130
1736.00,0.0130
1735.00,0.0131
1734.00,0.0132
1733.00,0.0133
1732.00,0.0134
1731.00,0.0137
1730.00,0.0140
1729.00,0.0143
1728.00,0.0146
1727.00,0.0149
1726.00,0.0150
1725.00,0.0152
1724.00,0.0155
1723.00,0.0157
1722.00,0.0157
1721.00,0.0157
1720.00,0.0158
1719.00,0.0159
1718.00,0.0160
1717.00,0.0161
1716.00,0.0163
1715.00,0.0166
1714.00,0.0170
1713.00,0.0175
1712.00,0.0180
1711.00,0.0185
1710.00,0.0190
1709.00,0.0193
1708.00,0.0198
1707.00,0.0203
1706.00,0.0208
1705.00,0.0215
1704.00,0.0223
1703.00,0.0228
1702.00,0.0235
1701.00,0.0246
1700.00,0.0263
1699.00,0.0279
1698.00,0.0291
1697.00,0.0309
1696.00,0.0336
1695.00,0.0366
1694.00,0.0390
1693.00,0.0413
1692.00,0.0438
1691.00,0.0468
1690.00,0.0499
1689.00,0.0531
1688.00,0.0561
1687.00,0.0587
1686.00,0.0613
1685.00,0.0650
1684.00,0.0699
1683.00,0.0743
1682.00,0.0777
1681.00,0.0809
1680.00,0.0844
1679.00,0.0878
1678.00,0.0908
1677.00,0.0938
1676.00,0.0973
1675.00,0.1012
1674.00,0.1047
1673.00,0.1077
1672.00,0.1106
1671.00,0.1138
1670.00,0.1172
1669.00,0.1209
1668.00,0.1244
1667.00,0.1275
1666.00,0.1302
1665.00,0.1328
1664.00,0.1356
1663.00,0.1386
1662.00,0.1416
1661.00,0.1442
1660.00,0.1467
1659.00,0.1489
1658.00,0.1509
1657.00,0.1525
1656.00,0.1538
1655.00,0.1548
1654.00,0.1554
1653.00,0.1562
1652.00,0.1571
1651.00,0.1579
1650.00,0.1583
1649.00,0.1583
1648.00,0.1578
1647.00,0.1565
1646.00,0.1549
1645.00,0.1533
1644.00,0.1520
1643.00,0.1505
1642.00,0.1486
1641.00,0.1463
1640.00,0.1438
1639.00,0.1412
1638.00,0.1381
1637.00,0.1342
1636.00,0.1296
1635.00,0.1252
1634.00,0.1218
1633.00,0.1195
1632.00,0.1177
1631.00,0.1163
1630.00,0.1152
1629.00,0.1146
1628.00,0.1148
1627.00,0.1154
1626.00,0.1161
1625.00,0.1164
1624.00,0.1165
1623.00,0.1162
1622.00,0.1153
1621.00,0.1137
1620.00,0.1116
1619.00,0.1086
1618.00,0.1044
1617.00,0.0990
1616.00,0.0940
1615.00,0.0903
1614.00,0.0881
1613.00,0.0867
1612.00,0.0856
1611.00,0.0844
1610.00,0.0829
1609.00,0.0806
1608.00,0.0779
1607.00,0.0747
1606.00,0.0714
1605.00,0.0680
1604.00,0.0648
1603.00,0.0617
1602.00,0.0588
1601.00,0.0562
1600.00,0.0540
1599.00,0.0520
1598.00,0.0504
1597.00,0.0491
1596.00,0.0481
1595.00,0.0474
1594.00,0.0472
1593.00,0.0475
1592.00,0.0482
1591.00,0.0495
1590.00,0.0512
1589.00,0.0532
1588.00,0.0552
1587.00,0.0571
1586.00,0.0585
1585.00,0.0595
1584.00,0.0598
1583.00,0.0596
1582.00,0.0589
1581.00,0.0578
1580.00,0.0564
1579.00,0.0549
1578.00,0.0532
1577.00,0.0510
1576.00,0.0488
1575.00,0.0468
1574.00,0.0453
1573.00,0.0442
1572.00,0.0432
1571.00,0.0424
1570.00,0.0415
1569.00,0.0407
1568.00,0.0400
1567.00,0.0391
1566.00,0.0382
1565.00,0.0370
1564.00,0.0357
1563.00,0.0344
1562.00,0.0332
1561.00,0.0319
1560.00,0.0304
1559.00,0.0290
1558.00,0.0281
1557.00,0.0275
1556.00,0.0273
1555.00,0.0273
1554.00,0.0272
1553.00,0.0271
1552.00,0.0268
1551.00,0.0266
1550.00,0.0265
1549.00,0.0263
1548.00,0.0260
1547.00,0.0257
1546.00,0.0255
1545.00,0.0251
1544.00,0.0247
1543.00,0.0243
1542.00,0.0239
1541.00,0.0235
1540.00,0.0233
1539.00,0.0233
1538.00,0.0233
1537.00,0.0234
1536.00,0.0234
1535.00,0.0233
1534.00,0.0233
1533.00,0.0232
1532.00,0.0230
1531.00,0.0229
1530.00,0.0229
1529.00,0.0229
1528.00,0.0229
1527.00,0.0228
1526.00,0.0228
1525.00,0.0227
1524.00,0.0227
1523.00,0.0226
1522.00,0.0228
1521.00,0.0230
1520.00,0.0233
1519.00,0.0235
1518.00,0.0238
1517.00,0.0244
1516.00,0.0250
1515.00,0.0256
1514.00,0.0261
1513.00,0.0266
1512.00,0.0271
1511.00,0.0275
1510.00,0.0277
1509.00,0.0279
1508.00,0.0284
1507.00,0.0293
1506.00,0.0308
1505.00,0.0322
1504.00,0.0337
1503.00,0.0353
1502.00,0.0372
1501.00,0.0396
1500.00,0.0424
1499.00,0.0457
1498.00,0.0495
1497.00,0.0532
1496.00,0.0558
1495.00,0.0568
1494.00,0.0564
1493.00,0.0551
1492.00,0.0530
1491.00,0.0502
1490.00,0.0471
1489.00,0.0440
1488.00,0.0414
1487.00,0.0391
1486.00,0.0372
1485.00,0.0356
1484.00,0.0342
1483.00,0.0331
1482.00,0.0321
1481.00,0.0315
1480.00,0.0311
1479.00,0.0310
1478.00,0.0311
1477.00,0.0315
1476.00,0.0321
1475.00,0.0330
1474.00,0.0345
1473.00,0.0370
1472.00,0.0407
1471.00,0.0448
1470.00,0.0493
1469.00,0.0542
1468.00,0.0594
1467.00,0.0646
1466.00,0.0697
1465.00,0.0744
1464.00,0.0780
1463.00,0.0802
1462.00,0.0814
1461.00,0.0819
1460.00,0.0816
1459.00,0.0802
1458.00,0.0774
1457.00,0.0734
1456.00,0.0694
1455.00,0.0665
1454.00,0.0646
1453.00,0.0635
1452.00,0.0629
1451.00,0.0628
1450.00,0.0635
1449.00,0.0650
1448.00,0.0673
1447.00,0.0702
1446.00,0.0735
1445.00,0.0772
1444.00,0.0811
1443.00,0.0851
1442.00,0.0890
1441.00,0.0924
1440.00,0.0951
1439.00,0.0972
1438.00,0.0988
1437.00,0.1002
1436.00,0.1014
1435.00,0.1023
1434.00,0.1030
1433.00,0.1037
1432.00,0.1045
1431.00,0.1054
1430.00,0.1066
1429.00,0.1083
1428.00,0.1103
1427.00,0.1123
1426.00,0.1144
1425.00,0.1164
1424.00,0.1179
1423.00,0.1186
1422.00,0.1181
1421.00,0.1164
1420.00,0.1128
1419.00,0.1073
1418.00,0.1011
1417.00,0.0953
1416.00,0.0899
1415.00,0.0848
1414.00,0.0800
1413.00,0.0757
1412.00,0.0720
1411.00,0.0689
1410.00,0.0667
1409.00,0.0654
1408.00,0.0646
1407.00,0.0645
1406.00,0.0650
1405.00,0.0660
1404.00,0.0671
1403.00,0.0681
1402.00,0.0688
1401.00,0.0690
1400.00,0.0687
1399.00,0.0676
1398.00,0.0660
1397.00,0.0640
1396.00,0.0616
1395.00,0.0590
1394.00,0.0565
1393.00,0.0544
1392.00,0.0528
1391.00,0.0517
1390.00,0.0513
1389.00,0.0516
1388.00,0.0527
1387.00,0.0540
1386.00,0.0549
1385.00,0.0551
1384.00,0.0548
1383.00,0.0547
1382.00,0.0551
1381.00,0.0559
1380.00,0.0569
1379.00,0.0576
1378.00,0.0582
1377.00,0.0582
1376.00,0.0578
1375.00,0.0568
1374.00,0.0555
1373.00,0.0544
1372.00,0.0535
1371.00,0.0531
1370.00,0.0533
1369.00,0.0540
1368.00,0.0552
1367.00,0.0565
1366.00,0.0575
1365.00,0.0579
1364.00,0.0578
1363.00,0.0578
1362.00,0.0586
1361.00,0.0598
1360.00,0.0605
1359.00,0.0599
1358.00,0.0582
1357.00,0.0557
1356.00,0.0532
1355.00,0.0511
1354.00,0.0497
1353.00,0.0486
1352.00,0.0479
1351.00,0.0474
1350.00,0.0472
1349.00,0.0472
1348.00,0.0472
1347.00,0.0471
1346.00,0.0469
1345.00,0.0464
1344.00,0.0458
1343.00,0.0449
1342.00,0.0441
1341.00,0.0431
1340.00,0.0422
1339.00,0.0414
1338.00,0.0409
1337.00,0.0408
1336.00,0.0409
1335.00,0.0414
1334.00,0.0422
1333.00,0.0431
1332.00,0.0442
1331.00,0.0452
1330.00,0.0463
1329.00,0.0474
1328.00,0.0483
1327.00,0.0493
1326.00,0.0502
1325.00,0.0512
1324.00,0.0522
1323.00,0.0532
1322.00,0.0543
1321.00,0.0553
1320.00,0.0562
1319.00,0.0567
1318.00,0.0569
1317.00,0.0567
1316.00,0.0561
1315.00,0.0553
1314.00,0.0543
1313.00,0.0533
1312.00,0.0524
1311.00,0.0517
1310.00,0.0514
1309.00,0.0514
1308.00,0.0519
1307.00,0.0528
1306.00,0.0543
1305.00,0.0566
1304.00,0.0596
1303.00,0.0631
1302.00,0.0669
1301.00,0.0707
1300.00,0.0742
1299.00,0.0776
1298.00,0.0814
1297.00,0.0857
1296.00,0.0909
1295.00,0.0966
1294.00,0.1025
1293.00,0.1082
1292.00,0.1134
1291.00,0.1179
1290.00,0.1217
1289.00,0.1248
1288.00,0.1273
1287.00,0.1291
1286.00,0.1302
1285.00,0.1305
1284.00,0.1298
1283.00,0.1284
1282.00,0.1262
1281.00,0.1237
1280.00,0.1211
1279.00,0.1188
1278.00,0.1169
1277.00,0.1157
1276.00,0.1149
1275.00,0.1145
1274.00,0.1141
1273.00,0.1136
1272.00,0.1125
1271.00,0.1110
1270.00,0.1089
1269.00,0.1063
1268.00,0.1033
1267.00,0.1000
1266.00,0.0964
1265.00,0.0928
1264.00,0.0891
1263.00,0.0854
1262.00,0.0818
1261.00,0.0784
1260.00,0.0753
1259.00,0.0723
1258.00,0.0698
1257.00,0.0674
1256.00,0.0654
1255.00,0.0636
1254.00,0.0620
1253.00,0.0608
1252.00,0.0598
1251.00,0.0592
1250.00,0.0590
1249.00,0.0592
1248.00,0.0597
1247.00,0.0605
1246.00,0.0616
1245.00,0.0628
1244.00,0.0639
1243.00,0.0649
1242.00,0.0658
1241.00,0.0667
1240.00,0.0678
1239.00,0.0692
1238.00,0.0709
1237.00,0.0730
1236.00,0.0752
1235.00,0.0772
1234.00,0.0787
1233.00,0.0795
1232.00,0.0794
1231.00,0.0786
1230.00,0.0774
1229.00,0.0759
1228.00,0.0744
1227.00,0.0729
1226.00,0.0717
1225.00,0.0706
1224.00,0.0698
1223.00,0.0691
1222.00,0.0688
1221.00,0.0687
1220.00,0.0689
1219.00,0.0693
1218.00,0.0699
1217.00,0.0705
1216.00,0.0711
1215.00,0.0713
1214.00,0.0711
1213.00,0.0704
1212.00,0.0689
1211.00,0.0670
1210.00,0.0649
1209.00,0.0629
1208.00,0.0610
1207.00,0.0594
1206.00,0.0583
1205.00,0.0576
1204.00,0.0574
1203.00,0.0577
1202.00,0.0585
1201.00,0.0597
1200.00,0.0612
1199.00,0.0630
1198.00,0.0650
1197.00,0.0672
1196.00,0.0691
1195.00,0.0704
1194.00,0.0709
1193.00,0.0703
1192.00,0.0689
1191.00,0.0668
1190.00,0.0644
1189.00,0.0619
1188.00,0.0593
1187.00,0.0569
1186.00,0.0547
1185.00,0.0528
1184.00,0.0513
1183.00,0.0501
1182.00,0.0492
1181.00,0.0486
1180.00,0.0482
1179.00,0.0480
1178.00,0.0480
1177.00,0.0480
1176.00,0.0482
1175.00,0.0484
1174.00,0.0488
1173.00,0.0491
1172.00,0.0493
1171.00,0.0495
1170.00,0.0496
1169.00,0.0496
1168.00,0.0495
1167.00,0.0493
1166.00,0.0491
1165.00,0.0490
1164.00,0.0489
1163.00,0.0491
1162.00,0.0496
1161.00,0.0505
1160.00,0.0522
1159.00,0.0545
1158.00,0.0577
1157.00,0.0612
1156.00,0.0644
1155.00,0.0663
1154.00,0.0665
1153.00,0.0646
1152.00,0.0610
1151.00,0.0567
1150.00,0.0525
1149.00,0.0489
1148.00,0.0461
1147.00,0.0440
1146.00,0.0426
1145.00,0.0416
1144.00,0.0408
1143.00,0.0403
1142.00,0.0399
1141.00,0.0396
1140.00,0.0395
1139.00,0.0396
1138.00,0.0400
1137.00,0.0408
1136.00,0.0420
1135.00,0.0440
1134.00,0.0470
1133.00,0.0509
1132.00,0.0555
1131.00,0.0603
1130.00,0.0645
1129.00,0.0673
1128.00,0.0685
1127.00,0.0680
1126.00,0.0664
1125.00,0.0639
1124.00,0.0609
1123.00,0.0576
1122.00,0.0543
1121.00,0.0514
1120.00,0.0489
1119.00,0.0471
1118.00,0.0459
1117.00,0.0452
1116.00,0.0447
1115.00,0.0445
1114.00,0.0443
1113.00,0.0441
1112.00,0.0436
1111.00,0.0429
1110.00,0.0423
1109.00,0.0418
1108.00,0.0415
1107.00,0.0415
1106.00,0.0419
1105.00,0.0429
1104.00,0.0445
1103.00,0.0467
1102.00,0.0495
1101.00,0.0522
1100.00,0.0541
1099.00,0.0548
1098.00,0.0542
1097.00,0.0523
1096.00,0.0498
1095.00,0.0470
1094.00,0.0447
1093.00,0.0427
1092.00,0.0411
1091.00,0.0400
1090.00,0.0392
1089.00,0.0385
1088.00,0.0380
1087.00,0.0375
1086.00,0.0372
1085.00,0.0370
1084.00,0.0368
1083.00,0.0367
1082.00,0.0368
1081.00,0.0369
1080.00,0.0370
1079.00,0.0372
1078.00,0.0375
1077.00,0.0377
1076.00,0.0379
1075.00,0.0380
1074.00,0.0382
1073.00,0.0384
1072.00,0.0385
1071.00,0.0387
1070.00,0.0390
1069.00,0.0393
1068.00,0.0396
1067.00,0.0400
1066.00,0.0406
1065.00,0.0414
1064.00,0.0425
1063.00,0.0441
1062.00,0.0462
1061.00,0.0489
1060.00,0.0523
1059.00,0.0566
1058.00,0.0616
1057.00,0.0671
1056.00,0.0722
1055.00,0.0765
1054.00,0.0796
1053.00,0.0813
1052.00,0.0821
1051.00,0.0824
1050.00,0.0823
1049.00,0.0816
1048.00,0.0801
1047.00,0.0776
1046.00,0.0744
1045.00,0.0707
1044.00,0.0667
1043.00,0.0627
1042.00,0.0592
1041.00,0.0561
1040.00,0.0536
1039.00,0.0519
1038.00,0.0510
1037.00,0.0508
1036.00,0.0510
1035.00,0.0515
1034.00,0.0523
1033.00,0.0534
1032.00,0.0553
1031.00,0.0583
1030.00,0.0625
1029.00,0.0675
1028.00,0.0722
1027.00,0.0756
1026.00,0.0769
1025.00,0.0759
1024.00,0.0730
1023.00,0.0692
1022.00,0.0652
1021.00,0.0616
1020.00,0.0585
1019.00,0.0558
1018.00,0.0536
1017.00,0.0515
1016.00,0.0496
1015.00,0.0478
1014.00,0.0461
1013.00,0.0447
1012.00,0.0435
1011.00,0.0428
1010.00,0.0428
1009.00,0.0434
1008.00,0.0445
1007.00,0.0462
1006.00,0.0482
1005.00,0.0502
1004.00,0.0518
1003.00,0.0527
1002.00,0.0528
1001.00,0.0521
1000.00,0.0510
999.00,0.0497
998.00,0.0485
997.00,0.0473
996.00,0.0462
995.00,0.0452
994.00,0.0443
993.00,0.0434
992.00,0.0423
991.00,0.0412
990.00,0.0400
989.00,0.0389
988.00,0.0378
987.00,0.0370
986.00,0.0363
985.00,0.0358
984.00,0.0352
983.00,0.0348
982.00,0.0345
981.00,0.0342
980.00,0.0340
979.00,0.0338
978.00,0.0337
977.00,0.0336
976.00,0.0335
975.00,0.0333
974.00,0.0332
973.00,0.0331
972.00,0.0329
971.00,0.0327
970.00,0.0326
969.00,0.0325
968.00,0.0324
967.00,0.0323
966.00,0.0324
965.00,0.0326
964.00,0.0328
963.00,0.0330
962.00,0.0332
961.00,0.0331
960.00,0.0326
959.00,0.0320
958.00,0.0314
957.00,0.0308
956.00,0.0303
955.00,0.0298
954.00,0.0295
953.00,0.0293
952.00,0.0291
951.00,0.0291
950.00,0.0293
949.00,0.0295
948.00,0.0297
947.00,0.0298
946.00,0.0298
945.00,0.0298
944.00,0.0300
943.00,0.0304
942.00,0.0311
941.00,0.0319
940.00,0.0327
939.00,0.0336
938.00,0.0345
937.00,0.0353
936.00,0.0360
935.00,0.0367
934.00,0.0373
933.00,0.0376
932.00,0.0375
931.00,0.0371
930.00,0.0365
929.00,0.0358
928.00,0.0353
927.00,0.0350
926.00,0.0350
925.00,0.0353
924.00,0.0357
923.00,0.0363
922.00,0.0367
921.00,0.0367
920.00,0.0361
919.00,0.0352
918.00,0.0341
917.00,0.0331
916.00,0.0322
915.00,0.0315
914.00,0.0310
913.00,0.0307
912.00,0.0303
911.00,0.0301
910.00,0.0301
909.00,0.0301
908.00,0.0302
907.00,0.0305
906.00,0.0309
905.00,0.0315
904.00,0.0324
903.00,0.0336
902.00,0.0351
901.00,0.0368
900.00,0.0382
899.00,0.0391
898.00,0.0392
897.00,0.0387
896.00,0.0377
895.00,0.0367
894.00,0.0362
893.00,0.0364
892.00,0.0371
891.00,0.0381
890.00,0.0387
889.00,0.0383
888.00,0.0368
887.00,0.0349
886.00,0.0333
885.00,0.0322
884.00,0.0316
883.00,0.0313
882.00,0.0313
881.00,0.0316
880.00,0.0320
879.00,0.0327
878.00,0.0340
877.00,0.0358
876.00,0.0382
875.00,0.0411
874.00,0.0446
873.00,0.0483
872.00,0.0519
871.00,0.0548
870.00,0.0567
869.00,0.0571
868.00,0.0560
867.00,0.0541
866.00,0.0520
865.00,0.0500
864.00,0.0480
863.00,0.0462
862.00,0.0446
861.00,0.0433
860.00,0.0423
859.00,0.0419
858.00,0.0423
857.00,0.0435
856.00,0.0454
855.00,0.0476
854.00,0.0500
853.00,0.0523
852.00,0.0546
851.00,0.0571
850.00,0.0596
849.00,0.0613
848.00,0.0617
847.00,0.0609
846.00,0.0593
845.00,0.0575
844.00,0.0557
843.00,0.0541
842.00,0.0530
841.00,0.0524
840.00,0.0521
839.00,0.0525
838.00,0.0537
837.00,0.0555
836.00,0.0575
835.00,0.0592
834.00,0.0604
833.00,0.0606
832.00,0.0599
831.00,0.0581
830.00,0.0557
829.00,0.0526
828.00,0.0493
827.00,0.0464
826.00,0.0444
825.00,0.0436
824.00,0.0444
823.00,0.0474
822.00,0.0523
821.00,0.0576
820.00,0.0612
819.00,0.0629
818.00,0.0642
817.00,0.0662
816.00,0.0680
815.00,0.0677
814.00,0.0641
813.00,0.0581
812.00,0.0519
811.00,0.0470
810.00,0.0437
809.00,0.0415
808.00,0.0399
807.00,0.0388
806.00,0.0380
805.00,0.0373
804.00,0.0368
803.00,0.0365
802.00,0.0363
801.00,0.0361
800.00,0.0360
799.00,0.0358
798.00,0.0358
797.00,0.0357
796.00,0.0356
795.00,0.0355
794.00,0.0356
793.00,0.0356
792.00,0.0357
791.00,0.0358
790.00,0.0359
789.00,0.0360
788.00,0.0361
787.00,0.0361
786.00,0.0363
785.00,0.0364
784.00,0.0366
783.00,0.0368
782.00,0.0371
781.00,0.0374
780.00,0.0377
779.00,0.0381
778.00,0.0387
777.00,0.0397
776.00,0.0410
775.00,0.0421
774.00,0.0428
773.00,0.0429
772.00,0.0424
771.00,0.0418
770.00,0.0415
769.00,0.0414
768.00,0.0415
767.00,0.0417
766.00,0.0420
765.00,0.0424
764.00,0.0429
763.00,0.0436
762.00,0.0445
761.00,0.0454
760.00,0.0463
759.00,0.0470
758.00,0.0475
757.00,0.0479
756.00,0.0480
755.00,0.0482
754.00,0.0486
753.00,0.0491
752.00,0.0495
751.00,0.0501
750.00,0.0508
749.00,0.0514
748.00,0.0520
747.00,0.0527
746.00,0.0535
745.00,0.0543
744.00,0.0551
743.00,0.0560
742.00,0.0570
741.00,0.0582
740.00,0.0597
739.00,0.0617
738.00,0.0643
737.00,0.0674
736.00,0.0703
735.00,0.0724
734.00,0.0732
733.00,0.0726
732.00,0.0715
731.00,0.0706
730.00,0.0702
729.00,0.0701
728.00,0.0696
727.00,0.0683
726.00,0.0663
725.00,0.0641
724.00,0.0619
723.00,0.0602
722.00,0.0591
721.00,0.0584
720.00,0.0581
719.00,0.0582
718.00,0.0589
717.00,0.0598
716.00,0.0608
715.00,0.0615
714.00,0.0618
713.00,0.0616
712.00,0.0611
711.00,0.0605
710.00,0.0600
709.00,0.0595
708.00,0.0592
707.00,0.0590
706.00,0.0592
705.00,0.0595
704.00,0.0599
703.00,0.0605
702.00,0.0612
701.00,0.0620
700.00,0.0629
699.00,0.0637
698.00,0.0643
697.00,0.0647
696.00,0.0647
695.00,0.0645
694.00,0.0643
693.00,0.0643
692.00,0.0646
691.00,0.0655
690.00,0.0668
689.00,0.0683
688.00,0.0694
687.00,0.0699
686.00,0.0699
685.00,0.0697
684.00,0.0694
683.00,0.0694
682.00,0.0697
681.00,0.0701
680.00,0.0706
679.00,0.0713
678.00,0.0723
677.00,0.0735
676.00,0.0747
675.00,0.0761
674.00,0.0777
673.00,0.0793
672.00,0.0806
671.00,0.0816
670.00,0.0824
669.00,0.0829
668.00,0.0830
667.00,0.0833
666.00,0.0839
665.00,0.0848
664.00,0.0860
663.00,0.0873
662.00,0.0887
661.00,0.0899
660.00,0.0906
659.00,0.0909
658.00,0.0911
657.00,0.0913
656.00,0.0916
655.00,0.0921
654.00,0.0928
653.00,0.0936
652.00,0.0942
651.00,0.0947
650.00,0.0952
649.00,0.0956
648.00,0.0957
647.00,0.0958
646.00,0.0958
645.00,0.0957
644.00,0.0952
643.00,0.0947
642.00,0.0942
641.00,0.0935
640.00,0.0928
639.00,0.0921
638.00,0.0915
637.00,0.0909
636.00,0.0902
635.00,0.0896
634.00,0.0891
633.00,0.0888
632.00,0.0883
631.00,0.0880
630.00,0.0878
629.00,0.0876
628.00,0.0875
627.00,0.0875
626.00,0.0877
625.00,0.0881
624.00,0.0885
623.00,0.0890
622.00,0.0898
621.00,0.0905
620.00,0.0910
619.00,0.0911
618.00,0.0910
617.00,0.0904
616.00,0.0894
615.00,0.0884
614.00,0.0876
613.00,0.0870
612.00,0.0866
611.00,0.0865
610.00,0.0871
609.00,0.0881
608.00,0.0894
607.00,0.0911
606.00,0.0931
605.00,0.0950
604.00,0.0966
603.00,0.0978
602.00,0.0987
601.00,0.0994
600.00,0.0997
599.00,0.1000
598.00,0.1004
597.00,0.1007
596.00,0.1008
595.00,0.1011
594.00,0.1014
593.00,0.1018
592.00,0.1020
591.00,0.1022
590.00,0.1025
589.00,0.1028
588.00,0.1030
587.00,0.1034
586.00,0.1041
585.00,0.1049
584.00,0.1057
583.00,0.1067
582.00,0.1080
581.00,0.1095
580.00,0.1111
579.00,0.1130
578.00,0.1154
577.00,0.1175
576.00,0.1188
575.00,0.1190
574.00,0.1184
573.00,0.1171
572.00,0.1155
571.00,0.1140
570.00,0.1128
569.00,0.1118
568.00,0.1110
567.00,0.1105
566.00,0.1105
565.00,0.1108
564.00,0.1113
563.00,0.1119
562.00,0.1128
561.00,0.1136
560.00,0.1139
559.00,0.1137
558.00,0.1132
557.00,0.1122
556.00,0.1108
555.00,0.1094
554.00,0.1084
553.00,0.1077
552.00,0.1074
551.00,0.1077
550.00,0.1086
549.00,0.1097
548.00,0.1108
547.00,0.1118
546.00,0.1126
545.00,0.1126
544.00,0.1118
543.00,0.1106
542.00,0.1094
541.00,0.1082
540.00,0.1069
539.00,0.1060
538.00,0.1056
537.00,0.1056
536.00,0.1057
535.00,0.1061
534.00,0.1071
533.00,0.1082
532.00,0.1091
531.00,0.1097
530.00,0.1100
529.00,0.1095
528.00,0.1083
527.00,0.1069
526.00,0.1057
525.00,0.1047
524.00,0.1036
523.00,0.1026
522.00,0.1021
521.00,0.1016
520.00,0.1009
519.00,0.1002
518.00,0.0999
517.00,0.0997
516.00,0.0993
515.00,0.0990
514.00,0.0990
513.00,0.0991
512.00,0.0989
511.00,0.0990
510.00,0.0993
509.00,0.0997
508.00,0.0999
507.00,0.1002
506.00,0.1005
505.00,0.1006
504.00,0.1000
503.00,0.0993
502.00,0.0990
501.00,0.0989
500.00,0.0986
499.00,0.0984
498.00,0.0986
497.00,0.0988
496.00,0.0988
495.00,0.0990
494.00,0.0997
493.00,0.1003
492.00,0.1005
491.00,0.1005
490.00,0.1007
489.00,0.1007
488.00,0.1004
487.00,0.1000
486.00,0.0999
485.00,0.0996
484.00,0.0991
483.00,0.0989
482.00,0.0990
481.00,0.0990
480.00,0.0984
479.00,0.0980
478.00,0.0981
477.00,0.0981
476.00,0.0976
475.00,0.0972
474.00,0.0975
473.00,0.0978
472.00,0.0978
471.00,0.0977
470.00,0.0978
469.00,0.0978
468.00,0.0973
467.00,0.0970
466.00,0.0972
465.00,0.0973
464.00,0.0969
463.00,0.0966
462.00,0.0967
461.00,0.0968
460.00,0.0963
459.00,0.0958
458.00,0.0959
457.00,0.0959
456.00,0.0954
455.00,0.0950
454.00,0.0950
453.00,0.0948
452.00,0.0939
451.00,0.0932
450.00,0.0931
449.00,0.0932
448.00,0.0927
447.00,0.0921
446.00,0.0916
445.00,0.0909
444.00,0.0897
443.00,0.0890
442.00,0.0893
441.00,0.0897
440.00,0.0894
439.00,0.0890
438.00,0.0890
437.00,0.0886
436.00,0.0876
435.00,0.0867
434.00,0.0865
433.00,0.0864
432.00,0.0858
431.00,0.0852
430.00,0.0853
429.00,0.0852
428.00,0.0844
427.00,0.0837
426.00,0.0838
425.00,0.0839
424.00,0.0831
423.00,0.0824
422.00,0.0824
421.00,0.0823
420.00,0.0806
419.00,0.0790
418.00,0.0793
417.00,0.0800
416.00,0.0800
415.00,0.0802
414.00,0.0814
413.00,0.0824
412.00,0.0827
411.00,0.0834
410.00,0.0852
409.00,0.0866
408.00,0.0861
407.00,0.0848
406.00,0.0840
405.00,0.0825
404.00,0.0799
403.00,0.0779
402.00,0.0780
401.00,0.0786
400.00,0.0780
