Created as New Dataset,Sample 325 By YargerLab Date Monday, August 19 2024
cm-1,A
4000.00,0.0110
3999.00,0.0110
3998.00,0.0110
3997.00,0.0110
3996.00,0.0110
3995.00,0.0110
3994.00,0.0110
3993.00,0.0110
3992.00,0.0110
3991.00,0.0110
3990.00,0.0110
3989.00,0.0110
3988.00,0.0110
3987.00,0.0110
3986.00,0.0110
3985.00,0.0110
3984.00,0.0110
3983.00,0.0110
3982.00,0.0110
3981.00,0.0110
3980.00,0.0110
3979.00,0.0110
3978.00,0.0110
3977.00,0.0110
3976.00,0.0110
3975.00,0.0110
3974.00,0.0110
3973.00,0.0110
3972.00,0.0110
3971.00,0.0110
3970.00,0.0109
3969.00,0.0109
3968.00,0.0110
3967.00,0.0110
3966.00,0.0110
3965.00,0.0110
3964.00,0.0110
3963.00,0.0110
3962.00,0.0110
3961.00,0.0110
3960.00,0.0110
3959.00,0.0110
3958.00,0.0110
3957.00,0.0110
3956.00,0.0110
3955.00,0.0110
3954.00,0.0109
3953.00,0.0109
3952.00,0.0109
3951.00,0.0109
3950.00,0.0110
3949.00,0.0110
3948.00,0.0110
3947.00,0.0110
3946.00,0.0109
3945.00,0.0109
3944.00,0.0109
3943.00,0.0109
3942.00,0.0109
3941.00,0.0109
3940.00,0.0109
3939.00,0.0109
3938.00,0.0109
3937.00,0.0109
3936.00,0.0109
3935.00,0.0109
3934.00,0.0109
3933.00,0.0109
3932.00,0.0109
3931.00,0.0109
3930.00,0.0109
3929.00,0.0109
3928.00,0.0108
3927.00,0.0108
3926.00,0.0108
3925.00,0.0109
3924.00,0.0109
3923.00,0.0109
3922.00,0.0109
3921.00,0.0109
3920.00,0.0109
3919.00,0.0109
3918.00,0.0109
3917.00,0.0109
3916.00,0.0109
3915.00,0.0109
3914.00,0.0108
3913.00,0.0108
3912.00,0.0108
3911.00,0.0108
3910.00,0.0108
3909.00,0.0108
3908.00,0.0108
3907.00,0.0108
3906.00,0.0108
3905.00,0.0108
3904.00,0.0108
3903.00,0.0108
3902.00,0.0108
3901.00,0.0108
3900.00,0.0108
3899.00,0.0107
3898.00,0.0108
3897.00,0.0108
3896.00,0.0108
3895.00,0.0108
3894.00,0.0108
3893.00,0.0108
3892.00,0.0108
3891.00,0.0108
3890.00,0.0108
3889.00,0.0107
3888.00,0.0107
3887.00,0.0107
3886.00,0.0107
3885.00,0.0107
3884.00,0.0107
3883.00,0.0107
3882.00,0.0107
3881.00,0.0107
3880.00,0.0107
3879.00,0.0107
3878.00,0.0107
3877.00,0.0107
3876.00,0.0107
3875.00,0.0107
3874.00,0.0107
3873.00,0.0107
3872.00,0.0107
3871.00,0.0107
3870.00,0.0107
3869.00,0.0107
3868.00,0.0107
3867.00,0.0106
3866.00,0.0106
3865.00,0.0106
3864.00,0.0106
3863.00,0.0106
3862.00,0.0106
3861.00,0.0106
3860.00,0.0107
3859.00,0.0107
3858.00,0.0107
3857.00,0.0107
3856.00,0.0106
3855.00,0.0106
3854.00,0.0106
3853.00,0.0106
3852.00,0.0105
3851.00,0.0105
3850.00,0.0105
3849.00,0.0106
3848.00,0.0106
3847.00,0.0106
3846.00,0.0106
3845.00,0.0106
3844.00,0.0106
3843.00,0.0106
3842.00,0.0106
3841.00,0.0106
3840.00,0.0106
3839.00,0.0106
3838.00,0.0106
3837.00,0.0106
3836.00,0.0106
3835.00,0.0105
3834.00,0.0106
3833.00,0.0106
3832.00,0.0106
3831.00,0.0106
3830.00,0.0106
3829.00,0.0106
3828.00,0.0106
3827.00,0.0106
3826.00,0.0106
3825.00,0.0106
3824.00,0.0105
3823.00,0.0105
3822.00,0.0105
3821.00,0.0105
3820.00,0.0105
3819.00,0.0105
3818.00,0.0105
3817.00,0.0104
3816.00,0.0104
3815.00,0.0105
3814.00,0.0105
3813.00,0.0105
3812.00,0.0105
3811.00,0.0105
3810.00,0.0105
3809.00,0.0105
3808.00,0.0105
3807.00,0.0105
3806.00,0.0105
3805.00,0.0105
3804.00,0.0104
3803.00,0.0104
3802.00,0.0104
3801.00,0.0104
3800.00,0.0104
3799.00,0.0104
3798.00,0.0104
3797.00,0.0104
3796.00,0.0104
3795.00,0.0104
3794.00,0.0104
3793.00,0.0104
3792.00,0.0104
3791.00,0.0104
3790.00,0.0104
3789.00,0.0104
3788.00,0.0104
3787.00,0.0104
3786.00,0.0104
3785.00,0.0104
3784.00,0.0104
3783.00,0.0104
3782.00,0.0104
3781.00,0.0104
3780.00,0.0104
3779.00,0.0104
3778.00,0.0104
3777.00,0.0104
3776.00,0.0104
3775.00,0.0104
3774.00,0.0104
3773.00,0.0104
3772.00,0.0104
3771.00,0.0103
3770.00,0.0103
3769.00,0.0103
3768.00,0.0103
3767.00,0.0103
3766.00,0.0103
3765.00,0.0103
3764.00,0.0103
3763.00,0.0103
3762.00,0.0103
3761.00,0.0103
3760.00,0.0103
3759.00,0.0103
3758.00,0.0103
3757.00,0.0103
3756.00,0.0102
3755.00,0.0102
3754.00,0.0102
3753.00,0.0102
3752.00,0.0102
3751.00,0.0102
3750.00,0.0102
3749.00,0.0102
3748.00,0.0101
3747.00,0.0101
3746.00,0.0101
3745.00,0.0101
3744.00,0.0102
3743.00,0.0102
3742.00,0.0102
3741.00,0.0102
3740.00,0.0102
3739.00,0.0102
3738.00,0.0102
3737.00,0.0101
3736.00,0.0101
3735.00,0.0101
3734.00,0.0101
3733.00,0.0101
3732.00,0.0101
3731.00,0.0101
3730.00,0.0101
3729.00,0.0101
3728.00,0.0101
3727.00,0.0101
3726.00,0.0101
3725.00,0.0100
3724.00,0.0100
3723.00,0.0100
3722.00,0.0100
3721.00,0.0100
3720.00,0.0100
3719.00,0.0100
3718.00,0.0100
3717.00,0.0100
3716.00,0.0100
3715.00,0.0100
3714.00,0.0099
3713.00,0.0099
3712.00,0.0099
3711.00,0.0099
3710.00,0.0099
3709.00,0.0099
3708.00,0.0099
3707.00,0.0099
3706.00,0.0099
3705.00,0.0099
3704.00,0.0099
3703.00,0.0099
3702.00,0.0098
3701.00,0.0098
3700.00,0.0098
3699.00,0.0098
3698.00,0.0098
3697.00,0.0098
3696.00,0.0098
3695.00,0.0098
3694.00,0.0098
3693.00,0.0098
3692.00,0.0098
3691.00,0.0098
3690.00,0.0098
3689.00,0.0098
3688.00,0.0098
3687.00,0.0098
3686.00,0.0098
3685.00,0.0098
3684.00,0.0098
3683.00,0.0098
3682.00,0.0098
3681.00,0.0098
3680.00,0.0098
3679.00,0.0098
3678.00,0.0098
3677.00,0.0098
3676.00,0.0098
3675.00,0.0098
3674.00,0.0098
3673.00,0.0098
3672.00,0.0097
3671.00,0.0097
3670.00,0.0098
3669.00,0.0098
3668.00,0.0098
3667.00,0.0098
3666.00,0.0099
3665.00,0.0099
3664.00,0.0099
3663.00,0.0099
3662.00,0.0099
3661.00,0.0099
3660.00,0.0099
3659.00,0.0099
3658.00,0.0099
3657.00,0.0100
3656.00,0.0100
3655.00,0.0100
3654.00,0.0100
3653.00,0.0100
3652.00,0.0100
3651.00,0.0100
3650.00,0.0100
3649.00,0.0100
3648.00,0.0100
3647.00,0.0100
3646.00,0.0100
3645.00,0.0101
3644.00,0.0101
3643.00,0.0102
3642.00,0.0102
3641.00,0.0102
3640.00,0.0103
3639.00,0.0103
3638.00,0.0103
3637.00,0.0103
3636.00,0.0103
3635.00,0.0103
3634.00,0.0103
3633.00,0.0104
3632.00,0.0104
3631.00,0.0104
3630.00,0.0104
3629.00,0.0104
3628.00,0.0104
3627.00,0.0104
3626.00,0.0104
3625.00,0.0105
3624.00,0.0105
3623.00,0.0106
3622.00,0.0106
3621.00,0.0106
3620.00,0.0106
3619.00,0.0106
3618.00,0.0106
3617.00,0.0107
3616.00,0.0107
3615.00,0.0107
3614.00,0.0108
3613.00,0.0108
3612.00,0.0108
3611.00,0.0108
3610.00,0.0109
3609.00,0.0109
3608.00,0.0109
3607.00,0.0110
3606.00,0.0110
3605.00,0.0111
3604.00,0.0111
3603.00,0.0111
3602.00,0.0112
3601.00,0.0112
3600.00,0.0112
3599.00,0.0112
3598.00,0.0113
3597.00,0.0113
3596.00,0.0113
3595.00,0.0113
3594.00,0.0113
3593.00,0.0114
3592.00,0.0114
3591.00,0.0114
3590.00,0.0115
3589.00,0.0115
3588.00,0.0115
3587.00,0.0115
3586.00,0.0116
3585.00,0.0116
3584.00,0.0117
3583.00,0.0117
3582.00,0.0117
3581.00,0.0118
3580.00,0.0118
3579.00,0.0118
3578.00,0.0119
3577.00,0.0119
3576.00,0.0120
3575.00,0.0120
3574.00,0.0120
3573.00,0.0121
3572.00,0.0121
3571.00,0.0121
3570.00,0.0121
3569.00,0.0122
3568.00,0.0122
3567.00,0.0123
3566.00,0.0123
3565.00,0.0123
3564.00,0.0124
3563.00,0.0124
3562.00,0.0125
3561.00,0.0125
3560.00,0.0126
3559.00,0.0126
3558.00,0.0127
3557.00,0.0127
3556.00,0.0128
3555.00,0.0128
3554.00,0.0129
3553.00,0.0129
3552.00,0.0130
3551.00,0.0130
3550.00,0.0130
3549.00,0.0131
3548.00,0.0132
3547.00,0.0132
3546.00,0.0133
3545.00,0.0133
3544.00,0.0133
3543.00,0.0134
3542.00,0.0134
3541.00,0.0134
3540.00,0.0135
3539.00,0.0135
3538.00,0.0136
3537.00,0.0136
3536.00,0.0136
3535.00,0.0137
3534.00,0.0137
3533.00,0.0137
3532.00,0.0138
3531.00,0.0138
3530.00,0.0139
3529.00,0.0139
3528.00,0.0140
3527.00,0.0140
3526.00,0.0141
3525.00,0.0141
3524.00,0.0142
3523.00,0.0142
3522.00,0.0142
3521.00,0.0143
3520.00,0.0143
3519.00,0.0144
3518.00,0.0144
3517.00,0.0145
3516.00,0.0145
3515.00,0.0145
3514.00,0.0146
3513.00,0.0146
3512.00,0.0147
3511.00,0.0147
3510.00,0.0147
3509.00,0.0148
3508.00,0.0148
3507.00,0.0149
3506.00,0.0150
3505.00,0.0150
3504.00,0.0151
3503.00,0.0151
3502.00,0.0152
3501.00,0.0152
3500.00,0.0152
3499.00,0.0153
3498.00,0.0153
3497.00,0.0154
3496.00,0.0154
3495.00,0.0154
3494.00,0.0155
3493.00,0.0155
3492.00,0.0156
3491.00,0.0156
3490.00,0.0157
3489.00,0.0158
3488.00,0.0158
3487.00,0.0158
3486.00,0.0159
3485.00,0.0159
3484.00,0.0160
3483.00,0.0160
3482.00,0.0161
3481.00,0.0162
3480.00,0.0162
3479.00,0.0162
3478.00,0.0163
3477.00,0.0163
3476.00,0.0164
3475.00,0.0164
3474.00,0.0165
3473.00,0.0165
3472.00,0.0166
3471.00,0.0166
3470.00,0.0167
3469.00,0.0167
3468.00,0.0168
3467.00,0.0168
3466.00,0.0168
3465.00,0.0169
3464.00,0.0169
3463.00,0.0170
3462.00,0.0170
3461.00,0.0171
3460.00,0.0171
3459.00,0.0172
3458.00,0.0172
3457.00,0.0173
3456.00,0.0173
3455.00,0.0173
3454.00,0.0174
3453.00,0.0174
3452.00,0.0175
3451.00,0.0175
3450.00,0.0176
3449.00,0.0177
3448.00,0.0177
3447.00,0.0177
3446.00,0.0178
3445.00,0.0178
3444.00,0.0179
3443.00,0.0179
3442.00,0.0180
3441.00,0.0180
3440.00,0.0181
3439.00,0.0182
3438.00,0.0182
3437.00,0.0183
3436.00,0.0183
3435.00,0.0184
3434.00,0.0184
3433.00,0.0185
3432.00,0.0185
3431.00,0.0185
3430.00,0.0186
3429.00,0.0186
3428.00,0.0187
3427.00,0.0187
3426.00,0.0188
3425.00,0.0188
3424.00,0.0189
3423.00,0.0189
3422.00,0.0190
3421.00,0.0190
3420.00,0.0191
3419.00,0.0191
3418.00,0.0192
3417.00,0.0192
3416.00,0.0193
3415.00,0.0194
3414.00,0.0194
3413.00,0.0195
3412.00,0.0195
3411.00,0.0196
3410.00,0.0196
3409.00,0.0196
3408.00,0.0197
3407.00,0.0197
3406.00,0.0198
3405.00,0.0198
3404.00,0.0199
3403.00,0.0200
3402.00,0.0200
3401.00,0.0201
3400.00,0.0201
3399.00,0.0201
3398.00,0.0202
3397.00,0.0202
3396.00,0.0203
3395.00,0.0203
3394.00,0.0204
3393.00,0.0204
3392.00,0.0204
3391.00,0.0205
3390.00,0.0205
3389.00,0.0206
3388.00,0.0206
3387.00,0.0207
3386.00,0.0207
3385.00,0.0208
3384.00,0.0208
3383.00,0.0209
3382.00,0.0209
3381.00,0.0210
3380.00,0.0210
3379.00,0.0211
3378.00,0.0211
3377.00,0.0212
3376.00,0.0213
3375.00,0.0213
3374.00,0.0214
3373.00,0.0215
3372.00,0.0215
3371.00,0.0216
3370.00,0.0217
3369.00,0.0217
3368.00,0.0218
3367.00,0.0219
3366.00,0.0219
3365.00,0.0220
3364.00,0.0220
3363.00,0.0221
3362.00,0.0222
3361.00,0.0222
3360.00,0.0223
3359.00,0.0224
3358.00,0.0225
3357.00,0.0226
3356.00,0.0227
3355.00,0.0227
3354.00,0.0228
3353.00,0.0229
3352.00,0.0230
3351.00,0.0231
3350.00,0.0231
3349.00,0.0232
3348.00,0.0233
3347.00,0.0234
3346.00,0.0235
3345.00,0.0236
3344.00,0.0237
3343.00,0.0238
3342.00,0.0239
3341.00,0.0240
3340.00,0.0241
3339.00,0.0242
3338.00,0.0244
3337.00,0.0245
3336.00,0.0246
3335.00,0.0247
3334.00,0.0248
3333.00,0.0250
3332.00,0.0251
3331.00,0.0252
3330.00,0.0253
3329.00,0.0255
3328.00,0.0256
3327.00,0.0257
3326.00,0.0259
3325.00,0.0260
3324.00,0.0262
3323.00,0.0263
3322.00,0.0265
3321.00,0.0266
3320.00,0.0268
3319.00,0.0270
3318.00,0.0271
3317.00,0.0273
3316.00,0.0275
3315.00,0.0277
3314.00,0.0278
3313.00,0.0280
3312.00,0.0282
3311.00,0.0284
3310.00,0.0285
3309.00,0.0287
3308.00,0.0289
3307.00,0.0291
3306.00,0.0293
3305.00,0.0295
3304.00,0.0297
3303.00,0.0300
3302.00,0.0302
3301.00,0.0304
3300.00,0.0306
3299.00,0.0308
3298.00,0.0310
3297.00,0.0312
3296.00,0.0314
3295.00,0.0316
3294.00,0.0318
3293.00,0.0320
3292.00,0.0322
3291.00,0.0324
3290.00,0.0326
3289.00,0.0328
3288.00,0.0330
3287.00,0.0332
3286.00,0.0334
3285.00,0.0335
3284.00,0.0337
3283.00,0.0338
3282.00,0.0339
3281.00,0.0341
3280.00,0.0342
3279.00,0.0343
3278.00,0.0344
3277.00,0.0344
3276.00,0.0345
3275.00,0.0345
3274.00,0.0345
3273.00,0.0345
3272.00,0.0345
3271.00,0.0345
3270.00,0.0345
3269.00,0.0345
3268.00,0.0344
3267.00,0.0344
3266.00,0.0343
3265.00,0.0342
3264.00,0.0341
3263.00,0.0340
3262.00,0.0339
3261.00,0.0337
3260.00,0.0336
3259.00,0.0334
3258.00,0.0333
3257.00,0.0331
3256.00,0.0329
3255.00,0.0328
3254.00,0.0326
3253.00,0.0325
3252.00,0.0323
3251.00,0.0322
3250.00,0.0320
3249.00,0.0318
3248.00,0.0317
3247.00,0.0315
3246.00,0.0314
3245.00,0.0312
3244.00,0.0311
3243.00,0.0310
3242.00,0.0308
3241.00,0.0307
3240.00,0.0305
3239.00,0.0304
3238.00,0.0302
3237.00,0.0301
3236.00,0.0299
3235.00,0.0298
3234.00,0.0296
3233.00,0.0295
3232.00,0.0294
3231.00,0.0294
3230.00,0.0293
3229.00,0.0292
3228.00,0.0291
3227.00,0.0289
3226.00,0.0288
3225.00,0.0287
3224.00,0.0286
3223.00,0.0285
3222.00,0.0284
3221.00,0.0283
3220.00,0.0282
3219.00,0.0281
3218.00,0.0280
3217.00,0.0279
3216.00,0.0278
3215.00,0.0277
3214.00,0.0276
3213.00,0.0276
3212.00,0.0275
3211.00,0.0274
3210.00,0.0273
3209.00,0.0273
3208.00,0.0272
3207.00,0.0271
3206.00,0.0270
3205.00,0.0269
3204.00,0.0268
3203.00,0.0267
3202.00,0.0267
3201.00,0.0266
3200.00,0.0265
3199.00,0.0264
3198.00,0.0264
3197.00,0.0263
3196.00,0.0262
3195.00,0.0261
3194.00,0.0260
3193.00,0.0259
3192.00,0.0259
3191.00,0.0258
3190.00,0.0257
3189.00,0.0256
3188.00,0.0255
3187.00,0.0254
3186.00,0.0254
3185.00,0.0253
3184.00,0.0252
3183.00,0.0251
3182.00,0.0250
3181.00,0.0249
3180.00,0.0248
3179.00,0.0248
3178.00,0.0247
3177.00,0.0246
3176.00,0.0245
3175.00,0.0244
3174.00,0.0243
3173.00,0.0242
3172.00,0.0242
3171.00,0.0241
3170.00,0.0240
3169.00,0.0239
3168.00,0.0238
3167.00,0.0237
3166.00,0.0236
3165.00,0.0235
3164.00,0.0234
3163.00,0.0233
3162.00,0.0233
3161.00,0.0232
3160.00,0.0231
3159.00,0.0230
3158.00,0.0230
3157.00,0.0229
3156.00,0.0228
3155.00,0.0227
3154.00,0.0227
3153.00,0.0226
3152.00,0.0225
3151.00,0.0224
3150.00,0.0223
3149.00,0.0223
3148.00,0.0222
3147.00,0.0221
3146.00,0.0221
3145.00,0.0220
3144.00,0.0219
3143.00,0.0219
3142.00,0.0218
3141.00,0.0217
3140.00,0.0217
3139.00,0.0216
3138.00,0.0215
3137.00,0.0215
3136.00,0.0214
3135.00,0.0214
3134.00,0.0213
3133.00,0.0213
3132.00,0.0212
3131.00,0.0212
3130.00,0.0211
3129.00,0.0211
3128.00,0.0210
3127.00,0.0210
3126.00,0.0209
3125.00,0.0209
3124.00,0.0209
3123.00,0.0208
3122.00,0.0208
3121.00,0.0207
3120.00,0.0207
3119.00,0.0207
3118.00,0.0206
3117.00,0.0206
3116.00,0.0206
3115.00,0.0206
3114.00,0.0206
3113.00,0.0206
3112.00,0.0205
3111.00,0.0205
3110.00,0.0205
3109.00,0.0205
3108.00,0.0205
3107.00,0.0205
3106.00,0.0205
3105.00,0.0205
3104.00,0.0205
3103.00,0.0205
3102.00,0.0205
3101.00,0.0205
3100.00,0.0205
3099.00,0.0205
3098.00,0.0206
3097.00,0.0206
3096.00,0.0206
3095.00,0.0206
3094.00,0.0206
3093.00,0.0206
3092.00,0.0206
3091.00,0.0206
3090.00,0.0206
3089.00,0.0207
3088.00,0.0207
3087.00,0.0207
3086.00,0.0207
3085.00,0.0207
3084.00,0.0207
3083.00,0.0207
3082.00,0.0207
3081.00,0.0207
3080.00,0.0207
3079.00,0.0207
3078.00,0.0207
3077.00,0.0208
3076.00,0.0208
3075.00,0.0208
3074.00,0.0208
3073.00,0.0208
3072.00,0.0208
3071.00,0.0208
3070.00,0.0208
3069.00,0.0208
3068.00,0.0207
3067.00,0.0207
3066.00,0.0207
3065.00,0.0207
3064.00,0.0207
3063.00,0.0207
3062.00,0.0207
3061.00,0.0207
3060.00,0.0206
3059.00,0.0206
3058.00,0.0206
3057.00,0.0205
3056.00,0.0205
3055.00,0.0204
3054.00,0.0203
3053.00,0.0203
3052.00,0.0202
3051.00,0.0201
3050.00,0.0201
3049.00,0.0200
3048.00,0.0200
3047.00,0.0199
3046.00,0.0199
3045.00,0.0198
3044.00,0.0197
3043.00,0.0197
3042.00,0.0196
3041.00,0.0196
3040.00,0.0196
3039.00,0.0195
3038.00,0.0195
3037.00,0.0194
3036.00,0.0193
3035.00,0.0193
3034.00,0.0192
3033.00,0.0191
3032.00,0.0191
3031.00,0.0191
3030.00,0.0191
3029.00,0.0190
3028.00,0.0190
3027.00,0.0189
3026.00,0.0189
3025.00,0.0188
3024.00,0.0187
3023.00,0.0187
3022.00,0.0186
3021.00,0.0185
3020.00,0.0185
3019.00,0.0184
3018.00,0.0183
3017.00,0.0183
3016.00,0.0182
3015.00,0.0182
3014.00,0.0181
3013.00,0.0181
3012.00,0.0181
3011.00,0.0181
3010.00,0.0180
3009.00,0.0180
3008.00,0.0180
3007.00,0.0180
3006.00,0.0179
3005.00,0.0179
3004.00,0.0179
3003.00,0.0179
3002.00,0.0179
3001.00,0.0179
3000.00,0.0179
2999.00,0.0179
2998.00,0.0179
2997.00,0.0179
2996.00,0.0179
2995.00,0.0179
2994.00,0.0179
2993.00,0.0180
2992.00,0.0180
2991.00,0.0181
2990.00,0.0181
2989.00,0.0182
2988.00,0.0182
2987.00,0.0183
2986.00,0.0183
2985.00,0.0184
2984.00,0.0185
2983.00,0.0185
2982.00,0.0186
2981.00,0.0187
2980.00,0.0187
2979.00,0.0188
2978.00,0.0189
2977.00,0.0189
2976.00,0.0190
2975.00,0.0191
2974.00,0.0191
2973.00,0.0192
2972.00,0.0192
2971.00,0.0192
2970.00,0.0193
2969.00,0.0193
2968.00,0.0193
2967.00,0.0193
2966.00,0.0193
2965.00,0.0193
2964.00,0.0193
2963.00,0.0193
2962.00,0.0193
2961.00,0.0192
2960.00,0.0192
2959.00,0.0191
2958.00,0.0191
2957.00,0.0190
2956.00,0.0190
2955.00,0.0190
2954.00,0.0190
2953.00,0.0190
2952.00,0.0190
2951.00,0.0190
2950.00,0.0190
2949.00,0.0190
2948.00,0.0190
2947.00,0.0190
2946.00,0.0190
2945.00,0.0190
2944.00,0.0191
2943.00,0.0191
2942.00,0.0191
2941.00,0.0191
2940.00,0.0192
2939.00,0.0192
2938.00,0.0192
2937.00,0.0191
2936.00,0.0191
2935.00,0.0191
2934.00,0.0190
2933.00,0.0189
2932.00,0.0188
2931.00,0.0186
2930.00,0.0184
2929.00,0.0182
2928.00,0.0180
2927.00,0.0177
2926.00,0.0174
2925.00,0.0170
2924.00,0.0166
2923.00,0.0162
2922.00,0.0157
2921.00,0.0152
2920.00,0.0147
2919.00,0.0141
2918.00,0.0137
2917.00,0.0134
2916.00,0.0134
2915.00,0.0137
2914.00,0.0141
2913.00,0.0147
2912.00,0.0153
2911.00,0.0158
2910.00,0.0162
2909.00,0.0165
2908.00,0.0167
2907.00,0.0168
2906.00,0.0169
2905.00,0.0169
2904.00,0.0170
2903.00,0.0170
2902.00,0.0170
2901.00,0.0170
2900.00,0.0170
2899.00,0.0170
2898.00,0.0171
2897.00,0.0171
2896.00,0.0171
2895.00,0.0171
2894.00,0.0171
2893.00,0.0172
2892.00,0.0172
2891.00,0.0172
2890.00,0.0172
2889.00,0.0173
2888.00,0.0173
2887.00,0.0174
2886.00,0.0174
2885.00,0.0175
2884.00,0.0175
2883.00,0.0176
2882.00,0.0177
2881.00,0.0177
2880.00,0.0178
2879.00,0.0179
2878.00,0.0179
2877.00,0.0179
2876.00,0.0180
2875.00,0.0180
2874.00,0.0179
2873.00,0.0179
2872.00,0.0179
2871.00,0.0179
2870.00,0.0178
2869.00,0.0178
2868.00,0.0177
2867.00,0.0176
2866.00,0.0175
2865.00,0.0174
2864.00,0.0172
2863.00,0.0171
2862.00,0.0170
2861.00,0.0168
2860.00,0.0167
2859.00,0.0165
2858.00,0.0164
2857.00,0.0162
2856.00,0.0159
2855.00,0.0156
2854.00,0.0152
2853.00,0.0147
2852.00,0.0142
2851.00,0.0136
2850.00,0.0132
2849.00,0.0131
2848.00,0.0132
2847.00,0.0136
2846.00,0.0142
2845.00,0.0147
2844.00,0.0152
2843.00,0.0155
2842.00,0.0157
2841.00,0.0159
2840.00,0.0160
2839.00,0.0160
2838.00,0.0160
2837.00,0.0161
2836.00,0.0161
2835.00,0.0161
2834.00,0.0161
2833.00,0.0161
2832.00,0.0161
2831.00,0.0161
2830.00,0.0161
2829.00,0.0161
2828.00,0.0160
2827.00,0.0160
2826.00,0.0160
2825.00,0.0160
2824.00,0.0160
2823.00,0.0160
2822.00,0.0160
2821.00,0.0159
2820.00,0.0159
2819.00,0.0159
2818.00,0.0159
2817.00,0.0159
2816.00,0.0159
2815.00,0.0159
2814.00,0.0159
2813.00,0.0158
2812.00,0.0158
2811.00,0.0158
2810.00,0.0158
2809.00,0.0158
2808.00,0.0158
2807.00,0.0158
2806.00,0.0158
2805.00,0.0157
2804.00,0.0157
2803.00,0.0157
2802.00,0.0157
2801.00,0.0157
2800.00,0.0157
2799.00,0.0156
2798.00,0.0156
2797.00,0.0156
2796.00,0.0156
2795.00,0.0156
2794.00,0.0156
2793.00,0.0156
2792.00,0.0156
2791.00,0.0156
2790.00,0.0156
2789.00,0.0155
2788.00,0.0155
2787.00,0.0155
2786.00,0.0155
2785.00,0.0154
2784.00,0.0154
2783.00,0.0154
2782.00,0.0154
2781.00,0.0154
2780.00,0.0154
2779.00,0.0154
2778.00,0.0154
2777.00,0.0153
2776.00,0.0153
2775.00,0.0153
2774.00,0.0153
2773.00,0.0153
2772.00,0.0153
2771.00,0.0152
2770.00,0.0152
2769.00,0.0152
2768.00,0.0152
2767.00,0.0152
2766.00,0.0152
2765.00,0.0151
2764.00,0.0151
2763.00,0.0151
2762.00,0.0151
2761.00,0.0151
2760.00,0.0151
2759.00,0.0150
2758.00,0.0150
2757.00,0.0150
2756.00,0.0150
2755.00,0.0150
2754.00,0.0150
2753.00,0.0150
2752.00,0.0149
2751.00,0.0149
2750.00,0.0149
2749.00,0.0149
2748.00,0.0149
2747.00,0.0149
2746.00,0.0148
2745.00,0.0148
2744.00,0.0148
2743.00,0.0148
2742.00,0.0148
2741.00,0.0148
2740.00,0.0148
2739.00,0.0147
2738.00,0.0147
2737.00,0.0147
2736.00,0.0147
2735.00,0.0147
2734.00,0.0147
2733.00,0.0147
2732.00,0.0146
2731.00,0.0146
2730.00,0.0146
2729.00,0.0146
2728.00,0.0146
2727.00,0.0146
2726.00,0.0146
2725.00,0.0145
2724.00,0.0145
2723.00,0.0145
2722.00,0.0145
2721.00,0.0145
2720.00,0.0145
2719.00,0.0145
2718.00,0.0145
2717.00,0.0144
2716.00,0.0144
2715.00,0.0144
2714.00,0.0144
2713.00,0.0143
2712.00,0.0143
2711.00,0.0143
2710.00,0.0143
2709.00,0.0143
2708.00,0.0143
2707.00,0.0143
2706.00,0.0142
2705.00,0.0142
2704.00,0.0142
2703.00,0.0142
2702.00,0.0142
2701.00,0.0142
2700.00,0.0142
2699.00,0.0142
2698.00,0.0141
2697.00,0.0141
2696.00,0.0141
2695.00,0.0141
2694.00,0.0141
2693.00,0.0141
2692.00,0.0141
2691.00,0.0141
2690.00,0.0141
2689.00,0.0140
2688.00,0.0140
2687.00,0.0140
2686.00,0.0140
2685.00,0.0140
2684.00,0.0140
2683.00,0.0140
2682.00,0.0140
2681.00,0.0140
2680.00,0.0139
2679.00,0.0139
2678.00,0.0139
2677.00,0.0139
2676.00,0.0139
2675.00,0.0139
2674.00,0.0139
2673.00,0.0139
2672.00,0.0139
2671.00,0.0139
2670.00,0.0139
2669.00,0.0139
2668.00,0.0139
2667.00,0.0139
2666.00,0.0139
2665.00,0.0140
2664.00,0.0140
2663.00,0.0140
2662.00,0.0140
2661.00,0.0141
2660.00,0.0141
2659.00,0.0141
2658.00,0.0141
2657.00,0.0141
2656.00,0.0141
2655.00,0.0141
2654.00,0.0141
2653.00,0.0141
2652.00,0.0141
2651.00,0.0141
2650.00,0.0140
2649.00,0.0140
2648.00,0.0140
2647.00,0.0140
2646.00,0.0140
2645.00,0.0140
2644.00,0.0139
2643.00,0.0139
2642.00,0.0139
2641.00,0.0139
2640.00,0.0139
2639.00,0.0139
2638.00,0.0138
2637.00,0.0138
2636.00,0.0138
2635.00,0.0138
2634.00,0.0138
2633.00,0.0138
2632.00,0.0138
2631.00,0.0137
2630.00,0.0137
2629.00,0.0137
2628.00,0.0137
2627.00,0.0137
2626.00,0.0137
2625.00,0.0136
2624.00,0.0136
2623.00,0.0136
2622.00,0.0136
2621.00,0.0136
2620.00,0.0136
2619.00,0.0136
2618.00,0.0135
2617.00,0.0135
2616.00,0.0135
2615.00,0.0135
2614.00,0.0135
2613.00,0.0134
2612.00,0.0134
2611.00,0.0134
2610.00,0.0134
2609.00,0.0134
2608.00,0.0134
2607.00,0.0133
2606.00,0.0133
2605.00,0.0133
2604.00,0.0133
2603.00,0.0133
2602.00,0.0133
2601.00,0.0133
2600.00,0.0132
2599.00,0.0132
2598.00,0.0132
2597.00,0.0132
2596.00,0.0132
2595.00,0.0132
2594.00,0.0132
2593.00,0.0131
2592.00,0.0131
2591.00,0.0131
2590.00,0.0130
2589.00,0.0130
2588.00,0.0130
2587.00,0.0130
2586.00,0.0129
2585.00,0.0129
2584.00,0.0129
2583.00,0.0129
2582.00,0.0129
2581.00,0.0129
2580.00,0.0129
2579.00,0.0129
2578.00,0.0128
2577.00,0.0128
2576.00,0.0128
2575.00,0.0128
2574.00,0.0128
2573.00,0.0128
2572.00,0.0128
2571.00,0.0128
2570.00,0.0127
2569.00,0.0127
2568.00,0.0127
2567.00,0.0127
2566.00,0.0127
2565.00,0.0127
2564.00,0.0127
2563.00,0.0127
2562.00,0.0126
2561.00,0.0126
2560.00,0.0126
2559.00,0.0126
2558.00,0.0126
2557.00,0.0126
2556.00,0.0126
2555.00,0.0126
2554.00,0.0126
2553.00,0.0125
2552.00,0.0125
2551.00,0.0125
2550.00,0.0125
2549.00,0.0125
2548.00,0.0125
2547.00,0.0125
2546.00,0.0125
2545.00,0.0125
2544.00,0.0125
2543.00,0.0125
2542.00,0.0125
2541.00,0.0124
2540.00,0.0124
2539.00,0.0124
2538.00,0.0123
2537.00,0.0123
2536.00,0.0123
2535.00,0.0123
2534.00,0.0123
2533.00,0.0123
2532.00,0.0123
2531.00,0.0123
2530.00,0.0123
2529.00,0.0123
2528.00,0.0123
2527.00,0.0123
2526.00,0.0123
2525.00,0.0123
2524.00,0.0123
2523.00,0.0123
2522.00,0.0123
2521.00,0.0123
2520.00,0.0122
2519.00,0.0122
2518.00,0.0122
2517.00,0.0122
2516.00,0.0122
2515.00,0.0122
2514.00,0.0122
2513.00,0.0121
2512.00,0.0121
2511.00,0.0121
2510.00,0.0121
2509.00,0.0121
2508.00,0.0121
2507.00,0.0121
2506.00,0.0121
2505.00,0.0121
2504.00,0.0121
2503.00,0.0121
2502.00,0.0121
2501.00,0.0121
2500.00,0.0121
2499.00,0.0121
2498.00,0.0121
2497.00,0.0121
2496.00,0.0121
2495.00,0.0121
2494.00,0.0121
2493.00,0.0120
2492.00,0.0120
2491.00,0.0120
2490.00,0.0120
2489.00,0.0120
2488.00,0.0120
2487.00,0.0120
2486.00,0.0120
2485.00,0.0120
2484.00,0.0120
2483.00,0.0120
2482.00,0.0120
2481.00,0.0120
2480.00,0.0119
2479.00,0.0119
2478.00,0.0119
2477.00,0.0119
2476.00,0.0119
2475.00,0.0119
2474.00,0.0119
2473.00,0.0119
2472.00,0.0119
2471.00,0.0119
2470.00,0.0119
2469.00,0.0119
2468.00,0.0119
2467.00,0.0119
2466.00,0.0119
2465.00,0.0119
2464.00,0.0119
2463.00,0.0119
2462.00,0.0119
2461.00,0.0119
2460.00,0.0119
2459.00,0.0119
2458.00,0.0119
2457.00,0.0119
2456.00,0.0119
2455.00,0.0119
2454.00,0.0119
2453.00,0.0119
2452.00,0.0119
2451.00,0.0119
2450.00,0.0118
2449.00,0.0118
2448.00,0.0118
2447.00,0.0118
2446.00,0.0118
2445.00,0.0118
2444.00,0.0117
2443.00,0.0117
2442.00,0.0117
2441.00,0.0117
2440.00,0.0117
2439.00,0.0117
2438.00,0.0116
2437.00,0.0116
2436.00,0.0116
2435.00,0.0116
2434.00,0.0116
2433.00,0.0116
2432.00,0.0116
2431.00,0.0116
2430.00,0.0116
2429.00,0.0115
2428.00,0.0115
2427.00,0.0115
2426.00,0.0115
2425.00,0.0115
2424.00,0.0115
2423.00,0.0114
2422.00,0.0114
2421.00,0.0114
2420.00,0.0114
2419.00,0.0114
2418.00,0.0114
2417.00,0.0113
2416.00,0.0113
2415.00,0.0113
2414.00,0.0113
2413.00,0.0113
2412.00,0.0113
2411.00,0.0113
2410.00,0.0113
2409.00,0.0113
2408.00,0.0112
2407.00,0.0112
2406.00,0.0111
2405.00,0.0111
2404.00,0.0111
2403.00,0.0111
2402.00,0.0111
2401.00,0.0111
2400.00,0.0111
2399.00,0.0111
2398.00,0.0111
2397.00,0.0111
2396.00,0.0111
2395.00,0.0111
2394.00,0.0111
2393.00,0.0111
2392.00,0.0110
2391.00,0.0110
2390.00,0.0110
2389.00,0.0110
2388.00,0.0110
2387.00,0.0110
2386.00,0.0110
2385.00,0.0110
2384.00,0.0110
2383.00,0.0110
2382.00,0.0110
2381.00,0.0110
2380.00,0.0110
2379.00,0.0110
2378.00,0.0109
2377.00,0.0109
2376.00,0.0109
2375.00,0.0109
2374.00,0.0109
2373.00,0.0109
2372.00,0.0109
2371.00,0.0109
2370.00,0.0109
2369.00,0.0109
2368.00,0.0109
2367.00,0.0109
2366.00,0.0109
2365.00,0.0109
2364.00,0.0110
2363.00,0.0110
2362.00,0.0110
2361.00,0.0110
2360.00,0.0110
2359.00,0.0110
2358.00,0.0110
2357.00,0.0110
2356.00,0.0110
2355.00,0.0109
2354.00,0.0108
2353.00,0.0109
2352.00,0.0110
2351.00,0.0112
2350.00,0.0113
2349.00,0.0113
2348.00,0.0112
2347.00,0.0112
2346.00,0.0112
2345.00,0.0112
2344.00,0.0112
2343.00,0.0112
2342.00,0.0112
2341.00,0.0113
2340.00,0.0113
2339.00,0.0112
2338.00,0.0112
2337.00,0.0112
2336.00,0.0112
2335.00,0.0112
2334.00,0.0112
2333.00,0.0111
2332.00,0.0111
2331.00,0.0111
2330.00,0.0111
2329.00,0.0113
2328.00,0.0116
2327.00,0.0120
2326.00,0.0122
2325.00,0.0123
2324.00,0.0123
2323.00,0.0121
2322.00,0.0119
2321.00,0.0118
2320.00,0.0117
2319.00,0.0116
2318.00,0.0116
2317.00,0.0115
2316.00,0.0115
2315.00,0.0114
2314.00,0.0114
2313.00,0.0113
2312.00,0.0113
2311.00,0.0113
2310.00,0.0113
2309.00,0.0113
2308.00,0.0113
2307.00,0.0113
2306.00,0.0113
2305.00,0.0113
2304.00,0.0113
2303.00,0.0113
2302.00,0.0113
2301.00,0.0113
2300.00,0.0113
2299.00,0.0114
2298.00,0.0114
2297.00,0.0114
2296.00,0.0115
2295.00,0.0115
2294.00,0.0116
2293.00,0.0116
2292.00,0.0117
2291.00,0.0118
2290.00,0.0118
2289.00,0.0118
2288.00,0.0118
2287.00,0.0118
2286.00,0.0118
2285.00,0.0117
2284.00,0.0116
2283.00,0.0116
2282.00,0.0115
2281.00,0.0115
2280.00,0.0114
2279.00,0.0114
2278.00,0.0114
2277.00,0.0114
2276.00,0.0113
2275.00,0.0113
2274.00,0.0113
2273.00,0.0112
2272.00,0.0112
2271.00,0.0112
2270.00,0.0112
2269.00,0.0112
2268.00,0.0111
2267.00,0.0111
2266.00,0.0110
2265.00,0.0110
2264.00,0.0110
2263.00,0.0110
2262.00,0.0110
2261.00,0.0111
2260.00,0.0111
2259.00,0.0110
2258.00,0.0110
2257.00,0.0109
2256.00,0.0108
2255.00,0.0107
2254.00,0.0107
2253.00,0.0107
2252.00,0.0107
2251.00,0.0108
2250.00,0.0108
2249.00,0.0108
2248.00,0.0108
2247.00,0.0108
2246.00,0.0108
2245.00,0.0108
2244.00,0.0108
2243.00,0.0107
2242.00,0.0107
2241.00,0.0107
2240.00,0.0107
2239.00,0.0106
2238.00,0.0106
2237.00,0.0106
2236.00,0.0106
2235.00,0.0106
2234.00,0.0107
2233.00,0.0107
2232.00,0.0107
2231.00,0.0106
2230.00,0.0106
2229.00,0.0106
2228.00,0.0106
2227.00,0.0106
2226.00,0.0106
2225.00,0.0106
2224.00,0.0106
2223.00,0.0106
2222.00,0.0106
2221.00,0.0106
2220.00,0.0106
2219.00,0.0105
2218.00,0.0105
2217.00,0.0105
2216.00,0.0105
2215.00,0.0105
2214.00,0.0105
2213.00,0.0105
2212.00,0.0105
2211.00,0.0105
2210.00,0.0105
2209.00,0.0105
2208.00,0.0105
2207.00,0.0105
2206.00,0.0105
2205.00,0.0105
2204.00,0.0105
2203.00,0.0105
2202.00,0.0106
2201.00,0.0106
2200.00,0.0106
2199.00,0.0106
2198.00,0.0105
2197.00,0.0106
2196.00,0.0106
2195.00,0.0106
2194.00,0.0106
2193.00,0.0106
2192.00,0.0106
2191.00,0.0106
2190.00,0.0106
2189.00,0.0106
2188.00,0.0107
2187.00,0.0107
2186.00,0.0107
2185.00,0.0105
2184.00,0.0103
2183.00,0.0101
2182.00,0.0100
2181.00,0.0100
2180.00,0.0100
2179.00,0.0100
2178.00,0.0099
2177.00,0.0098
2176.00,0.0098
2175.00,0.0098
2174.00,0.0099
2173.00,0.0100
2172.00,0.0102
2171.00,0.0104
2170.00,0.0106
2169.00,0.0107
2168.00,0.0108
2167.00,0.0108
2166.00,0.0109
2165.00,0.0111
2164.00,0.0113
2163.00,0.0113
2162.00,0.0109
2161.00,0.0100
2160.00,0.0087
2159.00,0.0076
2158.00,0.0070
2157.00,0.0070
2156.00,0.0073
2155.00,0.0076
2154.00,0.0079
2153.00,0.0081
2152.00,0.0082
2151.00,0.0082
2150.00,0.0083
2149.00,0.0083
2148.00,0.0083
2147.00,0.0083
2146.00,0.0084
2145.00,0.0085
2144.00,0.0085
2143.00,0.0085
2142.00,0.0085
2141.00,0.0086
2140.00,0.0086
2139.00,0.0086
2138.00,0.0085
2137.00,0.0084
2136.00,0.0082
2135.00,0.0080
2134.00,0.0080
2133.00,0.0080
2132.00,0.0082
2131.00,0.0083
2130.00,0.0085
2129.00,0.0086
2128.00,0.0088
2127.00,0.0089
2126.00,0.0090
2125.00,0.0091
2124.00,0.0092
2123.00,0.0093
2122.00,0.0093
2121.00,0.0094
2120.00,0.0095
2119.00,0.0095
2118.00,0.0096
2117.00,0.0097
2116.00,0.0097
2115.00,0.0097
2114.00,0.0098
2113.00,0.0097
2112.00,0.0097
2111.00,0.0097
2110.00,0.0097
2109.00,0.0097
2108.00,0.0098
2107.00,0.0098
2106.00,0.0098
2105.00,0.0097
2104.00,0.0097
2103.00,0.0097
2102.00,0.0097
2101.00,0.0097
2100.00,0.0097
2099.00,0.0096
2098.00,0.0095
2097.00,0.0094
2096.00,0.0093
2095.00,0.0092
2094.00,0.0092
2093.00,0.0093
2092.00,0.0094
2091.00,0.0095
2090.00,0.0095
2089.00,0.0096
2088.00,0.0096
2087.00,0.0096
2086.00,0.0097
2085.00,0.0098
2084.00,0.0098
2083.00,0.0098
2082.00,0.0097
2081.00,0.0097
2080.00,0.0097
2079.00,0.0097
2078.00,0.0097
2077.00,0.0097
2076.00,0.0097
2075.00,0.0096
2074.00,0.0095
2073.00,0.0095
2072.00,0.0095
2071.00,0.0095
2070.00,0.0095
2069.00,0.0095
2068.00,0.0095
2067.00,0.0095
2066.00,0.0094
2065.00,0.0094
2064.00,0.0093
2063.00,0.0093
2062.00,0.0093
2061.00,0.0093
2060.00,0.0093
2059.00,0.0094
2058.00,0.0094
2057.00,0.0094
2056.00,0.0094
2055.00,0.0094
2054.00,0.0096
2053.00,0.0100
2052.00,0.0103
2051.00,0.0103
2050.00,0.0102
2049.00,0.0098
2048.00,0.0096
2047.00,0.0094
2046.00,0.0093
2045.00,0.0092
2044.00,0.0092
2043.00,0.0093
2042.00,0.0093
2041.00,0.0094
2040.00,0.0094
2039.00,0.0094
2038.00,0.0093
2037.00,0.0093
2036.00,0.0092
2035.00,0.0090
2034.00,0.0089
2033.00,0.0087
2032.00,0.0086
2031.00,0.0086
2030.00,0.0086
2029.00,0.0085
2028.00,0.0085
2027.00,0.0084
2026.00,0.0084
2025.00,0.0084
2024.00,0.0084
2023.00,0.0085
2022.00,0.0085
2021.00,0.0085
2020.00,0.0084
2019.00,0.0083
2018.00,0.0083
2017.00,0.0083
2016.00,0.0084
2015.00,0.0085
2014.00,0.0086
2013.00,0.0086
2012.00,0.0086
2011.00,0.0086
2010.00,0.0085
2009.00,0.0083
2008.00,0.0081
2007.00,0.0078
2006.00,0.0077
2005.00,0.0077
2004.00,0.0077
2003.00,0.0079
2002.00,0.0080
2001.00,0.0082
2000.00,0.0083
1999.00,0.0084
1998.00,0.0084
1997.00,0.0085
1996.00,0.0085
1995.00,0.0085
1994.00,0.0085
1993.00,0.0085
1992.00,0.0086
1991.00,0.0086
1990.00,0.0087
1989.00,0.0087
1988.00,0.0088
1987.00,0.0089
1986.00,0.0090
1985.00,0.0091
1984.00,0.0093
1983.00,0.0094
1982.00,0.0096
1981.00,0.0097
1980.00,0.0095
1979.00,0.0090
1978.00,0.0084
1977.00,0.0079
1976.00,0.0076
1975.00,0.0075
1974.00,0.0074
1973.00,0.0075
1972.00,0.0076
1971.00,0.0077
1970.00,0.0077
1969.00,0.0077
1968.00,0.0077
1967.00,0.0077
1966.00,0.0076
1965.00,0.0076
1964.00,0.0075
1963.00,0.0075
1962.00,0.0074
1961.00,0.0073
1960.00,0.0073
1959.00,0.0072
1958.00,0.0072
1957.00,0.0073
1956.00,0.0074
1955.00,0.0074
1954.00,0.0075
1953.00,0.0075
1952.00,0.0075
1951.00,0.0075
1950.00,0.0076
1949.00,0.0076
1948.00,0.0076
1947.00,0.0076
1946.00,0.0075
1945.00,0.0074
1944.00,0.0074
1943.00,0.0075
1942.00,0.0075
1941.00,0.0075
1940.00,0.0076
1939.00,0.0076
1938.00,0.0076
1937.00,0.0076
1936.00,0.0076
1935.00,0.0076
1934.00,0.0075
1933.00,0.0075
1932.00,0.0075
1931.00,0.0075
1930.00,0.0075
1929.00,0.0075
1928.00,0.0075
1927.00,0.0075
1926.00,0.0075
1925.00,0.0075
1924.00,0.0075
1923.00,0.0076
1922.00,0.0076
1921.00,0.0077
1920.00,0.0077
1919.00,0.0077
1918.00,0.0077
1917.00,0.0077
1916.00,0.0077
1915.00,0.0077
1914.00,0.0077
1913.00,0.0076
1912.00,0.0076
1911.00,0.0075
1910.00,0.0075
1909.00,0.0075
1908.00,0.0075
1907.00,0.0075
1906.00,0.0076
1905.00,0.0076
1904.00,0.0076
1903.00,0.0076
1902.00,0.0076
1901.00,0.0076
1900.00,0.0075
1899.00,0.0075
1898.00,0.0075
1897.00,0.0074
1896.00,0.0074
1895.00,0.0074
1894.00,0.0074
1893.00,0.0074
1892.00,0.0074
1891.00,0.0074
1890.00,0.0075
1889.00,0.0075
1888.00,0.0075
1887.00,0.0075
1886.00,0.0075
1885.00,0.0075
1884.00,0.0075
1883.00,0.0075
1882.00,0.0075
1881.00,0.0074
1880.00,0.0074
1879.00,0.0074
1878.00,0.0074
1877.00,0.0074
1876.00,0.0074
1875.00,0.0074
1874.00,0.0074
1873.00,0.0074
1872.00,0.0073
1871.00,0.0073
1870.00,0.0073
1869.00,0.0073
1868.00,0.0073
1867.00,0.0073
1866.00,0.0073
1865.00,0.0073
1864.00,0.0073
1863.00,0.0072
1862.00,0.0072
1861.00,0.0072
1860.00,0.0072
1859.00,0.0072
1858.00,0.0072
1857.00,0.0072
1856.00,0.0072
1855.00,0.0072
1854.00,0.0072
1853.00,0.0071
1852.00,0.0071
1851.00,0.0071
1850.00,0.0071
1849.00,0.0071
1848.00,0.0071
1847.00,0.0071
1846.00,0.0071
1845.00,0.0071
1844.00,0.0072
1843.00,0.0072
1842.00,0.0071
1841.00,0.0071
1840.00,0.0070
1839.00,0.0070
1838.00,0.0070
1837.00,0.0070
1836.00,0.0070
1835.00,0.0070
1834.00,0.0070
1833.00,0.0069
1832.00,0.0069
1831.00,0.0068
1830.00,0.0068
1829.00,0.0069
1828.00,0.0069
1827.00,0.0069
1826.00,0.0069
1825.00,0.0069
1824.00,0.0070
1823.00,0.0070
1822.00,0.0070
1821.00,0.0069
1820.00,0.0069
1819.00,0.0068
1818.00,0.0067
1817.00,0.0066
1816.00,0.0066
1815.00,0.0067
1814.00,0.0067
1813.00,0.0067
1812.00,0.0067
1811.00,0.0067
1810.00,0.0068
1809.00,0.0068
1808.00,0.0068
1807.00,0.0068
1806.00,0.0068
1805.00,0.0068
1804.00,0.0068
1803.00,0.0067
1802.00,0.0067
1801.00,0.0067
1800.00,0.0067
1799.00,0.0067
1798.00,0.0067
1797.00,0.0067
1796.00,0.0067
1795.00,0.0067
1794.00,0.0067
1793.00,0.0067
1792.00,0.0068
1791.00,0.0068
1790.00,0.0068
1789.00,0.0067
1788.00,0.0067
1787.00,0.0067
1786.00,0.0067
1785.00,0.0067
1784.00,0.0067
1783.00,0.0067
1782.00,0.0066
1781.00,0.0066
1780.00,0.0066
1779.00,0.0066
1778.00,0.0065
1777.00,0.0065
1776.00,0.0065
1775.00,0.0065
1774.00,0.0066
1773.00,0.0066
1772.00,0.0066
1771.00,0.0066
1770.00,0.0066
1769.00,0.0066
1768.00,0.0066
1767.00,0.0066
1766.00,0.0065
1765.00,0.0065
1764.00,0.0064
1763.00,0.0064
1762.00,0.0064
1761.00,0.0065
1760.00,0.0065
1759.00,0.0064
1758.00,0.0064
1757.00,0.0065
1756.00,0.0065
1755.00,0.0065
1754.00,0.0065
1753.00,0.0066
1752.00,0.0066
1751.00,0.0066
1750.00,0.0065
1749.00,0.0064
1748.00,0.0064
1747.00,0.0064
1746.00,0.0064
1745.00,0.0065
1744.00,0.0065
1743.00,0.0065
1742.00,0.0065
1741.00,0.0065
1740.00,0.0065
1739.00,0.0066
1738.00,0.0066
1737.00,0.0067
1736.00,0.0069
1735.00,0.0071
1734.00,0.0072
1733.00,0.0072
1732.00,0.0071
1731.00,0.0069
1730.00,0.0068
1729.00,0.0068
1728.00,0.0069
1727.00,0.0069
1726.00,0.0069
1725.00,0.0069
1724.00,0.0070
1723.00,0.0070
1722.00,0.0070
1721.00,0.0070
1720.00,0.0072
1719.00,0.0074
1718.00,0.0076
1717.00,0.0078
1716.00,0.0079
1715.00,0.0079
1714.00,0.0080
1713.00,0.0081
1712.00,0.0083
1711.00,0.0085
1710.00,0.0088
1709.00,0.0091
1708.00,0.0094
1707.00,0.0099
1706.00,0.0105
1705.00,0.0113
1704.00,0.0122
1703.00,0.0131
1702.00,0.0142
1701.00,0.0159
1700.00,0.0181
1699.00,0.0199
1698.00,0.0210
1697.00,0.0220
1696.00,0.0230
1695.00,0.0238
1694.00,0.0241
1693.00,0.0243
1692.00,0.0245
1691.00,0.0250
1690.00,0.0255
1689.00,0.0261
1688.00,0.0268
1687.00,0.0276
1686.00,0.0284
1685.00,0.0293
1684.00,0.0304
1683.00,0.0313
1682.00,0.0319
1681.00,0.0326
1680.00,0.0334
1679.00,0.0342
1678.00,0.0350
1677.00,0.0359
1676.00,0.0369
1675.00,0.0381
1674.00,0.0390
1673.00,0.0398
1672.00,0.0406
1671.00,0.0416
1670.00,0.0427
1669.00,0.0439
1668.00,0.0450
1667.00,0.0460
1666.00,0.0469
1665.00,0.0477
1664.00,0.0487
1663.00,0.0498
1662.00,0.0509
1661.00,0.0519
1660.00,0.0529
1659.00,0.0538
1658.00,0.0546
1657.00,0.0554
1656.00,0.0563
1655.00,0.0573
1654.00,0.0582
1653.00,0.0592
1652.00,0.0599
1651.00,0.0601
1650.00,0.0601
1649.00,0.0603
1648.00,0.0608
1647.00,0.0614
1646.00,0.0620
1645.00,0.0624
1644.00,0.0628
1643.00,0.0631
1642.00,0.0635
1641.00,0.0639
1640.00,0.0644
1639.00,0.0648
1638.00,0.0653
1637.00,0.0658
1636.00,0.0664
1635.00,0.0670
1634.00,0.0675
1633.00,0.0680
1632.00,0.0685
1631.00,0.0691
1630.00,0.0697
1629.00,0.0703
1628.00,0.0710
1627.00,0.0718
1626.00,0.0725
1625.00,0.0731
1624.00,0.0738
1623.00,0.0744
1622.00,0.0749
1621.00,0.0753
1620.00,0.0756
1619.00,0.0759
1618.00,0.0758
1617.00,0.0751
1616.00,0.0739
1615.00,0.0727
1614.00,0.0714
1613.00,0.0699
1612.00,0.0683
1611.00,0.0664
1610.00,0.0644
1609.00,0.0622
1608.00,0.0600
1607.00,0.0579
1606.00,0.0560
1605.00,0.0541
1604.00,0.0522
1603.00,0.0505
1602.00,0.0488
1601.00,0.0473
1600.00,0.0459
1599.00,0.0446
1598.00,0.0434
1597.00,0.0423
1596.00,0.0413
1595.00,0.0403
1594.00,0.0394
1593.00,0.0386
1592.00,0.0378
1591.00,0.0370
1590.00,0.0364
1589.00,0.0358
1588.00,0.0353
1587.00,0.0348
1586.00,0.0344
1585.00,0.0341
1584.00,0.0338
1583.00,0.0335
1582.00,0.0333
1581.00,0.0332
1580.00,0.0332
1579.00,0.0333
1578.00,0.0335
1577.00,0.0338
1576.00,0.0340
1575.00,0.0341
1574.00,0.0341
1573.00,0.0343
1572.00,0.0345
1571.00,0.0349
1570.00,0.0354
1569.00,0.0361
1568.00,0.0366
1567.00,0.0372
1566.00,0.0378
1565.00,0.0384
1564.00,0.0392
1563.00,0.0400
1562.00,0.0408
1561.00,0.0416
1560.00,0.0424
1559.00,0.0435
1558.00,0.0448
1557.00,0.0457
1556.00,0.0464
1555.00,0.0471
1554.00,0.0480
1553.00,0.0488
1552.00,0.0496
1551.00,0.0503
1550.00,0.0512
1549.00,0.0521
1548.00,0.0529
1547.00,0.0536
1546.00,0.0543
1545.00,0.0550
1544.00,0.0558
1543.00,0.0565
1542.00,0.0572
1541.00,0.0580
1540.00,0.0589
1539.00,0.0597
1538.00,0.0602
1537.00,0.0605
1536.00,0.0608
1535.00,0.0612
1534.00,0.0617
1533.00,0.0624
1532.00,0.0630
1531.00,0.0635
1530.00,0.0640
1529.00,0.0645
1528.00,0.0650
1527.00,0.0655
1526.00,0.0660
1525.00,0.0664
1524.00,0.0669
1523.00,0.0673
1522.00,0.0678
1521.00,0.0683
1520.00,0.0685
1519.00,0.0687
1518.00,0.0688
1517.00,0.0689
1516.00,0.0689
1515.00,0.0688
1514.00,0.0686
1513.00,0.0682
1512.00,0.0676
1511.00,0.0669
1510.00,0.0664
1509.00,0.0658
1508.00,0.0648
1507.00,0.0632
1506.00,0.0616
1505.00,0.0603
1504.00,0.0592
1503.00,0.0582
1502.00,0.0573
1501.00,0.0562
1500.00,0.0551
1499.00,0.0539
1498.00,0.0528
1497.00,0.0515
1496.00,0.0501
1495.00,0.0487
1494.00,0.0476
1493.00,0.0465
1492.00,0.0454
1491.00,0.0442
1490.00,0.0429
1489.00,0.0416
1488.00,0.0405
1487.00,0.0396
1486.00,0.0389
1485.00,0.0382
1484.00,0.0375
1483.00,0.0369
1482.00,0.0363
1481.00,0.0358
1480.00,0.0353
1479.00,0.0349
1478.00,0.0346
1477.00,0.0343
1476.00,0.0341
1475.00,0.0340
1474.00,0.0340
1473.00,0.0340
1472.00,0.0341
1471.00,0.0342
1470.00,0.0343
1469.00,0.0343
1468.00,0.0343
1467.00,0.0343
1466.00,0.0343
1465.00,0.0343
1464.00,0.0344
1463.00,0.0345
1462.00,0.0347
1461.00,0.0350
1460.00,0.0353
1459.00,0.0358
1458.00,0.0364
1457.00,0.0371
1456.00,0.0376
1455.00,0.0378
1454.00,0.0378
1453.00,0.0379
1452.00,0.0380
1451.00,0.0380
1450.00,0.0380
1449.00,0.0379
1448.00,0.0377
1447.00,0.0375
1446.00,0.0373
1445.00,0.0371
1444.00,0.0368
1443.00,0.0364
1442.00,0.0360
1441.00,0.0357
1440.00,0.0353
1439.00,0.0350
1438.00,0.0347
1437.00,0.0343
1436.00,0.0338
1435.00,0.0334
1434.00,0.0330
1433.00,0.0327
1432.00,0.0324
1431.00,0.0321
1430.00,0.0319
1429.00,0.0318
1428.00,0.0317
1427.00,0.0316
1426.00,0.0316
1425.00,0.0316
1424.00,0.0316
1423.00,0.0317
1422.00,0.0319
1421.00,0.0321
1420.00,0.0322
1419.00,0.0324
1418.00,0.0326
1417.00,0.0327
1416.00,0.0328
1415.00,0.0330
1414.00,0.0332
1413.00,0.0334
1412.00,0.0335
1411.00,0.0337
1410.00,0.0339
1409.00,0.0341
1408.00,0.0342
1407.00,0.0343
1406.00,0.0344
1405.00,0.0345
1404.00,0.0346
1403.00,0.0346
1402.00,0.0347
1401.00,0.0346
1400.00,0.0346
1399.00,0.0346
1398.00,0.0346
1397.00,0.0345
1396.00,0.0345
1395.00,0.0345
1394.00,0.0345
1393.00,0.0345
1392.00,0.0345
1391.00,0.0345
1390.00,0.0345
1389.00,0.0345
1388.00,0.0345
1387.00,0.0344
1386.00,0.0343
1385.00,0.0342
1384.00,0.0340
1383.00,0.0339
1382.00,0.0337
1381.00,0.0336
1380.00,0.0334
1379.00,0.0332
1378.00,0.0331
1377.00,0.0329
1376.00,0.0328
1375.00,0.0326
1374.00,0.0326
1373.00,0.0325
1372.00,0.0325
1371.00,0.0324
1370.00,0.0323
1369.00,0.0322
1368.00,0.0320
1367.00,0.0317
1366.00,0.0315
1365.00,0.0313
1364.00,0.0310
1363.00,0.0307
1362.00,0.0305
1361.00,0.0303
1360.00,0.0301
1359.00,0.0300
1358.00,0.0298
1357.00,0.0297
1356.00,0.0296
1355.00,0.0295
1354.00,0.0294
1353.00,0.0293
1352.00,0.0292
1351.00,0.0292
1350.00,0.0292
1349.00,0.0292
1348.00,0.0292
1347.00,0.0292
1346.00,0.0292
1345.00,0.0292
1344.00,0.0292
1343.00,0.0292
1342.00,0.0293
1341.00,0.0293
1340.00,0.0293
1339.00,0.0293
1338.00,0.0294
1337.00,0.0294
1336.00,0.0293
1335.00,0.0293
1334.00,0.0293
1333.00,0.0292
1332.00,0.0292
1331.00,0.0292
1330.00,0.0291
1329.00,0.0291
1328.00,0.0291
1327.00,0.0291
1326.00,0.0291
1325.00,0.0291
1324.00,0.0291
1323.00,0.0292
1322.00,0.0292
1321.00,0.0292
1320.00,0.0292
1319.00,0.0293
1318.00,0.0293
1317.00,0.0294
1316.00,0.0294
1315.00,0.0294
1314.00,0.0294
1313.00,0.0294
1312.00,0.0294
1311.00,0.0294
1310.00,0.0294
1309.00,0.0294
1308.00,0.0293
1307.00,0.0293
1306.00,0.0293
1305.00,0.0292
1304.00,0.0292
1303.00,0.0291
1302.00,0.0291
1301.00,0.0290
1300.00,0.0290
1299.00,0.0289
1298.00,0.0289
1297.00,0.0289
1296.00,0.0288
1295.00,0.0288
1294.00,0.0288
1293.00,0.0288
1292.00,0.0288
1291.00,0.0288
1290.00,0.0288
1289.00,0.0288
1288.00,0.0288
1287.00,0.0288
1286.00,0.0288
1285.00,0.0288
1284.00,0.0288
1283.00,0.0288
1282.00,0.0288
1281.00,0.0287
1280.00,0.0287
1279.00,0.0287
1278.00,0.0286
1277.00,0.0286
1276.00,0.0286
1275.00,0.0286
1274.00,0.0286
1273.00,0.0287
1272.00,0.0287
1271.00,0.0287
1270.00,0.0288
1269.00,0.0289
1268.00,0.0290
1267.00,0.0291
1266.00,0.0292
1265.00,0.0293
1264.00,0.0295
1263.00,0.0297
1262.00,0.0299
1261.00,0.0301
1260.00,0.0303
1259.00,0.0306
1258.00,0.0309
1257.00,0.0311
1256.00,0.0314
1255.00,0.0317
1254.00,0.0320
1253.00,0.0322
1252.00,0.0325
1251.00,0.0327
1250.00,0.0330
1249.00,0.0332
1248.00,0.0334
1247.00,0.0336
1246.00,0.0338
1245.00,0.0340
1244.00,0.0341
1243.00,0.0342
1242.00,0.0344
1241.00,0.0345
1240.00,0.0345
1239.00,0.0346
1238.00,0.0346
1237.00,0.0347
1236.00,0.0347
1235.00,0.0347
1234.00,0.0347
1233.00,0.0346
1232.00,0.0346
1231.00,0.0345
1230.00,0.0345
1229.00,0.0344
1228.00,0.0343
1227.00,0.0342
1226.00,0.0341
1225.00,0.0339
1224.00,0.0337
1223.00,0.0335
1222.00,0.0333
1221.00,0.0331
1220.00,0.0329
1219.00,0.0327
1218.00,0.0324
1217.00,0.0322
1216.00,0.0319
1215.00,0.0316
1214.00,0.0313
1213.00,0.0310
1212.00,0.0307
1211.00,0.0304
1210.00,0.0302
1209.00,0.0299
1208.00,0.0295
1207.00,0.0292
1206.00,0.0289
1205.00,0.0286
1204.00,0.0283
1203.00,0.0280
1202.00,0.0277
1201.00,0.0275
1200.00,0.0272
1199.00,0.0269
1198.00,0.0267
1197.00,0.0265
1196.00,0.0263
1195.00,0.0262
1194.00,0.0260
1193.00,0.0259
1192.00,0.0257
1191.00,0.0256
1190.00,0.0255
1189.00,0.0254
1188.00,0.0253
1187.00,0.0252
1186.00,0.0251
1185.00,0.0251
1184.00,0.0251
1183.00,0.0251
1182.00,0.0251
1181.00,0.0252
1180.00,0.0252
1179.00,0.0253
1178.00,0.0255
1177.00,0.0257
1176.00,0.0259
1175.00,0.0262
1174.00,0.0265
1173.00,0.0268
1172.00,0.0270
1171.00,0.0273
1170.00,0.0275
1169.00,0.0277
1168.00,0.0278
1167.00,0.0280
1166.00,0.0281
1165.00,0.0283
1164.00,0.0283
1163.00,0.0284
1162.00,0.0285
1161.00,0.0285
1160.00,0.0285
1159.00,0.0285
1158.00,0.0285
1157.00,0.0284
1156.00,0.0283
1155.00,0.0281
1154.00,0.0280
1153.00,0.0279
1152.00,0.0277
1151.00,0.0275
1150.00,0.0274
1149.00,0.0272
1148.00,0.0270
1147.00,0.0268
1146.00,0.0266
1145.00,0.0265
1144.00,0.0263
1143.00,0.0261
1142.00,0.0260
1141.00,0.0259
1140.00,0.0258
1139.00,0.0257
1138.00,0.0257
1137.00,0.0256
1136.00,0.0256
1135.00,0.0255
1134.00,0.0255
1133.00,0.0255
1132.00,0.0255
1131.00,0.0255
1130.00,0.0255
1129.00,0.0255
1128.00,0.0254
1127.00,0.0254
1126.00,0.0254
1125.00,0.0254
1124.00,0.0253
1123.00,0.0253
1122.00,0.0253
1121.00,0.0252
1120.00,0.0251
1119.00,0.0251
1118.00,0.0251
1117.00,0.0251
1116.00,0.0250
1115.00,0.0250
1114.00,0.0251
1113.00,0.0251
1112.00,0.0251
1111.00,0.0252
1110.00,0.0252
1109.00,0.0253
1108.00,0.0253
1107.00,0.0254
1106.00,0.0255
1105.00,0.0256
1104.00,0.0256
1103.00,0.0257
1102.00,0.0258
1101.00,0.0259
1100.00,0.0259
1099.00,0.0260
1098.00,0.0261
1097.00,0.0262
1096.00,0.0264
1095.00,0.0265
1094.00,0.0268
1093.00,0.0270
1092.00,0.0272
1091.00,0.0275
1090.00,0.0279
1089.00,0.0282
1088.00,0.0286
1087.00,0.0289
1086.00,0.0294
1085.00,0.0299
1084.00,0.0303
1083.00,0.0307
1082.00,0.0312
1081.00,0.0317
1080.00,0.0321
1079.00,0.0325
1078.00,0.0329
1077.00,0.0333
1076.00,0.0337
1075.00,0.0340
1074.00,0.0343
1073.00,0.0346
1072.00,0.0348
1071.00,0.0350
1070.00,0.0352
1069.00,0.0353
1068.00,0.0354
1067.00,0.0355
1066.00,0.0356
1065.00,0.0357
1064.00,0.0357
1063.00,0.0357
1062.00,0.0357
1061.00,0.0356
1060.00,0.0355
1059.00,0.0353
1058.00,0.0352
1057.00,0.0351
1056.00,0.0349
1055.00,0.0347
1054.00,0.0346
1053.00,0.0345
1052.00,0.0343
1051.00,0.0341
1050.00,0.0339
1049.00,0.0338
1048.00,0.0335
1047.00,0.0333
1046.00,0.0331
1045.00,0.0329
1044.00,0.0325
1043.00,0.0322
1042.00,0.0319
1041.00,0.0316
1040.00,0.0313
1039.00,0.0310
1038.00,0.0308
1037.00,0.0305
1036.00,0.0303
1035.00,0.0300
1034.00,0.0299
1033.00,0.0297
1032.00,0.0294
1031.00,0.0291
1030.00,0.0288
1029.00,0.0285
1028.00,0.0282
1027.00,0.0278
1026.00,0.0275
1025.00,0.0272
1024.00,0.0268
1023.00,0.0264
1022.00,0.0262
1021.00,0.0259
1020.00,0.0256
1019.00,0.0253
1018.00,0.0251
1017.00,0.0248
1016.00,0.0245
1015.00,0.0243
1014.00,0.0241
1013.00,0.0239
1012.00,0.0236
1011.00,0.0234
1010.00,0.0232
1009.00,0.0230
1008.00,0.0228
1007.00,0.0226
1006.00,0.0225
1005.00,0.0223
1004.00,0.0222
1003.00,0.0220
1002.00,0.0219
1001.00,0.0218
1000.00,0.0216
999.00,0.0215
998.00,0.0213
997.00,0.0212
996.00,0.0211
995.00,0.0209
994.00,0.0209
993.00,0.0208
992.00,0.0206
991.00,0.0206
990.00,0.0205
989.00,0.0204
988.00,0.0203
987.00,0.0203
986.00,0.0203
985.00,0.0203
984.00,0.0202
983.00,0.0202
982.00,0.0201
981.00,0.0201
980.00,0.0200
979.00,0.0200
978.00,0.0200
977.00,0.0200
976.00,0.0200
975.00,0.0200
974.00,0.0201
973.00,0.0201
972.00,0.0201
971.00,0.0201
970.00,0.0202
969.00,0.0203
968.00,0.0204
967.00,0.0205
966.00,0.0206
965.00,0.0207
964.00,0.0208
963.00,0.0208
962.00,0.0208
961.00,0.0208
960.00,0.0207
959.00,0.0206
958.00,0.0205
957.00,0.0204
956.00,0.0202
955.00,0.0201
954.00,0.0200
953.00,0.0200
952.00,0.0199
951.00,0.0198
950.00,0.0198
949.00,0.0198
948.00,0.0198
947.00,0.0197
946.00,0.0197
945.00,0.0197
944.00,0.0197
943.00,0.0197
942.00,0.0197
941.00,0.0197
940.00,0.0196
939.00,0.0196
938.00,0.0196
937.00,0.0197
936.00,0.0196
935.00,0.0196
934.00,0.0196
933.00,0.0196
932.00,0.0195
931.00,0.0195
930.00,0.0194
929.00,0.0194
928.00,0.0193
927.00,0.0192
926.00,0.0192
925.00,0.0191
924.00,0.0189
923.00,0.0189
922.00,0.0188
921.00,0.0188
920.00,0.0186
919.00,0.0186
918.00,0.0185
917.00,0.0184
916.00,0.0184
915.00,0.0183
914.00,0.0184
913.00,0.0184
912.00,0.0184
911.00,0.0184
910.00,0.0185
909.00,0.0185
908.00,0.0185
907.00,0.0186
906.00,0.0186
905.00,0.0187
904.00,0.0187
903.00,0.0187
902.00,0.0188
901.00,0.0188
900.00,0.0187
899.00,0.0186
898.00,0.0186
897.00,0.0185
896.00,0.0184
895.00,0.0183
894.00,0.0183
893.00,0.0183
892.00,0.0181
891.00,0.0180
890.00,0.0179
889.00,0.0178
888.00,0.0177
887.00,0.0176
886.00,0.0176
885.00,0.0176
884.00,0.0175
883.00,0.0175
882.00,0.0175
881.00,0.0175
880.00,0.0175
879.00,0.0175
878.00,0.0175
877.00,0.0175
876.00,0.0174
875.00,0.0174
874.00,0.0174
873.00,0.0174
872.00,0.0173
871.00,0.0173
870.00,0.0173
869.00,0.0173
868.00,0.0172
867.00,0.0171
866.00,0.0171
865.00,0.0171
864.00,0.0170
863.00,0.0170
862.00,0.0170
861.00,0.0170
860.00,0.0170
859.00,0.0171
858.00,0.0171
857.00,0.0172
856.00,0.0172
855.00,0.0173
854.00,0.0174
853.00,0.0174
852.00,0.0175
851.00,0.0175
850.00,0.0175
849.00,0.0175
848.00,0.0175
847.00,0.0174
846.00,0.0175
845.00,0.0175
844.00,0.0175
843.00,0.0176
842.00,0.0177
841.00,0.0178
840.00,0.0178
839.00,0.0179
838.00,0.0180
837.00,0.0182
836.00,0.0183
835.00,0.0184
834.00,0.0186
833.00,0.0187
832.00,0.0188
831.00,0.0190
830.00,0.0192
829.00,0.0193
828.00,0.0194
827.00,0.0195
826.00,0.0197
825.00,0.0197
824.00,0.0198
823.00,0.0198
822.00,0.0200
821.00,0.0201
820.00,0.0201
819.00,0.0202
818.00,0.0204
817.00,0.0205
816.00,0.0205
815.00,0.0206
814.00,0.0208
813.00,0.0209
812.00,0.0210
811.00,0.0211
810.00,0.0213
809.00,0.0214
808.00,0.0214
807.00,0.0215
806.00,0.0216
805.00,0.0217
804.00,0.0217
803.00,0.0218
802.00,0.0220
801.00,0.0221
800.00,0.0222
799.00,0.0223
798.00,0.0224
797.00,0.0226
796.00,0.0226
795.00,0.0228
794.00,0.0230
793.00,0.0231
792.00,0.0233
791.00,0.0235
790.00,0.0237
789.00,0.0240
788.00,0.0241
787.00,0.0243
786.00,0.0245
785.00,0.0247
784.00,0.0249
783.00,0.0251
782.00,0.0253
781.00,0.0256
780.00,0.0257
779.00,0.0259
778.00,0.0261
777.00,0.0263
776.00,0.0264
775.00,0.0266
774.00,0.0268
773.00,0.0269
772.00,0.0270
771.00,0.0270
770.00,0.0272
769.00,0.0273
768.00,0.0274
767.00,0.0274
766.00,0.0276
765.00,0.0277
764.00,0.0277
763.00,0.0278
762.00,0.0279
761.00,0.0280
760.00,0.0281
759.00,0.0281
758.00,0.0283
757.00,0.0285
756.00,0.0286
755.00,0.0288
754.00,0.0290
753.00,0.0292
752.00,0.0294
751.00,0.0296
750.00,0.0299
749.00,0.0301
748.00,0.0302
747.00,0.0303
746.00,0.0305
745.00,0.0306
744.00,0.0307
743.00,0.0307
742.00,0.0309
741.00,0.0310
740.00,0.0310
739.00,0.0311
738.00,0.0313
737.00,0.0314
736.00,0.0316
735.00,0.0317
734.00,0.0320
733.00,0.0322
732.00,0.0324
731.00,0.0326
730.00,0.0330
729.00,0.0333
728.00,0.0337
727.00,0.0341
726.00,0.0346
725.00,0.0351
724.00,0.0355
723.00,0.0360
722.00,0.0365
721.00,0.0370
720.00,0.0374
719.00,0.0379
718.00,0.0385
717.00,0.0391
716.00,0.0396
715.00,0.0402
714.00,0.0408
713.00,0.0413
712.00,0.0418
711.00,0.0423
710.00,0.0429
709.00,0.0435
708.00,0.0440
707.00,0.0445
706.00,0.0452
705.00,0.0458
704.00,0.0463
703.00,0.0467
702.00,0.0472
701.00,0.0475
700.00,0.0478
699.00,0.0479
698.00,0.0481
697.00,0.0481
696.00,0.0480
695.00,0.0479
694.00,0.0479
693.00,0.0478
692.00,0.0478
691.00,0.0477
690.00,0.0478
689.00,0.0479
688.00,0.0479
687.00,0.0479
686.00,0.0480
685.00,0.0481
684.00,0.0481
683.00,0.0481
682.00,0.0482
681.00,0.0484
680.00,0.0484
679.00,0.0484
678.00,0.0485
677.00,0.0486
676.00,0.0485
675.00,0.0485
674.00,0.0486
673.00,0.0488
672.00,0.0488
671.00,0.0489
670.00,0.0490
669.00,0.0491
668.00,0.0491
667.00,0.0491
666.00,0.0492
665.00,0.0493
664.00,0.0492
663.00,0.0492
662.00,0.0493
661.00,0.0494
660.00,0.0495
659.00,0.0495
658.00,0.0496
657.00,0.0497
656.00,0.0497
655.00,0.0498
654.00,0.0500
653.00,0.0501
652.00,0.0501
651.00,0.0502
650.00,0.0504
649.00,0.0506
648.00,0.0507
647.00,0.0508
646.00,0.0510
645.00,0.0512
644.00,0.0513
643.00,0.0514
642.00,0.0516
641.00,0.0517
640.00,0.0518
639.00,0.0520
638.00,0.0522
637.00,0.0524
636.00,0.0525
635.00,0.0526
634.00,0.0528
633.00,0.0530
632.00,0.0530
631.00,0.0531
630.00,0.0533
629.00,0.0535
628.00,0.0535
627.00,0.0536
626.00,0.0537
625.00,0.0538
624.00,0.0537
623.00,0.0537
622.00,0.0538
621.00,0.0538
620.00,0.0538
619.00,0.0537
618.00,0.0537
617.00,0.0536
616.00,0.0535
615.00,0.0533
614.00,0.0533
613.00,0.0533
612.00,0.0531
611.00,0.0530
610.00,0.0530
609.00,0.0530
608.00,0.0529
607.00,0.0528
606.00,0.0529
605.00,0.0529
604.00,0.0528
603.00,0.0528
602.00,0.0529
601.00,0.0529
600.00,0.0528
599.00,0.0528
598.00,0.0528
597.00,0.0528
596.00,0.0527
595.00,0.0527
594.00,0.0529
593.00,0.0530
592.00,0.0530
591.00,0.0530
590.00,0.0532
589.00,0.0533
588.00,0.0532
587.00,0.0532
586.00,0.0533
585.00,0.0534
584.00,0.0534
583.00,0.0534
582.00,0.0535
581.00,0.0537
580.00,0.0537
579.00,0.0537
578.00,0.0538
577.00,0.0540
576.00,0.0540
575.00,0.0540
574.00,0.0542
573.00,0.0543
572.00,0.0542
571.00,0.0542
570.00,0.0543
569.00,0.0545
568.00,0.0544
567.00,0.0544
566.00,0.0545
565.00,0.0547
564.00,0.0547
563.00,0.0547
562.00,0.0549
561.00,0.0550
560.00,0.0550
559.00,0.0549
558.00,0.0551
557.00,0.0552
556.00,0.0551
555.00,0.0551
554.00,0.0553
553.00,0.0554
552.00,0.0554
551.00,0.0553
550.00,0.0555
549.00,0.0556
548.00,0.0555
547.00,0.0555
546.00,0.0556
545.00,0.0556
544.00,0.0555
543.00,0.0555
542.00,0.0556
541.00,0.0557
540.00,0.0556
539.00,0.0555
538.00,0.0556
537.00,0.0558
536.00,0.0557
535.00,0.0557
534.00,0.0559
533.00,0.0561
532.00,0.0561
531.00,0.0561
530.00,0.0563
529.00,0.0564
528.00,0.0563
527.00,0.0563
526.00,0.0565
525.00,0.0567
524.00,0.0567
523.00,0.0566
522.00,0.0567
521.00,0.0568
520.00,0.0567
519.00,0.0567
518.00,0.0569
517.00,0.0570
516.00,0.0567
515.00,0.0565
514.00,0.0566
513.00,0.0566
512.00,0.0564
511.00,0.0564
510.00,0.0565
509.00,0.0566
508.00,0.0563
507.00,0.0562
506.00,0.0563
505.00,0.0563
504.00,0.0561
503.00,0.0560
502.00,0.0561
501.00,0.0562
500.00,0.0560
499.00,0.0559
498.00,0.0561
497.00,0.0562
496.00,0.0560
495.00,0.0558
494.00,0.0559
493.00,0.0560
492.00,0.0557
491.00,0.0555
490.00,0.0555
489.00,0.0556
488.00,0.0554
487.00,0.0555
486.00,0.0558
485.00,0.0560
484.00,0.0558
483.00,0.0555
482.00,0.0556
481.00,0.0558
480.00,0.0556
479.00,0.0555
478.00,0.0558
477.00,0.0560
476.00,0.0558
475.00,0.0555
474.00,0.0556
473.00,0.0558
472.00,0.0556
471.00,0.0557
470.00,0.0561
469.00,0.0565
468.00,0.0563
467.00,0.0561
466.00,0.0563
465.00,0.0565
464.00,0.0563
463.00,0.0561
462.00,0.0564
461.00,0.0564
460.00,0.0559
459.00,0.0554
458.00,0.0555
457.00,0.0556
456.00,0.0553
455.00,0.0551
454.00,0.0554
453.00,0.0555
452.00,0.0551
451.00,0.0549
450.00,0.0551
449.00,0.0552
448.00,0.0547
447.00,0.0543
446.00,0.0544
445.00,0.0544
444.00,0.0539
443.00,0.0534
442.00,0.0533
441.00,0.0532
440.00,0.0526
439.00,0.0521
438.00,0.0522
437.00,0.0522
436.00,0.0516
435.00,0.0510
434.00,0.0512
433.00,0.0512
432.00,0.0507
431.00,0.0502
430.00,0.0503
429.00,0.0505
428.00,0.0500
427.00,0.0494
426.00,0.0495
425.00,0.0495
424.00,0.0490
423.00,0.0486
422.00,0.0491
421.00,0.0494
420.00,0.0487
419.00,0.0480
418.00,0.0485
417.00,0.0486
416.00,0.0475
415.00,0.0468
414.00,0.0473
413.00,0.0477
412.00,0.0470
411.00,0.0464
410.00,0.0469
409.00,0.0473
408.00,0.0467
407.00,0.0462
406.00,0.0467
405.00,0.0469
404.00,0.0458
403.00,0.0448
402.00,0.0452
401.00,0.0455
400.00,0.0438
