Created as New Dataset,Sample 336 By YargerLab Date Monday, August 19 2024
cm-1,A
4000.00,0.0115
3999.00,0.0115
3998.00,0.0115
3997.00,0.0115
3996.00,0.0115
3995.00,0.0115
3994.00,0.0115
3993.00,0.0115
3992.00,0.0115
3991.00,0.0115
3990.00,0.0115
3989.00,0.0115
3988.00,0.0115
3987.00,0.0115
3986.00,0.0115
3985.00,0.0115
3984.00,0.0115
3983.00,0.0115
3982.00,0.0115
3981.00,0.0115
3980.00,0.0115
3979.00,0.0115
3978.00,0.0115
3977.00,0.0115
3976.00,0.0115
3975.00,0.0115
3974.00,0.0115
3973.00,0.0115
3972.00,0.0115
3971.00,0.0115
3970.00,0.0115
3969.00,0.0115
3968.00,0.0115
3967.00,0.0115
3966.00,0.0115
3965.00,0.0115
3964.00,0.0115
3963.00,0.0115
3962.00,0.0115
3961.00,0.0115
3960.00,0.0115
3959.00,0.0115
3958.00,0.0115
3957.00,0.0115
3956.00,0.0115
3955.00,0.0115
3954.00,0.0115
3953.00,0.0115
3952.00,0.0115
3951.00,0.0115
3950.00,0.0115
3949.00,0.0115
3948.00,0.0115
3947.00,0.0115
3946.00,0.0115
3945.00,0.0115
3944.00,0.0115
3943.00,0.0115
3942.00,0.0115
3941.00,0.0115
3940.00,0.0115
3939.00,0.0115
3938.00,0.0115
3937.00,0.0115
3936.00,0.0115
3935.00,0.0115
3934.00,0.0115
3933.00,0.0115
3932.00,0.0115
3931.00,0.0115
3930.00,0.0115
3929.00,0.0115
3928.00,0.0115
3927.00,0.0114
3926.00,0.0115
3925.00,0.0115
3924.00,0.0115
3923.00,0.0115
3922.00,0.0115
3921.00,0.0116
3920.00,0.0116
3919.00,0.0116
3918.00,0.0116
3917.00,0.0115
3916.00,0.0115
3915.00,0.0115
3914.00,0.0114
3913.00,0.0114
3912.00,0.0114
3911.00,0.0114
3910.00,0.0114
3909.00,0.0114
3908.00,0.0114
3907.00,0.0114
3906.00,0.0115
3905.00,0.0115
3904.00,0.0115
3903.00,0.0116
3902.00,0.0116
3901.00,0.0115
3900.00,0.0115
3899.00,0.0115
3898.00,0.0115
3897.00,0.0115
3896.00,0.0115
3895.00,0.0115
3894.00,0.0114
3893.00,0.0114
3892.00,0.0114
3891.00,0.0114
3890.00,0.0114
3889.00,0.0114
3888.00,0.0114
3887.00,0.0114
3886.00,0.0114
3885.00,0.0114
3884.00,0.0114
3883.00,0.0114
3882.00,0.0115
3881.00,0.0115
3880.00,0.0114
3879.00,0.0114
3878.00,0.0114
3877.00,0.0114
3876.00,0.0114
3875.00,0.0114
3874.00,0.0114
3873.00,0.0114
3872.00,0.0114
3871.00,0.0114
3870.00,0.0114
3869.00,0.0114
3868.00,0.0114
3867.00,0.0114
3866.00,0.0114
3865.00,0.0114
3864.00,0.0114
3863.00,0.0114
3862.00,0.0114
3861.00,0.0114
3860.00,0.0114
3859.00,0.0114
3858.00,0.0114
3857.00,0.0113
3856.00,0.0113
3855.00,0.0113
3854.00,0.0113
3853.00,0.0113
3852.00,0.0113
3851.00,0.0113
3850.00,0.0113
3849.00,0.0113
3848.00,0.0114
3847.00,0.0114
3846.00,0.0114
3845.00,0.0114
3844.00,0.0114
3843.00,0.0114
3842.00,0.0113
3841.00,0.0113
3840.00,0.0113
3839.00,0.0113
3838.00,0.0113
3837.00,0.0113
3836.00,0.0113
3835.00,0.0113
3834.00,0.0113
3833.00,0.0113
3832.00,0.0113
3831.00,0.0113
3830.00,0.0113
3829.00,0.0113
3828.00,0.0113
3827.00,0.0113
3826.00,0.0113
3825.00,0.0113
3824.00,0.0113
3823.00,0.0113
3822.00,0.0113
3821.00,0.0113
3820.00,0.0113
3819.00,0.0113
3818.00,0.0113
3817.00,0.0112
3816.00,0.0112
3815.00,0.0112
3814.00,0.0112
3813.00,0.0112
3812.00,0.0112
3811.00,0.0112
3810.00,0.0112
3809.00,0.0112
3808.00,0.0112
3807.00,0.0112
3806.00,0.0112
3805.00,0.0112
3804.00,0.0112
3803.00,0.0112
3802.00,0.0112
3801.00,0.0112
3800.00,0.0112
3799.00,0.0112
3798.00,0.0112
3797.00,0.0112
3796.00,0.0112
3795.00,0.0112
3794.00,0.0112
3793.00,0.0112
3792.00,0.0111
3791.00,0.0111
3790.00,0.0111
3789.00,0.0111
3788.00,0.0111
3787.00,0.0111
3786.00,0.0111
3785.00,0.0111
3784.00,0.0111
3783.00,0.0111
3782.00,0.0111
3781.00,0.0111
3780.00,0.0111
3779.00,0.0111
3778.00,0.0111
3777.00,0.0111
3776.00,0.0111
3775.00,0.0111
3774.00,0.0111
3773.00,0.0111
3772.00,0.0111
3771.00,0.0111
3770.00,0.0111
3769.00,0.0111
3768.00,0.0111
3767.00,0.0111
3766.00,0.0111
3765.00,0.0111
3764.00,0.0111
3763.00,0.0111
3762.00,0.0111
3761.00,0.0111
3760.00,0.0111
3759.00,0.0111
3758.00,0.0111
3757.00,0.0111
3756.00,0.0111
3755.00,0.0111
3754.00,0.0111
3753.00,0.0111
3752.00,0.0111
3751.00,0.0111
3750.00,0.0112
3749.00,0.0111
3748.00,0.0111
3747.00,0.0111
3746.00,0.0111
3745.00,0.0111
3744.00,0.0111
3743.00,0.0111
3742.00,0.0111
3741.00,0.0111
3740.00,0.0111
3739.00,0.0111
3738.00,0.0111
3737.00,0.0111
3736.00,0.0111
3735.00,0.0110
3734.00,0.0110
3733.00,0.0110
3732.00,0.0110
3731.00,0.0110
3730.00,0.0109
3729.00,0.0109
3728.00,0.0109
3727.00,0.0109
3726.00,0.0109
3725.00,0.0109
3724.00,0.0109
3723.00,0.0109
3722.00,0.0109
3721.00,0.0109
3720.00,0.0108
3719.00,0.0108
3718.00,0.0108
3717.00,0.0108
3716.00,0.0108
3715.00,0.0108
3714.00,0.0108
3713.00,0.0108
3712.00,0.0108
3711.00,0.0108
3710.00,0.0108
3709.00,0.0108
3708.00,0.0107
3707.00,0.0107
3706.00,0.0107
3705.00,0.0107
3704.00,0.0107
3703.00,0.0107
3702.00,0.0107
3701.00,0.0106
3700.00,0.0106
3699.00,0.0106
3698.00,0.0106
3697.00,0.0106
3696.00,0.0107
3695.00,0.0107
3694.00,0.0107
3693.00,0.0107
3692.00,0.0107
3691.00,0.0107
3690.00,0.0107
3689.00,0.0107
3688.00,0.0107
3687.00,0.0107
3686.00,0.0107
3685.00,0.0107
3684.00,0.0107
3683.00,0.0107
3682.00,0.0107
3681.00,0.0107
3680.00,0.0107
3679.00,0.0107
3678.00,0.0107
3677.00,0.0108
3676.00,0.0108
3675.00,0.0108
3674.00,0.0108
3673.00,0.0108
3672.00,0.0108
3671.00,0.0108
3670.00,0.0108
3669.00,0.0108
3668.00,0.0108
3667.00,0.0108
3666.00,0.0108
3665.00,0.0108
3664.00,0.0108
3663.00,0.0109
3662.00,0.0109
3661.00,0.0109
3660.00,0.0109
3659.00,0.0109
3658.00,0.0110
3657.00,0.0110
3656.00,0.0110
3655.00,0.0110
3654.00,0.0111
3653.00,0.0111
3652.00,0.0111
3651.00,0.0112
3650.00,0.0112
3649.00,0.0113
3648.00,0.0113
3647.00,0.0113
3646.00,0.0113
3645.00,0.0113
3644.00,0.0113
3643.00,0.0113
3642.00,0.0113
3641.00,0.0113
3640.00,0.0114
3639.00,0.0114
3638.00,0.0114
3637.00,0.0114
3636.00,0.0115
3635.00,0.0115
3634.00,0.0116
3633.00,0.0116
3632.00,0.0117
3631.00,0.0117
3630.00,0.0117
3629.00,0.0118
3628.00,0.0118
3627.00,0.0118
3626.00,0.0118
3625.00,0.0119
3624.00,0.0119
3623.00,0.0119
3622.00,0.0120
3621.00,0.0120
3620.00,0.0120
3619.00,0.0121
3618.00,0.0121
3617.00,0.0122
3616.00,0.0123
3615.00,0.0123
3614.00,0.0123
3613.00,0.0124
3612.00,0.0124
3611.00,0.0125
3610.00,0.0125
3609.00,0.0125
3608.00,0.0125
3607.00,0.0125
3606.00,0.0126
3605.00,0.0126
3604.00,0.0127
3603.00,0.0127
3602.00,0.0127
3601.00,0.0128
3600.00,0.0128
3599.00,0.0129
3598.00,0.0129
3597.00,0.0129
3596.00,0.0130
3595.00,0.0130
3594.00,0.0130
3593.00,0.0131
3592.00,0.0131
3591.00,0.0132
3590.00,0.0132
3589.00,0.0133
3588.00,0.0133
3587.00,0.0134
3586.00,0.0134
3585.00,0.0135
3584.00,0.0135
3583.00,0.0135
3582.00,0.0136
3581.00,0.0136
3580.00,0.0137
3579.00,0.0137
3578.00,0.0137
3577.00,0.0138
3576.00,0.0138
3575.00,0.0139
3574.00,0.0139
3573.00,0.0140
3572.00,0.0140
3571.00,0.0141
3570.00,0.0142
3569.00,0.0143
3568.00,0.0143
3567.00,0.0144
3566.00,0.0144
3565.00,0.0145
3564.00,0.0145
3563.00,0.0146
3562.00,0.0146
3561.00,0.0147
3560.00,0.0147
3559.00,0.0148
3558.00,0.0148
3557.00,0.0149
3556.00,0.0149
3555.00,0.0150
3554.00,0.0150
3553.00,0.0151
3552.00,0.0151
3551.00,0.0152
3550.00,0.0153
3549.00,0.0154
3548.00,0.0154
3547.00,0.0155
3546.00,0.0156
3545.00,0.0156
3544.00,0.0156
3543.00,0.0157
3542.00,0.0157
3541.00,0.0158
3540.00,0.0158
3539.00,0.0158
3538.00,0.0159
3537.00,0.0159
3536.00,0.0160
3535.00,0.0160
3534.00,0.0161
3533.00,0.0162
3532.00,0.0162
3531.00,0.0163
3530.00,0.0163
3529.00,0.0164
3528.00,0.0165
3527.00,0.0165
3526.00,0.0166
3525.00,0.0166
3524.00,0.0167
3523.00,0.0167
3522.00,0.0168
3521.00,0.0168
3520.00,0.0169
3519.00,0.0169
3518.00,0.0170
3517.00,0.0170
3516.00,0.0171
3515.00,0.0171
3514.00,0.0172
3513.00,0.0172
3512.00,0.0173
3511.00,0.0174
3510.00,0.0174
3509.00,0.0175
3508.00,0.0175
3507.00,0.0176
3506.00,0.0177
3505.00,0.0177
3504.00,0.0178
3503.00,0.0179
3502.00,0.0179
3501.00,0.0180
3500.00,0.0180
3499.00,0.0180
3498.00,0.0181
3497.00,0.0182
3496.00,0.0182
3495.00,0.0183
3494.00,0.0183
3493.00,0.0184
3492.00,0.0185
3491.00,0.0185
3490.00,0.0186
3489.00,0.0186
3488.00,0.0187
3487.00,0.0188
3486.00,0.0188
3485.00,0.0189
3484.00,0.0190
3483.00,0.0190
3482.00,0.0191
3481.00,0.0192
3480.00,0.0192
3479.00,0.0193
3478.00,0.0193
3477.00,0.0194
3476.00,0.0195
3475.00,0.0195
3474.00,0.0196
3473.00,0.0197
3472.00,0.0197
3471.00,0.0198
3470.00,0.0199
3469.00,0.0200
3468.00,0.0200
3467.00,0.0201
3466.00,0.0201
3465.00,0.0202
3464.00,0.0203
3463.00,0.0203
3462.00,0.0204
3461.00,0.0205
3460.00,0.0205
3459.00,0.0206
3458.00,0.0207
3457.00,0.0207
3456.00,0.0208
3455.00,0.0209
3454.00,0.0209
3453.00,0.0210
3452.00,0.0210
3451.00,0.0211
3450.00,0.0212
3449.00,0.0213
3448.00,0.0213
3447.00,0.0214
3446.00,0.0215
3445.00,0.0215
3444.00,0.0216
3443.00,0.0216
3442.00,0.0217
3441.00,0.0218
3440.00,0.0219
3439.00,0.0220
3438.00,0.0220
3437.00,0.0221
3436.00,0.0222
3435.00,0.0222
3434.00,0.0223
3433.00,0.0224
3432.00,0.0224
3431.00,0.0225
3430.00,0.0225
3429.00,0.0226
3428.00,0.0226
3427.00,0.0227
3426.00,0.0228
3425.00,0.0228
3424.00,0.0229
3423.00,0.0230
3422.00,0.0230
3421.00,0.0231
3420.00,0.0232
3419.00,0.0232
3418.00,0.0233
3417.00,0.0234
3416.00,0.0234
3415.00,0.0235
3414.00,0.0235
3413.00,0.0236
3412.00,0.0237
3411.00,0.0237
3410.00,0.0238
3409.00,0.0238
3408.00,0.0239
3407.00,0.0239
3406.00,0.0240
3405.00,0.0241
3404.00,0.0241
3403.00,0.0242
3402.00,0.0242
3401.00,0.0243
3400.00,0.0243
3399.00,0.0244
3398.00,0.0245
3397.00,0.0245
3396.00,0.0246
3395.00,0.0247
3394.00,0.0247
3393.00,0.0247
3392.00,0.0248
3391.00,0.0248
3390.00,0.0249
3389.00,0.0250
3388.00,0.0250
3387.00,0.0251
3386.00,0.0252
3385.00,0.0252
3384.00,0.0253
3383.00,0.0254
3382.00,0.0254
3381.00,0.0255
3380.00,0.0256
3379.00,0.0256
3378.00,0.0257
3377.00,0.0258
3376.00,0.0258
3375.00,0.0259
3374.00,0.0260
3373.00,0.0260
3372.00,0.0261
3371.00,0.0262
3370.00,0.0263
3369.00,0.0264
3368.00,0.0265
3367.00,0.0266
3366.00,0.0267
3365.00,0.0267
3364.00,0.0268
3363.00,0.0269
3362.00,0.0270
3361.00,0.0271
3360.00,0.0272
3359.00,0.0273
3358.00,0.0274
3357.00,0.0275
3356.00,0.0276
3355.00,0.0276
3354.00,0.0277
3353.00,0.0278
3352.00,0.0279
3351.00,0.0280
3350.00,0.0281
3349.00,0.0282
3348.00,0.0284
3347.00,0.0285
3346.00,0.0286
3345.00,0.0287
3344.00,0.0288
3343.00,0.0289
3342.00,0.0290
3341.00,0.0291
3340.00,0.0292
3339.00,0.0294
3338.00,0.0295
3337.00,0.0296
3336.00,0.0298
3335.00,0.0299
3334.00,0.0300
3333.00,0.0302
3332.00,0.0303
3331.00,0.0305
3330.00,0.0306
3329.00,0.0308
3328.00,0.0309
3327.00,0.0311
3326.00,0.0312
3325.00,0.0314
3324.00,0.0315
3323.00,0.0317
3322.00,0.0319
3321.00,0.0321
3320.00,0.0322
3319.00,0.0324
3318.00,0.0326
3317.00,0.0328
3316.00,0.0330
3315.00,0.0332
3314.00,0.0334
3313.00,0.0336
3312.00,0.0337
3311.00,0.0339
3310.00,0.0341
3309.00,0.0342
3308.00,0.0344
3307.00,0.0346
3306.00,0.0348
3305.00,0.0351
3304.00,0.0354
3303.00,0.0356
3302.00,0.0359
3301.00,0.0361
3300.00,0.0363
3299.00,0.0365
3298.00,0.0367
3297.00,0.0369
3296.00,0.0372
3295.00,0.0374
3294.00,0.0376
3293.00,0.0378
3292.00,0.0380
3291.00,0.0383
3290.00,0.0385
3289.00,0.0387
3288.00,0.0390
3287.00,0.0392
3286.00,0.0394
3285.00,0.0395
3284.00,0.0397
3283.00,0.0399
3282.00,0.0400
3281.00,0.0402
3280.00,0.0403
3279.00,0.0404
3278.00,0.0405
3277.00,0.0406
3276.00,0.0406
3275.00,0.0407
3274.00,0.0407
3273.00,0.0406
3272.00,0.0406
3271.00,0.0406
3270.00,0.0406
3269.00,0.0406
3268.00,0.0406
3267.00,0.0405
3266.00,0.0404
3265.00,0.0403
3264.00,0.0402
3263.00,0.0401
3262.00,0.0400
3261.00,0.0399
3260.00,0.0397
3259.00,0.0395
3258.00,0.0394
3257.00,0.0392
3256.00,0.0390
3255.00,0.0389
3254.00,0.0388
3253.00,0.0386
3252.00,0.0385
3251.00,0.0383
3250.00,0.0381
3249.00,0.0379
3248.00,0.0377
3247.00,0.0376
3246.00,0.0375
3245.00,0.0374
3244.00,0.0372
3243.00,0.0371
3242.00,0.0370
3241.00,0.0368
3240.00,0.0367
3239.00,0.0366
3238.00,0.0364
3237.00,0.0363
3236.00,0.0361
3235.00,0.0360
3234.00,0.0358
3233.00,0.0358
3232.00,0.0357
3231.00,0.0356
3230.00,0.0356
3229.00,0.0355
3228.00,0.0354
3227.00,0.0353
3226.00,0.0352
3225.00,0.0351
3224.00,0.0350
3223.00,0.0349
3222.00,0.0349
3221.00,0.0348
3220.00,0.0347
3219.00,0.0346
3218.00,0.0346
3217.00,0.0345
3216.00,0.0344
3215.00,0.0343
3214.00,0.0342
3213.00,0.0342
3212.00,0.0341
3211.00,0.0341
3210.00,0.0340
3209.00,0.0339
3208.00,0.0339
3207.00,0.0338
3206.00,0.0337
3205.00,0.0337
3204.00,0.0336
3203.00,0.0335
3202.00,0.0335
3201.00,0.0334
3200.00,0.0334
3199.00,0.0333
3198.00,0.0332
3197.00,0.0332
3196.00,0.0331
3195.00,0.0330
3194.00,0.0329
3193.00,0.0329
3192.00,0.0328
3191.00,0.0327
3190.00,0.0326
3189.00,0.0326
3188.00,0.0325
3187.00,0.0324
3186.00,0.0323
3185.00,0.0322
3184.00,0.0321
3183.00,0.0321
3182.00,0.0320
3181.00,0.0319
3180.00,0.0318
3179.00,0.0317
3178.00,0.0316
3177.00,0.0315
3176.00,0.0315
3175.00,0.0314
3174.00,0.0313
3173.00,0.0312
3172.00,0.0311
3171.00,0.0310
3170.00,0.0309
3169.00,0.0308
3168.00,0.0307
3167.00,0.0306
3166.00,0.0306
3165.00,0.0305
3164.00,0.0304
3163.00,0.0303
3162.00,0.0302
3161.00,0.0301
3160.00,0.0300
3159.00,0.0299
3158.00,0.0298
3157.00,0.0298
3156.00,0.0297
3155.00,0.0296
3154.00,0.0295
3153.00,0.0294
3152.00,0.0293
3151.00,0.0292
3150.00,0.0292
3149.00,0.0291
3148.00,0.0291
3147.00,0.0290
3146.00,0.0289
3145.00,0.0288
3144.00,0.0288
3143.00,0.0287
3142.00,0.0286
3141.00,0.0285
3140.00,0.0284
3139.00,0.0284
3138.00,0.0283
3137.00,0.0283
3136.00,0.0282
3135.00,0.0281
3134.00,0.0281
3133.00,0.0280
3132.00,0.0280
3131.00,0.0279
3130.00,0.0279
3129.00,0.0278
3128.00,0.0278
3127.00,0.0277
3126.00,0.0277
3125.00,0.0277
3124.00,0.0276
3123.00,0.0276
3122.00,0.0275
3121.00,0.0274
3120.00,0.0274
3119.00,0.0274
3118.00,0.0273
3117.00,0.0273
3116.00,0.0273
3115.00,0.0273
3114.00,0.0273
3113.00,0.0273
3112.00,0.0273
3111.00,0.0273
3110.00,0.0273
3109.00,0.0273
3108.00,0.0273
3107.00,0.0273
3106.00,0.0273
3105.00,0.0274
3104.00,0.0274
3103.00,0.0274
3102.00,0.0274
3101.00,0.0274
3100.00,0.0274
3099.00,0.0274
3098.00,0.0275
3097.00,0.0275
3096.00,0.0275
3095.00,0.0276
3094.00,0.0276
3093.00,0.0276
3092.00,0.0276
3091.00,0.0276
3090.00,0.0276
3089.00,0.0277
3088.00,0.0277
3087.00,0.0277
3086.00,0.0277
3085.00,0.0277
3084.00,0.0278
3083.00,0.0278
3082.00,0.0278
3081.00,0.0278
3080.00,0.0278
3079.00,0.0278
3078.00,0.0279
3077.00,0.0279
3076.00,0.0280
3075.00,0.0280
3074.00,0.0280
3073.00,0.0280
3072.00,0.0280
3071.00,0.0280
3070.00,0.0280
3069.00,0.0280
3068.00,0.0280
3067.00,0.0280
3066.00,0.0280
3065.00,0.0280
3064.00,0.0280
3063.00,0.0280
3062.00,0.0280
3061.00,0.0280
3060.00,0.0279
3059.00,0.0279
3058.00,0.0278
3057.00,0.0277
3056.00,0.0277
3055.00,0.0276
3054.00,0.0276
3053.00,0.0275
3052.00,0.0274
3051.00,0.0274
3050.00,0.0273
3049.00,0.0273
3048.00,0.0272
3047.00,0.0271
3046.00,0.0270
3045.00,0.0269
3044.00,0.0268
3043.00,0.0268
3042.00,0.0267
3041.00,0.0267
3040.00,0.0267
3039.00,0.0267
3038.00,0.0266
3037.00,0.0265
3036.00,0.0264
3035.00,0.0263
3034.00,0.0263
3033.00,0.0262
3032.00,0.0262
3031.00,0.0261
3030.00,0.0261
3029.00,0.0261
3028.00,0.0260
3027.00,0.0259
3026.00,0.0258
3025.00,0.0257
3024.00,0.0257
3023.00,0.0256
3022.00,0.0255
3021.00,0.0254
3020.00,0.0253
3019.00,0.0253
3018.00,0.0252
3017.00,0.0251
3016.00,0.0250
3015.00,0.0249
3014.00,0.0249
3013.00,0.0248
3012.00,0.0248
3011.00,0.0248
3010.00,0.0248
3009.00,0.0248
3008.00,0.0247
3007.00,0.0247
3006.00,0.0247
3005.00,0.0247
3004.00,0.0246
3003.00,0.0246
3002.00,0.0246
3001.00,0.0246
3000.00,0.0246
2999.00,0.0245
2998.00,0.0245
2997.00,0.0245
2996.00,0.0246
2995.00,0.0246
2994.00,0.0246
2993.00,0.0246
2992.00,0.0247
2991.00,0.0248
2990.00,0.0248
2989.00,0.0249
2988.00,0.0250
2987.00,0.0251
2986.00,0.0251
2985.00,0.0252
2984.00,0.0253
2983.00,0.0254
2982.00,0.0254
2981.00,0.0255
2980.00,0.0256
2979.00,0.0257
2978.00,0.0258
2977.00,0.0259
2976.00,0.0260
2975.00,0.0261
2974.00,0.0262
2973.00,0.0263
2972.00,0.0264
2971.00,0.0265
2970.00,0.0266
2969.00,0.0267
2968.00,0.0267
2967.00,0.0268
2966.00,0.0268
2965.00,0.0268
2964.00,0.0268
2963.00,0.0268
2962.00,0.0268
2961.00,0.0268
2960.00,0.0268
2959.00,0.0268
2958.00,0.0268
2957.00,0.0268
2956.00,0.0268
2955.00,0.0267
2954.00,0.0267
2953.00,0.0267
2952.00,0.0267
2951.00,0.0267
2950.00,0.0267
2949.00,0.0267
2948.00,0.0268
2947.00,0.0268
2946.00,0.0268
2945.00,0.0269
2944.00,0.0270
2943.00,0.0271
2942.00,0.0272
2941.00,0.0273
2940.00,0.0274
2939.00,0.0274
2938.00,0.0275
2937.00,0.0276
2936.00,0.0277
2935.00,0.0277
2934.00,0.0278
2933.00,0.0278
2932.00,0.0277
2931.00,0.0277
2930.00,0.0276
2929.00,0.0275
2928.00,0.0274
2927.00,0.0272
2926.00,0.0270
2925.00,0.0267
2924.00,0.0263
2923.00,0.0259
2922.00,0.0255
2921.00,0.0249
2920.00,0.0244
2919.00,0.0238
2918.00,0.0233
2917.00,0.0229
2916.00,0.0228
2915.00,0.0229
2914.00,0.0233
2913.00,0.0237
2912.00,0.0242
2911.00,0.0246
2910.00,0.0248
2909.00,0.0250
2908.00,0.0251
2907.00,0.0252
2906.00,0.0252
2905.00,0.0252
2904.00,0.0251
2903.00,0.0251
2902.00,0.0251
2901.00,0.0250
2900.00,0.0250
2899.00,0.0249
2898.00,0.0249
2897.00,0.0249
2896.00,0.0248
2895.00,0.0248
2894.00,0.0248
2893.00,0.0248
2892.00,0.0248
2891.00,0.0247
2890.00,0.0247
2889.00,0.0247
2888.00,0.0247
2887.00,0.0247
2886.00,0.0248
2885.00,0.0248
2884.00,0.0248
2883.00,0.0249
2882.00,0.0249
2881.00,0.0250
2880.00,0.0250
2879.00,0.0251
2878.00,0.0251
2877.00,0.0252
2876.00,0.0252
2875.00,0.0252
2874.00,0.0252
2873.00,0.0252
2872.00,0.0252
2871.00,0.0252
2870.00,0.0251
2869.00,0.0250
2868.00,0.0250
2867.00,0.0249
2866.00,0.0248
2865.00,0.0247
2864.00,0.0246
2863.00,0.0245
2862.00,0.0244
2861.00,0.0243
2860.00,0.0243
2859.00,0.0242
2858.00,0.0241
2857.00,0.0240
2856.00,0.0238
2855.00,0.0236
2854.00,0.0233
2853.00,0.0229
2852.00,0.0224
2851.00,0.0218
2850.00,0.0214
2849.00,0.0212
2848.00,0.0212
2847.00,0.0215
2846.00,0.0219
2845.00,0.0223
2844.00,0.0226
2843.00,0.0228
2842.00,0.0229
2841.00,0.0229
2840.00,0.0229
2839.00,0.0229
2838.00,0.0229
2837.00,0.0229
2836.00,0.0229
2835.00,0.0228
2834.00,0.0228
2833.00,0.0228
2832.00,0.0227
2831.00,0.0227
2830.00,0.0226
2829.00,0.0226
2828.00,0.0226
2827.00,0.0225
2826.00,0.0225
2825.00,0.0225
2824.00,0.0224
2823.00,0.0224
2822.00,0.0224
2821.00,0.0224
2820.00,0.0223
2819.00,0.0223
2818.00,0.0223
2817.00,0.0222
2816.00,0.0222
2815.00,0.0222
2814.00,0.0222
2813.00,0.0221
2812.00,0.0221
2811.00,0.0221
2810.00,0.0220
2809.00,0.0220
2808.00,0.0220
2807.00,0.0220
2806.00,0.0219
2805.00,0.0219
2804.00,0.0219
2803.00,0.0219
2802.00,0.0218
2801.00,0.0218
2800.00,0.0218
2799.00,0.0217
2798.00,0.0217
2797.00,0.0217
2796.00,0.0217
2795.00,0.0216
2794.00,0.0216
2793.00,0.0216
2792.00,0.0216
2791.00,0.0215
2790.00,0.0215
2789.00,0.0215
2788.00,0.0215
2787.00,0.0215
2786.00,0.0214
2785.00,0.0214
2784.00,0.0214
2783.00,0.0214
2782.00,0.0214
2781.00,0.0213
2780.00,0.0213
2779.00,0.0213
2778.00,0.0213
2777.00,0.0212
2776.00,0.0212
2775.00,0.0212
2774.00,0.0212
2773.00,0.0211
2772.00,0.0211
2771.00,0.0211
2770.00,0.0211
2769.00,0.0211
2768.00,0.0211
2767.00,0.0210
2766.00,0.0210
2765.00,0.0210
2764.00,0.0210
2763.00,0.0209
2762.00,0.0209
2761.00,0.0209
2760.00,0.0209
2759.00,0.0209
2758.00,0.0208
2757.00,0.0208
2756.00,0.0208
2755.00,0.0208
2754.00,0.0207
2753.00,0.0207
2752.00,0.0207
2751.00,0.0207
2750.00,0.0206
2749.00,0.0206
2748.00,0.0206
2747.00,0.0206
2746.00,0.0206
2745.00,0.0206
2744.00,0.0205
2743.00,0.0205
2742.00,0.0205
2741.00,0.0205
2740.00,0.0205
2739.00,0.0205
2738.00,0.0204
2737.00,0.0204
2736.00,0.0204
2735.00,0.0203
2734.00,0.0203
2733.00,0.0203
2732.00,0.0203
2731.00,0.0202
2730.00,0.0202
2729.00,0.0202
2728.00,0.0202
2727.00,0.0201
2726.00,0.0201
2725.00,0.0201
2724.00,0.0201
2723.00,0.0200
2722.00,0.0200
2721.00,0.0200
2720.00,0.0200
2719.00,0.0200
2718.00,0.0200
2717.00,0.0199
2716.00,0.0199
2715.00,0.0199
2714.00,0.0198
2713.00,0.0198
2712.00,0.0198
2711.00,0.0198
2710.00,0.0197
2709.00,0.0197
2708.00,0.0197
2707.00,0.0197
2706.00,0.0197
2705.00,0.0196
2704.00,0.0196
2703.00,0.0196
2702.00,0.0196
2701.00,0.0195
2700.00,0.0195
2699.00,0.0195
2698.00,0.0195
2697.00,0.0195
2696.00,0.0194
2695.00,0.0194
2694.00,0.0194
2693.00,0.0194
2692.00,0.0194
2691.00,0.0194
2690.00,0.0194
2689.00,0.0194
2688.00,0.0193
2687.00,0.0193
2686.00,0.0193
2685.00,0.0193
2684.00,0.0193
2683.00,0.0193
2682.00,0.0193
2681.00,0.0192
2680.00,0.0192
2679.00,0.0192
2678.00,0.0192
2677.00,0.0192
2676.00,0.0192
2675.00,0.0192
2674.00,0.0192
2673.00,0.0192
2672.00,0.0192
2671.00,0.0192
2670.00,0.0191
2669.00,0.0191
2668.00,0.0191
2667.00,0.0192
2666.00,0.0192
2665.00,0.0192
2664.00,0.0193
2663.00,0.0193
2662.00,0.0193
2661.00,0.0193
2660.00,0.0193
2659.00,0.0193
2658.00,0.0194
2657.00,0.0194
2656.00,0.0194
2655.00,0.0193
2654.00,0.0193
2653.00,0.0193
2652.00,0.0193
2651.00,0.0193
2650.00,0.0193
2649.00,0.0193
2648.00,0.0193
2647.00,0.0193
2646.00,0.0193
2645.00,0.0192
2644.00,0.0192
2643.00,0.0192
2642.00,0.0192
2641.00,0.0192
2640.00,0.0191
2639.00,0.0191
2638.00,0.0191
2637.00,0.0191
2636.00,0.0191
2635.00,0.0191
2634.00,0.0191
2633.00,0.0190
2632.00,0.0190
2631.00,0.0190
2630.00,0.0190
2629.00,0.0190
2628.00,0.0189
2627.00,0.0189
2626.00,0.0189
2625.00,0.0189
2624.00,0.0189
2623.00,0.0188
2622.00,0.0188
2621.00,0.0188
2620.00,0.0188
2619.00,0.0188
2618.00,0.0187
2617.00,0.0187
2616.00,0.0187
2615.00,0.0187
2614.00,0.0187
2613.00,0.0187
2612.00,0.0187
2611.00,0.0186
2610.00,0.0186
2609.00,0.0186
2608.00,0.0186
2607.00,0.0186
2606.00,0.0185
2605.00,0.0185
2604.00,0.0185
2603.00,0.0185
2602.00,0.0185
2601.00,0.0184
2600.00,0.0184
2599.00,0.0184
2598.00,0.0184
2597.00,0.0184
2596.00,0.0184
2595.00,0.0183
2594.00,0.0183
2593.00,0.0183
2592.00,0.0183
2591.00,0.0182
2590.00,0.0182
2589.00,0.0182
2588.00,0.0182
2587.00,0.0182
2586.00,0.0181
2585.00,0.0181
2584.00,0.0181
2583.00,0.0181
2582.00,0.0181
2581.00,0.0180
2580.00,0.0180
2579.00,0.0180
2578.00,0.0180
2577.00,0.0179
2576.00,0.0179
2575.00,0.0179
2574.00,0.0179
2573.00,0.0179
2572.00,0.0179
2571.00,0.0178
2570.00,0.0178
2569.00,0.0178
2568.00,0.0178
2567.00,0.0178
2566.00,0.0178
2565.00,0.0178
2564.00,0.0177
2563.00,0.0177
2562.00,0.0177
2561.00,0.0177
2560.00,0.0177
2559.00,0.0177
2558.00,0.0177
2557.00,0.0177
2556.00,0.0177
2555.00,0.0177
2554.00,0.0177
2553.00,0.0176
2552.00,0.0176
2551.00,0.0176
2550.00,0.0175
2549.00,0.0175
2548.00,0.0175
2547.00,0.0176
2546.00,0.0176
2545.00,0.0176
2544.00,0.0176
2543.00,0.0175
2542.00,0.0175
2541.00,0.0175
2540.00,0.0175
2539.00,0.0174
2538.00,0.0174
2537.00,0.0174
2536.00,0.0174
2535.00,0.0174
2534.00,0.0174
2533.00,0.0174
2532.00,0.0173
2531.00,0.0173
2530.00,0.0173
2529.00,0.0173
2528.00,0.0173
2527.00,0.0173
2526.00,0.0173
2525.00,0.0173
2524.00,0.0173
2523.00,0.0173
2522.00,0.0173
2521.00,0.0173
2520.00,0.0173
2519.00,0.0173
2518.00,0.0172
2517.00,0.0172
2516.00,0.0172
2515.00,0.0172
2514.00,0.0172
2513.00,0.0172
2512.00,0.0172
2511.00,0.0171
2510.00,0.0171
2509.00,0.0171
2508.00,0.0171
2507.00,0.0171
2506.00,0.0171
2505.00,0.0171
2504.00,0.0171
2503.00,0.0171
2502.00,0.0171
2501.00,0.0171
2500.00,0.0171
2499.00,0.0171
2498.00,0.0171
2497.00,0.0170
2496.00,0.0170
2495.00,0.0170
2494.00,0.0170
2493.00,0.0170
2492.00,0.0170
2491.00,0.0170
2490.00,0.0170
2489.00,0.0170
2488.00,0.0169
2487.00,0.0169
2486.00,0.0169
2485.00,0.0169
2484.00,0.0169
2483.00,0.0169
2482.00,0.0169
2481.00,0.0169
2480.00,0.0169
2479.00,0.0168
2478.00,0.0168
2477.00,0.0168
2476.00,0.0168
2475.00,0.0168
2474.00,0.0168
2473.00,0.0168
2472.00,0.0167
2471.00,0.0167
2470.00,0.0167
2469.00,0.0168
2468.00,0.0168
2467.00,0.0168
2466.00,0.0168
2465.00,0.0168
2464.00,0.0168
2463.00,0.0168
2462.00,0.0168
2461.00,0.0168
2460.00,0.0168
2459.00,0.0168
2458.00,0.0168
2457.00,0.0168
2456.00,0.0167
2455.00,0.0167
2454.00,0.0167
2453.00,0.0167
2452.00,0.0167
2451.00,0.0167
2450.00,0.0166
2449.00,0.0166
2448.00,0.0166
2447.00,0.0165
2446.00,0.0165
2445.00,0.0165
2444.00,0.0165
2443.00,0.0165
2442.00,0.0165
2441.00,0.0165
2440.00,0.0165
2439.00,0.0164
2438.00,0.0164
2437.00,0.0164
2436.00,0.0164
2435.00,0.0164
2434.00,0.0163
2433.00,0.0163
2432.00,0.0163
2431.00,0.0163
2430.00,0.0163
2429.00,0.0163
2428.00,0.0162
2427.00,0.0162
2426.00,0.0162
2425.00,0.0162
2424.00,0.0162
2423.00,0.0162
2422.00,0.0162
2421.00,0.0161
2420.00,0.0161
2419.00,0.0161
2418.00,0.0161
2417.00,0.0161
2416.00,0.0161
2415.00,0.0161
2414.00,0.0161
2413.00,0.0161
2412.00,0.0161
2411.00,0.0161
2410.00,0.0161
2409.00,0.0160
2408.00,0.0160
2407.00,0.0159
2406.00,0.0159
2405.00,0.0158
2404.00,0.0158
2403.00,0.0158
2402.00,0.0158
2401.00,0.0158
2400.00,0.0158
2399.00,0.0158
2398.00,0.0158
2397.00,0.0158
2396.00,0.0158
2395.00,0.0158
2394.00,0.0157
2393.00,0.0157
2392.00,0.0157
2391.00,0.0157
2390.00,0.0157
2389.00,0.0157
2388.00,0.0157
2387.00,0.0156
2386.00,0.0156
2385.00,0.0156
2384.00,0.0156
2383.00,0.0155
2382.00,0.0155
2381.00,0.0154
2380.00,0.0154
2379.00,0.0154
2378.00,0.0154
2377.00,0.0154
2376.00,0.0154
2375.00,0.0154
2374.00,0.0154
2373.00,0.0154
2372.00,0.0154
2371.00,0.0154
2370.00,0.0153
2369.00,0.0153
2368.00,0.0153
2367.00,0.0153
2366.00,0.0153
2365.00,0.0153
2364.00,0.0153
2363.00,0.0153
2362.00,0.0154
2361.00,0.0153
2360.00,0.0153
2359.00,0.0153
2358.00,0.0153
2357.00,0.0153
2356.00,0.0153
2355.00,0.0153
2354.00,0.0153
2353.00,0.0153
2352.00,0.0153
2351.00,0.0153
2350.00,0.0153
2349.00,0.0154
2348.00,0.0154
2347.00,0.0155
2346.00,0.0155
2345.00,0.0155
2344.00,0.0155
2343.00,0.0155
2342.00,0.0155
2341.00,0.0155
2340.00,0.0156
2339.00,0.0156
2338.00,0.0155
2337.00,0.0155
2336.00,0.0155
2335.00,0.0155
2334.00,0.0155
2333.00,0.0155
2332.00,0.0154
2331.00,0.0154
2330.00,0.0155
2329.00,0.0156
2328.00,0.0159
2327.00,0.0163
2326.00,0.0166
2325.00,0.0167
2324.00,0.0166
2323.00,0.0164
2322.00,0.0163
2321.00,0.0161
2320.00,0.0160
2319.00,0.0160
2318.00,0.0159
2317.00,0.0159
2316.00,0.0158
2315.00,0.0158
2314.00,0.0157
2313.00,0.0157
2312.00,0.0157
2311.00,0.0156
2310.00,0.0156
2309.00,0.0156
2308.00,0.0156
2307.00,0.0156
2306.00,0.0156
2305.00,0.0157
2304.00,0.0157
2303.00,0.0157
2302.00,0.0157
2301.00,0.0157
2300.00,0.0157
2299.00,0.0157
2298.00,0.0157
2297.00,0.0158
2296.00,0.0158
2295.00,0.0159
2294.00,0.0159
2293.00,0.0160
2292.00,0.0160
2291.00,0.0161
2290.00,0.0161
2289.00,0.0161
2288.00,0.0162
2287.00,0.0162
2286.00,0.0161
2285.00,0.0161
2284.00,0.0160
2283.00,0.0159
2282.00,0.0158
2281.00,0.0158
2280.00,0.0158
2279.00,0.0157
2278.00,0.0157
2277.00,0.0157
2276.00,0.0156
2275.00,0.0156
2274.00,0.0155
2273.00,0.0155
2272.00,0.0155
2271.00,0.0155
2270.00,0.0155
2269.00,0.0154
2268.00,0.0154
2267.00,0.0154
2266.00,0.0153
2265.00,0.0153
2264.00,0.0153
2263.00,0.0153
2262.00,0.0153
2261.00,0.0153
2260.00,0.0153
2259.00,0.0153
2258.00,0.0153
2257.00,0.0152
2256.00,0.0150
2255.00,0.0150
2254.00,0.0149
2253.00,0.0150
2252.00,0.0150
2251.00,0.0150
2250.00,0.0151
2249.00,0.0151
2248.00,0.0151
2247.00,0.0151
2246.00,0.0151
2245.00,0.0150
2244.00,0.0150
2243.00,0.0150
2242.00,0.0150
2241.00,0.0150
2240.00,0.0150
2239.00,0.0150
2238.00,0.0150
2237.00,0.0150
2236.00,0.0150
2235.00,0.0151
2234.00,0.0150
2233.00,0.0150
2232.00,0.0150
2231.00,0.0150
2230.00,0.0150
2229.00,0.0150
2228.00,0.0150
2227.00,0.0149
2226.00,0.0149
2225.00,0.0149
2224.00,0.0149
2223.00,0.0149
2222.00,0.0148
2221.00,0.0148
2220.00,0.0147
2219.00,0.0147
2218.00,0.0147
2217.00,0.0148
2216.00,0.0148
2215.00,0.0148
2214.00,0.0148
2213.00,0.0148
2212.00,0.0148
2211.00,0.0148
2210.00,0.0148
2209.00,0.0148
2208.00,0.0147
2207.00,0.0147
2206.00,0.0147
2205.00,0.0148
2204.00,0.0148
2203.00,0.0148
2202.00,0.0147
2201.00,0.0147
2200.00,0.0148
2199.00,0.0148
2198.00,0.0148
2197.00,0.0148
2196.00,0.0148
2195.00,0.0148
2194.00,0.0148
2193.00,0.0149
2192.00,0.0149
2191.00,0.0149
2190.00,0.0148
2189.00,0.0148
2188.00,0.0149
2187.00,0.0149
2186.00,0.0148
2185.00,0.0147
2184.00,0.0145
2183.00,0.0143
2182.00,0.0142
2181.00,0.0143
2180.00,0.0143
2179.00,0.0143
2178.00,0.0143
2177.00,0.0142
2176.00,0.0141
2175.00,0.0141
2174.00,0.0142
2173.00,0.0143
2172.00,0.0145
2171.00,0.0147
2170.00,0.0149
2169.00,0.0150
2168.00,0.0152
2167.00,0.0152
2166.00,0.0153
2165.00,0.0154
2164.00,0.0156
2163.00,0.0156
2162.00,0.0151
2161.00,0.0141
2160.00,0.0128
2159.00,0.0118
2158.00,0.0113
2157.00,0.0113
2156.00,0.0116
2155.00,0.0118
2154.00,0.0120
2153.00,0.0122
2152.00,0.0124
2151.00,0.0126
2150.00,0.0126
2149.00,0.0127
2148.00,0.0127
2147.00,0.0127
2146.00,0.0127
2145.00,0.0128
2144.00,0.0128
2143.00,0.0128
2142.00,0.0129
2141.00,0.0129
2140.00,0.0130
2139.00,0.0129
2138.00,0.0128
2137.00,0.0127
2136.00,0.0125
2135.00,0.0123
2134.00,0.0123
2133.00,0.0123
2132.00,0.0125
2131.00,0.0126
2130.00,0.0128
2129.00,0.0129
2128.00,0.0130
2127.00,0.0131
2126.00,0.0132
2125.00,0.0133
2124.00,0.0134
2123.00,0.0135
2122.00,0.0136
2121.00,0.0137
2120.00,0.0138
2119.00,0.0138
2118.00,0.0139
2117.00,0.0140
2116.00,0.0140
2115.00,0.0140
2114.00,0.0140
2113.00,0.0140
2112.00,0.0140
2111.00,0.0140
2110.00,0.0141
2109.00,0.0141
2108.00,0.0141
2107.00,0.0141
2106.00,0.0141
2105.00,0.0141
2104.00,0.0141
2103.00,0.0141
2102.00,0.0140
2101.00,0.0140
2100.00,0.0140
2099.00,0.0139
2098.00,0.0138
2097.00,0.0137
2096.00,0.0136
2095.00,0.0135
2094.00,0.0136
2093.00,0.0136
2092.00,0.0137
2091.00,0.0138
2090.00,0.0138
2089.00,0.0139
2088.00,0.0139
2087.00,0.0140
2086.00,0.0141
2085.00,0.0141
2084.00,0.0141
2083.00,0.0141
2082.00,0.0140
2081.00,0.0140
2080.00,0.0140
2079.00,0.0140
2078.00,0.0140
2077.00,0.0141
2076.00,0.0140
2075.00,0.0140
2074.00,0.0139
2073.00,0.0139
2072.00,0.0139
2071.00,0.0138
2070.00,0.0138
2069.00,0.0138
2068.00,0.0138
2067.00,0.0138
2066.00,0.0137
2065.00,0.0137
2064.00,0.0137
2063.00,0.0137
2062.00,0.0137
2061.00,0.0137
2060.00,0.0137
2059.00,0.0138
2058.00,0.0138
2057.00,0.0138
2056.00,0.0137
2055.00,0.0137
2054.00,0.0139
2053.00,0.0142
2052.00,0.0145
2051.00,0.0145
2050.00,0.0143
2049.00,0.0140
2048.00,0.0138
2047.00,0.0137
2046.00,0.0136
2045.00,0.0136
2044.00,0.0136
2043.00,0.0137
2042.00,0.0137
2041.00,0.0138
2040.00,0.0138
2039.00,0.0137
2038.00,0.0136
2037.00,0.0136
2036.00,0.0135
2035.00,0.0133
2034.00,0.0131
2033.00,0.0129
2032.00,0.0128
2031.00,0.0126
2030.00,0.0126
2029.00,0.0125
2028.00,0.0126
2027.00,0.0126
2026.00,0.0125
2025.00,0.0125
2024.00,0.0125
2023.00,0.0125
2022.00,0.0126
2021.00,0.0126
2020.00,0.0126
2019.00,0.0125
2018.00,0.0124
2017.00,0.0124
2016.00,0.0125
2015.00,0.0125
2014.00,0.0125
2013.00,0.0126
2012.00,0.0126
2011.00,0.0126
2010.00,0.0126
2009.00,0.0124
2008.00,0.0122
2007.00,0.0120
2006.00,0.0119
2005.00,0.0119
2004.00,0.0120
2003.00,0.0121
2002.00,0.0122
2001.00,0.0123
2000.00,0.0124
1999.00,0.0125
1998.00,0.0126
1997.00,0.0126
1996.00,0.0127
1995.00,0.0127
1994.00,0.0126
1993.00,0.0126
1992.00,0.0127
1991.00,0.0127
1990.00,0.0128
1989.00,0.0129
1988.00,0.0130
1987.00,0.0130
1986.00,0.0131
1985.00,0.0132
1984.00,0.0133
1983.00,0.0135
1982.00,0.0136
1981.00,0.0137
1980.00,0.0135
1979.00,0.0130
1978.00,0.0123
1977.00,0.0119
1976.00,0.0117
1975.00,0.0116
1974.00,0.0115
1973.00,0.0116
1972.00,0.0117
1971.00,0.0117
1970.00,0.0118
1969.00,0.0118
1968.00,0.0117
1967.00,0.0117
1966.00,0.0116
1965.00,0.0117
1964.00,0.0117
1963.00,0.0117
1962.00,0.0116
1961.00,0.0115
1960.00,0.0114
1959.00,0.0113
1958.00,0.0113
1957.00,0.0114
1956.00,0.0115
1955.00,0.0116
1954.00,0.0116
1953.00,0.0116
1952.00,0.0116
1951.00,0.0117
1950.00,0.0117
1949.00,0.0117
1948.00,0.0117
1947.00,0.0117
1946.00,0.0116
1945.00,0.0116
1944.00,0.0116
1943.00,0.0116
1942.00,0.0116
1941.00,0.0116
1940.00,0.0116
1939.00,0.0116
1938.00,0.0116
1937.00,0.0116
1936.00,0.0116
1935.00,0.0116
1934.00,0.0116
1933.00,0.0116
1932.00,0.0116
1931.00,0.0116
1930.00,0.0116
1929.00,0.0116
1928.00,0.0116
1927.00,0.0116
1926.00,0.0115
1925.00,0.0116
1924.00,0.0116
1923.00,0.0117
1922.00,0.0118
1921.00,0.0118
1920.00,0.0118
1919.00,0.0118
1918.00,0.0117
1917.00,0.0117
1916.00,0.0117
1915.00,0.0117
1914.00,0.0117
1913.00,0.0116
1912.00,0.0116
1911.00,0.0116
1910.00,0.0116
1909.00,0.0116
1908.00,0.0116
1907.00,0.0116
1906.00,0.0116
1905.00,0.0116
1904.00,0.0116
1903.00,0.0116
1902.00,0.0115
1901.00,0.0115
1900.00,0.0115
1899.00,0.0115
1898.00,0.0115
1897.00,0.0115
1896.00,0.0115
1895.00,0.0114
1894.00,0.0114
1893.00,0.0114
1892.00,0.0114
1891.00,0.0114
1890.00,0.0114
1889.00,0.0114
1888.00,0.0114
1887.00,0.0114
1886.00,0.0114
1885.00,0.0114
1884.00,0.0114
1883.00,0.0114
1882.00,0.0113
1881.00,0.0113
1880.00,0.0113
1879.00,0.0113
1878.00,0.0113
1877.00,0.0113
1876.00,0.0113
1875.00,0.0113
1874.00,0.0112
1873.00,0.0112
1872.00,0.0112
1871.00,0.0112
1870.00,0.0112
1869.00,0.0112
1868.00,0.0112
1867.00,0.0112
1866.00,0.0112
1865.00,0.0111
1864.00,0.0111
1863.00,0.0111
1862.00,0.0111
1861.00,0.0111
1860.00,0.0111
1859.00,0.0110
1858.00,0.0110
1857.00,0.0110
1856.00,0.0110
1855.00,0.0109
1854.00,0.0109
1853.00,0.0109
1852.00,0.0109
1851.00,0.0109
1850.00,0.0108
1849.00,0.0108
1848.00,0.0108
1847.00,0.0107
1846.00,0.0107
1845.00,0.0107
1844.00,0.0107
1843.00,0.0107
1842.00,0.0107
1841.00,0.0107
1840.00,0.0107
1839.00,0.0107
1838.00,0.0107
1837.00,0.0107
1836.00,0.0106
1835.00,0.0106
1834.00,0.0106
1833.00,0.0105
1832.00,0.0105
1831.00,0.0105
1830.00,0.0105
1829.00,0.0105
1828.00,0.0105
1827.00,0.0105
1826.00,0.0105
1825.00,0.0105
1824.00,0.0105
1823.00,0.0105
1822.00,0.0105
1821.00,0.0104
1820.00,0.0104
1819.00,0.0103
1818.00,0.0101
1817.00,0.0101
1816.00,0.0101
1815.00,0.0101
1814.00,0.0102
1813.00,0.0102
1812.00,0.0102
1811.00,0.0103
1810.00,0.0103
1809.00,0.0103
1808.00,0.0103
1807.00,0.0103
1806.00,0.0102
1805.00,0.0102
1804.00,0.0101
1803.00,0.0101
1802.00,0.0101
1801.00,0.0101
1800.00,0.0101
1799.00,0.0101
1798.00,0.0101
1797.00,0.0101
1796.00,0.0101
1795.00,0.0101
1794.00,0.0101
1793.00,0.0101
1792.00,0.0101
1791.00,0.0101
1790.00,0.0101
1789.00,0.0100
1788.00,0.0100
1787.00,0.0100
1786.00,0.0099
1785.00,0.0099
1784.00,0.0099
1783.00,0.0099
1782.00,0.0099
1781.00,0.0099
1780.00,0.0099
1779.00,0.0099
1778.00,0.0098
1777.00,0.0098
1776.00,0.0098
1775.00,0.0098
1774.00,0.0099
1773.00,0.0099
1772.00,0.0099
1771.00,0.0098
1770.00,0.0097
1769.00,0.0097
1768.00,0.0097
1767.00,0.0098
1766.00,0.0098
1765.00,0.0098
1764.00,0.0098
1763.00,0.0098
1762.00,0.0097
1761.00,0.0098
1760.00,0.0098
1759.00,0.0098
1758.00,0.0098
1757.00,0.0099
1756.00,0.0099
1755.00,0.0100
1754.00,0.0100
1753.00,0.0101
1752.00,0.0101
1751.00,0.0102
1750.00,0.0102
1749.00,0.0103
1748.00,0.0104
1747.00,0.0105
1746.00,0.0106
1745.00,0.0106
1744.00,0.0107
1743.00,0.0108
1742.00,0.0109
1741.00,0.0110
1740.00,0.0111
1739.00,0.0112
1738.00,0.0112
1737.00,0.0113
1736.00,0.0114
1735.00,0.0116
1734.00,0.0117
1733.00,0.0117
1732.00,0.0117
1731.00,0.0118
1730.00,0.0118
1729.00,0.0119
1728.00,0.0119
1727.00,0.0120
1726.00,0.0120
1725.00,0.0121
1724.00,0.0122
1723.00,0.0123
1722.00,0.0123
1721.00,0.0123
1720.00,0.0124
1719.00,0.0126
1718.00,0.0127
1717.00,0.0129
1716.00,0.0130
1715.00,0.0131
1714.00,0.0132
1713.00,0.0133
1712.00,0.0135
1711.00,0.0138
1710.00,0.0140
1709.00,0.0143
1708.00,0.0147
1707.00,0.0152
1706.00,0.0158
1705.00,0.0165
1704.00,0.0173
1703.00,0.0181
1702.00,0.0191
1701.00,0.0205
1700.00,0.0224
1699.00,0.0240
1698.00,0.0251
1697.00,0.0260
1696.00,0.0268
1695.00,0.0275
1694.00,0.0280
1693.00,0.0285
1692.00,0.0290
1691.00,0.0297
1690.00,0.0304
1689.00,0.0312
1688.00,0.0320
1687.00,0.0328
1686.00,0.0336
1685.00,0.0346
1684.00,0.0358
1683.00,0.0369
1682.00,0.0377
1681.00,0.0386
1680.00,0.0396
1679.00,0.0406
1678.00,0.0415
1677.00,0.0424
1676.00,0.0435
1675.00,0.0447
1674.00,0.0458
1673.00,0.0468
1672.00,0.0478
1671.00,0.0489
1670.00,0.0500
1669.00,0.0513
1668.00,0.0525
1667.00,0.0535
1666.00,0.0544
1665.00,0.0554
1664.00,0.0565
1663.00,0.0577
1662.00,0.0588
1661.00,0.0599
1660.00,0.0610
1659.00,0.0620
1658.00,0.0629
1657.00,0.0637
1656.00,0.0646
1655.00,0.0654
1654.00,0.0663
1653.00,0.0672
1652.00,0.0679
1651.00,0.0685
1650.00,0.0689
1649.00,0.0693
1648.00,0.0699
1647.00,0.0703
1646.00,0.0707
1645.00,0.0710
1644.00,0.0714
1643.00,0.0717
1642.00,0.0720
1641.00,0.0724
1640.00,0.0727
1639.00,0.0731
1638.00,0.0734
1637.00,0.0738
1636.00,0.0742
1635.00,0.0745
1634.00,0.0749
1633.00,0.0754
1632.00,0.0760
1631.00,0.0766
1630.00,0.0772
1629.00,0.0778
1628.00,0.0785
1627.00,0.0793
1626.00,0.0800
1625.00,0.0807
1624.00,0.0814
1623.00,0.0821
1622.00,0.0826
1621.00,0.0831
1620.00,0.0834
1619.00,0.0837
1618.00,0.0836
1617.00,0.0831
1616.00,0.0824
1615.00,0.0816
1614.00,0.0808
1613.00,0.0798
1612.00,0.0787
1611.00,0.0774
1610.00,0.0758
1609.00,0.0741
1608.00,0.0723
1607.00,0.0706
1606.00,0.0689
1605.00,0.0672
1604.00,0.0655
1603.00,0.0638
1602.00,0.0622
1601.00,0.0607
1600.00,0.0592
1599.00,0.0579
1598.00,0.0566
1597.00,0.0554
1596.00,0.0542
1595.00,0.0530
1594.00,0.0519
1593.00,0.0508
1592.00,0.0498
1591.00,0.0489
1590.00,0.0480
1589.00,0.0472
1588.00,0.0464
1587.00,0.0457
1586.00,0.0451
1585.00,0.0446
1584.00,0.0441
1583.00,0.0437
1582.00,0.0434
1581.00,0.0432
1580.00,0.0430
1579.00,0.0429
1578.00,0.0429
1577.00,0.0430
1576.00,0.0430
1575.00,0.0430
1574.00,0.0431
1573.00,0.0432
1572.00,0.0434
1571.00,0.0437
1570.00,0.0442
1569.00,0.0448
1568.00,0.0453
1567.00,0.0458
1566.00,0.0464
1565.00,0.0471
1564.00,0.0478
1563.00,0.0484
1562.00,0.0490
1561.00,0.0496
1560.00,0.0504
1559.00,0.0519
1558.00,0.0533
1557.00,0.0543
1556.00,0.0552
1555.00,0.0560
1554.00,0.0570
1553.00,0.0580
1552.00,0.0588
1551.00,0.0597
1550.00,0.0607
1549.00,0.0617
1548.00,0.0625
1547.00,0.0632
1546.00,0.0639
1545.00,0.0647
1544.00,0.0654
1543.00,0.0662
1542.00,0.0669
1541.00,0.0677
1540.00,0.0685
1539.00,0.0692
1538.00,0.0696
1537.00,0.0700
1536.00,0.0704
1535.00,0.0707
1534.00,0.0712
1533.00,0.0717
1532.00,0.0723
1531.00,0.0728
1530.00,0.0732
1529.00,0.0736
1528.00,0.0740
1527.00,0.0745
1526.00,0.0749
1525.00,0.0754
1524.00,0.0758
1523.00,0.0763
1522.00,0.0767
1521.00,0.0773
1520.00,0.0777
1519.00,0.0781
1518.00,0.0785
1517.00,0.0788
1516.00,0.0790
1515.00,0.0791
1514.00,0.0791
1513.00,0.0788
1512.00,0.0784
1511.00,0.0778
1510.00,0.0773
1509.00,0.0768
1508.00,0.0760
1507.00,0.0746
1506.00,0.0731
1505.00,0.0720
1504.00,0.0711
1503.00,0.0703
1502.00,0.0693
1501.00,0.0682
1500.00,0.0671
1499.00,0.0659
1498.00,0.0647
1497.00,0.0634
1496.00,0.0621
1495.00,0.0608
1494.00,0.0598
1493.00,0.0587
1492.00,0.0575
1491.00,0.0563
1490.00,0.0549
1489.00,0.0537
1488.00,0.0525
1487.00,0.0516
1486.00,0.0506
1485.00,0.0498
1484.00,0.0490
1483.00,0.0483
1482.00,0.0476
1481.00,0.0470
1480.00,0.0464
1479.00,0.0460
1478.00,0.0456
1477.00,0.0452
1476.00,0.0449
1475.00,0.0448
1474.00,0.0447
1473.00,0.0448
1472.00,0.0449
1471.00,0.0451
1470.00,0.0453
1469.00,0.0454
1468.00,0.0454
1467.00,0.0454
1466.00,0.0453
1465.00,0.0452
1464.00,0.0453
1463.00,0.0454
1462.00,0.0456
1461.00,0.0458
1460.00,0.0460
1459.00,0.0463
1458.00,0.0469
1457.00,0.0476
1456.00,0.0483
1455.00,0.0487
1454.00,0.0490
1453.00,0.0493
1452.00,0.0495
1451.00,0.0496
1450.00,0.0496
1449.00,0.0497
1448.00,0.0497
1447.00,0.0497
1446.00,0.0496
1445.00,0.0495
1444.00,0.0493
1443.00,0.0490
1442.00,0.0487
1441.00,0.0484
1440.00,0.0481
1439.00,0.0477
1438.00,0.0473
1437.00,0.0468
1436.00,0.0465
1435.00,0.0462
1434.00,0.0460
1433.00,0.0458
1432.00,0.0455
1431.00,0.0453
1430.00,0.0451
1429.00,0.0450
1428.00,0.0450
1427.00,0.0450
1426.00,0.0451
1425.00,0.0452
1424.00,0.0453
1423.00,0.0455
1422.00,0.0457
1421.00,0.0459
1420.00,0.0461
1419.00,0.0465
1418.00,0.0469
1417.00,0.0473
1416.00,0.0477
1415.00,0.0480
1414.00,0.0483
1413.00,0.0486
1412.00,0.0490
1411.00,0.0493
1410.00,0.0496
1409.00,0.0498
1408.00,0.0501
1407.00,0.0503
1406.00,0.0504
1405.00,0.0506
1404.00,0.0508
1403.00,0.0510
1402.00,0.0510
1401.00,0.0510
1400.00,0.0511
1399.00,0.0511
1398.00,0.0512
1397.00,0.0513
1396.00,0.0513
1395.00,0.0514
1394.00,0.0515
1393.00,0.0516
1392.00,0.0517
1391.00,0.0518
1390.00,0.0518
1389.00,0.0518
1388.00,0.0518
1387.00,0.0519
1386.00,0.0519
1385.00,0.0519
1384.00,0.0519
1383.00,0.0518
1382.00,0.0517
1381.00,0.0516
1380.00,0.0515
1379.00,0.0514
1378.00,0.0512
1377.00,0.0511
1376.00,0.0510
1375.00,0.0509
1374.00,0.0508
1373.00,0.0508
1372.00,0.0507
1371.00,0.0507
1370.00,0.0506
1369.00,0.0504
1368.00,0.0503
1367.00,0.0501
1366.00,0.0498
1365.00,0.0495
1364.00,0.0492
1363.00,0.0490
1362.00,0.0488
1361.00,0.0486
1360.00,0.0485
1359.00,0.0484
1358.00,0.0483
1357.00,0.0482
1356.00,0.0481
1355.00,0.0481
1354.00,0.0481
1353.00,0.0481
1352.00,0.0481
1351.00,0.0482
1350.00,0.0482
1349.00,0.0483
1348.00,0.0484
1347.00,0.0485
1346.00,0.0486
1345.00,0.0487
1344.00,0.0487
1343.00,0.0488
1342.00,0.0489
1341.00,0.0489
1340.00,0.0490
1339.00,0.0491
1338.00,0.0492
1337.00,0.0492
1336.00,0.0492
1335.00,0.0492
1334.00,0.0491
1333.00,0.0491
1332.00,0.0490
1331.00,0.0489
1330.00,0.0489
1329.00,0.0488
1328.00,0.0488
1327.00,0.0487
1326.00,0.0486
1325.00,0.0486
1324.00,0.0485
1323.00,0.0485
1322.00,0.0484
1321.00,0.0484
1320.00,0.0484
1319.00,0.0484
1318.00,0.0484
1317.00,0.0483
1316.00,0.0483
1315.00,0.0483
1314.00,0.0482
1313.00,0.0482
1312.00,0.0481
1311.00,0.0480
1310.00,0.0479
1309.00,0.0478
1308.00,0.0477
1307.00,0.0476
1306.00,0.0474
1305.00,0.0473
1304.00,0.0471
1303.00,0.0470
1302.00,0.0468
1301.00,0.0467
1300.00,0.0465
1299.00,0.0463
1298.00,0.0462
1297.00,0.0460
1296.00,0.0459
1295.00,0.0458
1294.00,0.0456
1293.00,0.0455
1292.00,0.0454
1291.00,0.0453
1290.00,0.0452
1289.00,0.0452
1288.00,0.0451
1287.00,0.0450
1286.00,0.0449
1285.00,0.0448
1284.00,0.0448
1283.00,0.0447
1282.00,0.0446
1281.00,0.0446
1280.00,0.0445
1279.00,0.0444
1278.00,0.0443
1277.00,0.0443
1276.00,0.0443
1275.00,0.0442
1274.00,0.0442
1273.00,0.0442
1272.00,0.0442
1271.00,0.0442
1270.00,0.0442
1269.00,0.0443
1268.00,0.0443
1267.00,0.0444
1266.00,0.0444
1265.00,0.0445
1264.00,0.0446
1263.00,0.0447
1262.00,0.0449
1261.00,0.0450
1260.00,0.0452
1259.00,0.0454
1258.00,0.0456
1257.00,0.0459
1256.00,0.0461
1255.00,0.0464
1254.00,0.0466
1253.00,0.0469
1252.00,0.0472
1251.00,0.0474
1250.00,0.0477
1249.00,0.0480
1248.00,0.0483
1247.00,0.0485
1246.00,0.0488
1245.00,0.0490
1244.00,0.0493
1243.00,0.0495
1242.00,0.0497
1241.00,0.0499
1240.00,0.0501
1239.00,0.0502
1238.00,0.0504
1237.00,0.0505
1236.00,0.0505
1235.00,0.0506
1234.00,0.0506
1233.00,0.0507
1232.00,0.0507
1231.00,0.0507
1230.00,0.0507
1229.00,0.0506
1228.00,0.0506
1227.00,0.0505
1226.00,0.0504
1225.00,0.0503
1224.00,0.0501
1223.00,0.0500
1222.00,0.0498
1221.00,0.0497
1220.00,0.0495
1219.00,0.0493
1218.00,0.0491
1217.00,0.0489
1216.00,0.0487
1215.00,0.0484
1214.00,0.0482
1213.00,0.0480
1212.00,0.0477
1211.00,0.0474
1210.00,0.0472
1209.00,0.0469
1208.00,0.0466
1207.00,0.0464
1206.00,0.0461
1205.00,0.0458
1204.00,0.0455
1203.00,0.0452
1202.00,0.0448
1201.00,0.0445
1200.00,0.0442
1199.00,0.0439
1198.00,0.0436
1197.00,0.0433
1196.00,0.0431
1195.00,0.0429
1194.00,0.0427
1193.00,0.0425
1192.00,0.0423
1191.00,0.0421
1190.00,0.0419
1189.00,0.0418
1188.00,0.0417
1187.00,0.0415
1186.00,0.0414
1185.00,0.0413
1184.00,0.0412
1183.00,0.0412
1182.00,0.0411
1181.00,0.0411
1180.00,0.0411
1179.00,0.0412
1178.00,0.0413
1177.00,0.0414
1176.00,0.0416
1175.00,0.0418
1174.00,0.0420
1173.00,0.0423
1172.00,0.0425
1171.00,0.0427
1170.00,0.0429
1169.00,0.0431
1168.00,0.0433
1167.00,0.0434
1166.00,0.0435
1165.00,0.0436
1164.00,0.0437
1163.00,0.0437
1162.00,0.0438
1161.00,0.0438
1160.00,0.0438
1159.00,0.0437
1158.00,0.0436
1157.00,0.0435
1156.00,0.0433
1155.00,0.0432
1154.00,0.0430
1153.00,0.0428
1152.00,0.0426
1151.00,0.0424
1150.00,0.0422
1149.00,0.0419
1148.00,0.0417
1147.00,0.0415
1146.00,0.0412
1145.00,0.0411
1144.00,0.0409
1143.00,0.0407
1142.00,0.0406
1141.00,0.0404
1140.00,0.0403
1139.00,0.0402
1138.00,0.0400
1137.00,0.0399
1136.00,0.0398
1135.00,0.0398
1134.00,0.0397
1133.00,0.0397
1132.00,0.0396
1131.00,0.0396
1130.00,0.0395
1129.00,0.0395
1128.00,0.0394
1127.00,0.0393
1126.00,0.0393
1125.00,0.0392
1124.00,0.0392
1123.00,0.0391
1122.00,0.0391
1121.00,0.0390
1120.00,0.0389
1119.00,0.0389
1118.00,0.0388
1117.00,0.0387
1116.00,0.0386
1115.00,0.0386
1114.00,0.0385
1113.00,0.0385
1112.00,0.0384
1111.00,0.0383
1110.00,0.0383
1109.00,0.0382
1108.00,0.0382
1107.00,0.0382
1106.00,0.0381
1105.00,0.0381
1104.00,0.0381
1103.00,0.0381
1102.00,0.0381
1101.00,0.0380
1100.00,0.0380
1099.00,0.0380
1098.00,0.0380
1097.00,0.0381
1096.00,0.0381
1095.00,0.0382
1094.00,0.0384
1093.00,0.0385
1092.00,0.0387
1091.00,0.0390
1090.00,0.0392
1089.00,0.0395
1088.00,0.0398
1087.00,0.0402
1086.00,0.0406
1085.00,0.0410
1084.00,0.0414
1083.00,0.0418
1082.00,0.0422
1081.00,0.0426
1080.00,0.0431
1079.00,0.0435
1078.00,0.0438
1077.00,0.0442
1076.00,0.0446
1075.00,0.0449
1074.00,0.0452
1073.00,0.0455
1072.00,0.0458
1071.00,0.0461
1070.00,0.0464
1069.00,0.0466
1068.00,0.0468
1067.00,0.0470
1066.00,0.0472
1065.00,0.0473
1064.00,0.0474
1063.00,0.0474
1062.00,0.0474
1061.00,0.0474
1060.00,0.0473
1059.00,0.0472
1058.00,0.0470
1057.00,0.0468
1056.00,0.0467
1055.00,0.0465
1054.00,0.0463
1053.00,0.0462
1052.00,0.0460
1051.00,0.0458
1050.00,0.0457
1049.00,0.0455
1048.00,0.0454
1047.00,0.0453
1046.00,0.0452
1045.00,0.0451
1044.00,0.0450
1043.00,0.0449
1042.00,0.0448
1041.00,0.0447
1040.00,0.0446
1039.00,0.0445
1038.00,0.0444
1037.00,0.0443
1036.00,0.0441
1035.00,0.0439
1034.00,0.0438
1033.00,0.0436
1032.00,0.0433
1031.00,0.0431
1030.00,0.0428
1029.00,0.0425
1028.00,0.0422
1027.00,0.0419
1026.00,0.0415
1025.00,0.0411
1024.00,0.0407
1023.00,0.0403
1022.00,0.0400
1021.00,0.0396
1020.00,0.0393
1019.00,0.0390
1018.00,0.0387
1017.00,0.0384
1016.00,0.0381
1015.00,0.0378
1014.00,0.0376
1013.00,0.0373
1012.00,0.0371
1011.00,0.0368
1010.00,0.0366
1009.00,0.0363
1008.00,0.0361
1007.00,0.0359
1006.00,0.0357
1005.00,0.0355
1004.00,0.0353
1003.00,0.0351
1002.00,0.0350
1001.00,0.0348
1000.00,0.0346
999.00,0.0345
998.00,0.0344
997.00,0.0342
996.00,0.0341
995.00,0.0340
994.00,0.0339
993.00,0.0338
992.00,0.0337
991.00,0.0336
990.00,0.0335
989.00,0.0334
988.00,0.0333
987.00,0.0332
986.00,0.0331
985.00,0.0330
984.00,0.0330
983.00,0.0330
982.00,0.0329
981.00,0.0329
980.00,0.0328
979.00,0.0329
978.00,0.0329
977.00,0.0329
976.00,0.0329
975.00,0.0329
974.00,0.0330
973.00,0.0330
972.00,0.0330
971.00,0.0331
970.00,0.0331
969.00,0.0332
968.00,0.0332
967.00,0.0333
966.00,0.0334
965.00,0.0335
964.00,0.0335
963.00,0.0336
962.00,0.0336
961.00,0.0335
960.00,0.0335
959.00,0.0334
958.00,0.0333
957.00,0.0332
956.00,0.0331
955.00,0.0329
954.00,0.0328
953.00,0.0326
952.00,0.0325
951.00,0.0325
950.00,0.0324
949.00,0.0323
948.00,0.0322
947.00,0.0322
946.00,0.0321
945.00,0.0321
944.00,0.0320
943.00,0.0320
942.00,0.0319
941.00,0.0319
940.00,0.0319
939.00,0.0319
938.00,0.0319
937.00,0.0320
936.00,0.0320
935.00,0.0320
934.00,0.0320
933.00,0.0320
932.00,0.0320
931.00,0.0319
930.00,0.0319
929.00,0.0318
928.00,0.0318
927.00,0.0317
926.00,0.0316
925.00,0.0315
924.00,0.0314
923.00,0.0313
922.00,0.0312
921.00,0.0311
920.00,0.0310
919.00,0.0309
918.00,0.0308
917.00,0.0306
916.00,0.0305
915.00,0.0304
914.00,0.0303
913.00,0.0302
912.00,0.0301
911.00,0.0301
910.00,0.0300
909.00,0.0300
908.00,0.0300
907.00,0.0300
906.00,0.0299
905.00,0.0299
904.00,0.0299
903.00,0.0299
902.00,0.0299
901.00,0.0298
900.00,0.0298
899.00,0.0297
898.00,0.0297
897.00,0.0297
896.00,0.0296
895.00,0.0296
894.00,0.0295
893.00,0.0294
892.00,0.0294
891.00,0.0293
890.00,0.0292
889.00,0.0291
888.00,0.0290
887.00,0.0289
886.00,0.0288
885.00,0.0288
884.00,0.0288
883.00,0.0288
882.00,0.0287
881.00,0.0287
880.00,0.0287
879.00,0.0287
878.00,0.0288
877.00,0.0288
876.00,0.0287
875.00,0.0287
874.00,0.0287
873.00,0.0287
872.00,0.0287
871.00,0.0287
870.00,0.0286
869.00,0.0286
868.00,0.0285
867.00,0.0284
866.00,0.0284
865.00,0.0283
864.00,0.0282
863.00,0.0282
862.00,0.0281
861.00,0.0281
860.00,0.0280
859.00,0.0280
858.00,0.0280
857.00,0.0280
856.00,0.0281
855.00,0.0281
854.00,0.0281
853.00,0.0282
852.00,0.0282
851.00,0.0282
850.00,0.0282
849.00,0.0282
848.00,0.0281
847.00,0.0281
846.00,0.0281
845.00,0.0280
844.00,0.0281
843.00,0.0281
842.00,0.0281
841.00,0.0281
840.00,0.0282
839.00,0.0282
838.00,0.0283
837.00,0.0284
836.00,0.0285
835.00,0.0286
834.00,0.0288
833.00,0.0291
832.00,0.0293
831.00,0.0296
830.00,0.0299
829.00,0.0302
828.00,0.0305
827.00,0.0306
826.00,0.0307
825.00,0.0307
824.00,0.0306
823.00,0.0304
822.00,0.0303
821.00,0.0301
820.00,0.0300
819.00,0.0300
818.00,0.0300
817.00,0.0300
816.00,0.0301
815.00,0.0302
814.00,0.0303
813.00,0.0304
812.00,0.0305
811.00,0.0306
810.00,0.0307
809.00,0.0308
808.00,0.0308
807.00,0.0309
806.00,0.0309
805.00,0.0310
804.00,0.0311
803.00,0.0312
802.00,0.0312
801.00,0.0313
800.00,0.0313
799.00,0.0314
798.00,0.0314
797.00,0.0315
796.00,0.0316
795.00,0.0317
794.00,0.0319
793.00,0.0320
792.00,0.0322
791.00,0.0324
790.00,0.0326
789.00,0.0328
788.00,0.0330
787.00,0.0332
786.00,0.0334
785.00,0.0336
784.00,0.0338
783.00,0.0340
782.00,0.0342
781.00,0.0345
780.00,0.0347
779.00,0.0349
778.00,0.0351
777.00,0.0353
776.00,0.0355
775.00,0.0357
774.00,0.0359
773.00,0.0361
772.00,0.0362
771.00,0.0364
770.00,0.0366
769.00,0.0367
768.00,0.0369
767.00,0.0370
766.00,0.0371
765.00,0.0372
764.00,0.0373
763.00,0.0374
762.00,0.0375
761.00,0.0376
760.00,0.0376
759.00,0.0377
758.00,0.0378
757.00,0.0379
756.00,0.0381
755.00,0.0382
754.00,0.0384
753.00,0.0385
752.00,0.0387
751.00,0.0389
750.00,0.0391
749.00,0.0393
748.00,0.0395
747.00,0.0396
746.00,0.0397
745.00,0.0398
744.00,0.0399
743.00,0.0400
742.00,0.0401
741.00,0.0401
740.00,0.0402
739.00,0.0403
738.00,0.0403
737.00,0.0404
736.00,0.0404
735.00,0.0405
734.00,0.0406
733.00,0.0407
732.00,0.0408
731.00,0.0410
730.00,0.0412
729.00,0.0414
728.00,0.0418
727.00,0.0422
726.00,0.0426
725.00,0.0430
724.00,0.0434
723.00,0.0439
722.00,0.0443
721.00,0.0447
720.00,0.0452
719.00,0.0457
718.00,0.0462
717.00,0.0467
716.00,0.0473
715.00,0.0478
714.00,0.0484
713.00,0.0489
712.00,0.0494
711.00,0.0500
710.00,0.0506
709.00,0.0512
708.00,0.0518
707.00,0.0524
706.00,0.0530
705.00,0.0536
704.00,0.0543
703.00,0.0548
702.00,0.0554
701.00,0.0559
700.00,0.0563
699.00,0.0566
698.00,0.0568
697.00,0.0569
696.00,0.0570
695.00,0.0570
694.00,0.0570
693.00,0.0569
692.00,0.0570
691.00,0.0570
690.00,0.0571
689.00,0.0572
688.00,0.0573
687.00,0.0574
686.00,0.0575
685.00,0.0577
684.00,0.0578
683.00,0.0579
682.00,0.0581
681.00,0.0582
680.00,0.0583
679.00,0.0585
678.00,0.0586
677.00,0.0587
676.00,0.0588
675.00,0.0589
674.00,0.0590
673.00,0.0591
672.00,0.0593
671.00,0.0594
670.00,0.0595
669.00,0.0597
668.00,0.0599
667.00,0.0601
666.00,0.0601
665.00,0.0601
664.00,0.0602
663.00,0.0602
662.00,0.0603
661.00,0.0605
660.00,0.0606
659.00,0.0608
658.00,0.0609
657.00,0.0610
656.00,0.0612
655.00,0.0613
654.00,0.0614
653.00,0.0616
652.00,0.0618
651.00,0.0619
650.00,0.0620
649.00,0.0621
648.00,0.0623
647.00,0.0624
646.00,0.0626
645.00,0.0628
644.00,0.0631
643.00,0.0633
642.00,0.0635
641.00,0.0637
640.00,0.0640
639.00,0.0642
638.00,0.0644
637.00,0.0646
636.00,0.0648
635.00,0.0650
634.00,0.0652
633.00,0.0654
632.00,0.0656
631.00,0.0658
630.00,0.0660
629.00,0.0662
628.00,0.0664
627.00,0.0665
626.00,0.0665
625.00,0.0666
624.00,0.0667
623.00,0.0669
622.00,0.0670
621.00,0.0671
620.00,0.0671
619.00,0.0671
618.00,0.0671
617.00,0.0671
616.00,0.0671
615.00,0.0671
614.00,0.0670
613.00,0.0669
612.00,0.0668
611.00,0.0667
610.00,0.0667
609.00,0.0668
608.00,0.0668
607.00,0.0669
606.00,0.0668
605.00,0.0668
604.00,0.0668
603.00,0.0668
602.00,0.0667
601.00,0.0667
600.00,0.0666
599.00,0.0666
598.00,0.0666
597.00,0.0666
596.00,0.0666
595.00,0.0666
594.00,0.0667
593.00,0.0668
592.00,0.0668
591.00,0.0668
590.00,0.0668
589.00,0.0669
588.00,0.0670
587.00,0.0671
586.00,0.0672
585.00,0.0672
584.00,0.0673
583.00,0.0674
582.00,0.0675
581.00,0.0676
580.00,0.0677
579.00,0.0678
578.00,0.0679
577.00,0.0679
576.00,0.0680
575.00,0.0681
574.00,0.0681
573.00,0.0682
572.00,0.0683
571.00,0.0685
570.00,0.0686
569.00,0.0687
568.00,0.0688
567.00,0.0689
566.00,0.0690
565.00,0.0690
564.00,0.0692
563.00,0.0693
562.00,0.0694
561.00,0.0696
560.00,0.0697
559.00,0.0698
558.00,0.0698
557.00,0.0698
556.00,0.0698
555.00,0.0698
554.00,0.0698
553.00,0.0699
552.00,0.0700
551.00,0.0702
550.00,0.0703
549.00,0.0704
548.00,0.0705
547.00,0.0706
546.00,0.0707
545.00,0.0708
544.00,0.0709
543.00,0.0711
542.00,0.0712
541.00,0.0713
540.00,0.0713
539.00,0.0714
538.00,0.0714
537.00,0.0715
536.00,0.0716
535.00,0.0716
534.00,0.0717
533.00,0.0719
532.00,0.0720
531.00,0.0721
530.00,0.0722
529.00,0.0722
528.00,0.0723
527.00,0.0724
526.00,0.0725
525.00,0.0726
524.00,0.0727
523.00,0.0728
522.00,0.0728
521.00,0.0728
520.00,0.0728
519.00,0.0728
518.00,0.0728
517.00,0.0727
516.00,0.0726
515.00,0.0725
514.00,0.0723
513.00,0.0721
512.00,0.0720
511.00,0.0718
510.00,0.0717
509.00,0.0716
508.00,0.0716
507.00,0.0715
506.00,0.0714
505.00,0.0712
504.00,0.0710
503.00,0.0709
502.00,0.0708
501.00,0.0708
500.00,0.0708
499.00,0.0708
498.00,0.0708
497.00,0.0708
496.00,0.0708
495.00,0.0708
494.00,0.0706
493.00,0.0705
492.00,0.0703
491.00,0.0702
490.00,0.0700
489.00,0.0699
488.00,0.0698
487.00,0.0698
486.00,0.0698
485.00,0.0698
484.00,0.0699
483.00,0.0700
482.00,0.0700
481.00,0.0700
480.00,0.0700
479.00,0.0700
478.00,0.0699
477.00,0.0697
476.00,0.0696
475.00,0.0695
474.00,0.0695
473.00,0.0695
472.00,0.0696
471.00,0.0696
470.00,0.0696
469.00,0.0697
468.00,0.0697
467.00,0.0696
466.00,0.0695
465.00,0.0695
464.00,0.0696
463.00,0.0698
462.00,0.0698
461.00,0.0697
460.00,0.0696
459.00,0.0694
458.00,0.0691
457.00,0.0689
456.00,0.0688
455.00,0.0686
454.00,0.0684
453.00,0.0682
452.00,0.0681
451.00,0.0680
450.00,0.0679
449.00,0.0677
448.00,0.0676
447.00,0.0674
446.00,0.0671
445.00,0.0668
444.00,0.0666
443.00,0.0664
442.00,0.0661
441.00,0.0658
440.00,0.0655
439.00,0.0651
438.00,0.0648
437.00,0.0646
436.00,0.0644
435.00,0.0642
434.00,0.0638
433.00,0.0636
432.00,0.0634
431.00,0.0633
430.00,0.0631
429.00,0.0629
428.00,0.0627
427.00,0.0625
426.00,0.0621
425.00,0.0617
424.00,0.0615
423.00,0.0616
422.00,0.0617
421.00,0.0615
420.00,0.0614
419.00,0.0612
418.00,0.0609
417.00,0.0606
416.00,0.0605
415.00,0.0604
414.00,0.0602
413.00,0.0600
412.00,0.0599
411.00,0.0599
410.00,0.0597
409.00,0.0595
408.00,0.0595
407.00,0.0595
406.00,0.0593
405.00,0.0589
404.00,0.0585
403.00,0.0581
402.00,0.0575
401.00,0.0567
400.00,0.0559
