Created as New Dataset,Sample 335 By YargerLab Date Monday, August 19 2024
cm-1,A
4000.00,0.0096
3999.00,0.0096
3998.00,0.0096
3997.00,0.0096
3996.00,0.0097
3995.00,0.0097
3994.00,0.0097
3993.00,0.0097
3992.00,0.0097
3991.00,0.0096
3990.00,0.0096
3989.00,0.0096
3988.00,0.0096
3987.00,0.0096
3986.00,0.0097
3985.00,0.0097
3984.00,0.0097
3983.00,0.0097
3982.00,0.0097
3981.00,0.0097
3980.00,0.0097
3979.00,0.0097
3978.00,0.0097
3977.00,0.0097
3976.00,0.0097
3975.00,0.0097
3974.00,0.0097
3973.00,0.0097
3972.00,0.0097
3971.00,0.0096
3970.00,0.0096
3969.00,0.0096
3968.00,0.0096
3967.00,0.0097
3966.00,0.0097
3965.00,0.0097
3964.00,0.0097
3963.00,0.0097
3962.00,0.0097
3961.00,0.0097
3960.00,0.0096
3959.00,0.0096
3958.00,0.0096
3957.00,0.0097
3956.00,0.0097
3955.00,0.0097
3954.00,0.0097
3953.00,0.0097
3952.00,0.0097
3951.00,0.0097
3950.00,0.0097
3949.00,0.0097
3948.00,0.0097
3947.00,0.0097
3946.00,0.0097
3945.00,0.0097
3944.00,0.0097
3943.00,0.0097
3942.00,0.0096
3941.00,0.0096
3940.00,0.0096
3939.00,0.0096
3938.00,0.0096
3937.00,0.0096
3936.00,0.0096
3935.00,0.0096
3934.00,0.0097
3933.00,0.0097
3932.00,0.0097
3931.00,0.0097
3930.00,0.0096
3929.00,0.0096
3928.00,0.0096
3927.00,0.0096
3926.00,0.0096
3925.00,0.0096
3924.00,0.0096
3923.00,0.0096
3922.00,0.0097
3921.00,0.0097
3920.00,0.0097
3919.00,0.0097
3918.00,0.0097
3917.00,0.0096
3916.00,0.0096
3915.00,0.0096
3914.00,0.0096
3913.00,0.0096
3912.00,0.0096
3911.00,0.0096
3910.00,0.0096
3909.00,0.0096
3908.00,0.0096
3907.00,0.0096
3906.00,0.0096
3905.00,0.0096
3904.00,0.0096
3903.00,0.0097
3902.00,0.0097
3901.00,0.0097
3900.00,0.0096
3899.00,0.0096
3898.00,0.0096
3897.00,0.0096
3896.00,0.0096
3895.00,0.0096
3894.00,0.0096
3893.00,0.0096
3892.00,0.0096
3891.00,0.0095
3890.00,0.0095
3889.00,0.0095
3888.00,0.0096
3887.00,0.0096
3886.00,0.0096
3885.00,0.0096
3884.00,0.0096
3883.00,0.0096
3882.00,0.0096
3881.00,0.0095
3880.00,0.0096
3879.00,0.0096
3878.00,0.0096
3877.00,0.0095
3876.00,0.0095
3875.00,0.0095
3874.00,0.0095
3873.00,0.0095
3872.00,0.0095
3871.00,0.0095
3870.00,0.0096
3869.00,0.0096
3868.00,0.0095
3867.00,0.0095
3866.00,0.0095
3865.00,0.0095
3864.00,0.0095
3863.00,0.0095
3862.00,0.0095
3861.00,0.0095
3860.00,0.0095
3859.00,0.0095
3858.00,0.0095
3857.00,0.0095
3856.00,0.0095
3855.00,0.0095
3854.00,0.0095
3853.00,0.0095
3852.00,0.0095
3851.00,0.0095
3850.00,0.0095
3849.00,0.0095
3848.00,0.0095
3847.00,0.0095
3846.00,0.0095
3845.00,0.0095
3844.00,0.0095
3843.00,0.0095
3842.00,0.0095
3841.00,0.0095
3840.00,0.0095
3839.00,0.0095
3838.00,0.0095
3837.00,0.0095
3836.00,0.0094
3835.00,0.0094
3834.00,0.0094
3833.00,0.0094
3832.00,0.0094
3831.00,0.0094
3830.00,0.0094
3829.00,0.0094
3828.00,0.0094
3827.00,0.0095
3826.00,0.0095
3825.00,0.0094
3824.00,0.0094
3823.00,0.0095
3822.00,0.0095
3821.00,0.0094
3820.00,0.0094
3819.00,0.0094
3818.00,0.0094
3817.00,0.0094
3816.00,0.0094
3815.00,0.0094
3814.00,0.0094
3813.00,0.0094
3812.00,0.0094
3811.00,0.0094
3810.00,0.0093
3809.00,0.0093
3808.00,0.0094
3807.00,0.0094
3806.00,0.0094
3805.00,0.0094
3804.00,0.0094
3803.00,0.0094
3802.00,0.0094
3801.00,0.0094
3800.00,0.0094
3799.00,0.0094
3798.00,0.0093
3797.00,0.0093
3796.00,0.0093
3795.00,0.0093
3794.00,0.0093
3793.00,0.0093
3792.00,0.0093
3791.00,0.0093
3790.00,0.0093
3789.00,0.0093
3788.00,0.0093
3787.00,0.0093
3786.00,0.0093
3785.00,0.0093
3784.00,0.0093
3783.00,0.0093
3782.00,0.0093
3781.00,0.0093
3780.00,0.0093
3779.00,0.0093
3778.00,0.0093
3777.00,0.0093
3776.00,0.0093
3775.00,0.0093
3774.00,0.0093
3773.00,0.0093
3772.00,0.0093
3771.00,0.0093
3770.00,0.0093
3769.00,0.0093
3768.00,0.0093
3767.00,0.0093
3766.00,0.0093
3765.00,0.0093
3764.00,0.0093
3763.00,0.0093
3762.00,0.0093
3761.00,0.0093
3760.00,0.0093
3759.00,0.0093
3758.00,0.0093
3757.00,0.0093
3756.00,0.0093
3755.00,0.0093
3754.00,0.0093
3753.00,0.0093
3752.00,0.0093
3751.00,0.0093
3750.00,0.0093
3749.00,0.0093
3748.00,0.0093
3747.00,0.0093
3746.00,0.0093
3745.00,0.0093
3744.00,0.0093
3743.00,0.0093
3742.00,0.0092
3741.00,0.0092
3740.00,0.0093
3739.00,0.0093
3738.00,0.0093
3737.00,0.0093
3736.00,0.0092
3735.00,0.0092
3734.00,0.0092
3733.00,0.0092
3732.00,0.0091
3731.00,0.0091
3730.00,0.0091
3729.00,0.0091
3728.00,0.0091
3727.00,0.0091
3726.00,0.0091
3725.00,0.0091
3724.00,0.0091
3723.00,0.0091
3722.00,0.0091
3721.00,0.0091
3720.00,0.0091
3719.00,0.0091
3718.00,0.0090
3717.00,0.0090
3716.00,0.0090
3715.00,0.0090
3714.00,0.0090
3713.00,0.0090
3712.00,0.0090
3711.00,0.0090
3710.00,0.0090
3709.00,0.0090
3708.00,0.0090
3707.00,0.0090
3706.00,0.0090
3705.00,0.0090
3704.00,0.0090
3703.00,0.0090
3702.00,0.0089
3701.00,0.0089
3700.00,0.0089
3699.00,0.0089
3698.00,0.0090
3697.00,0.0090
3696.00,0.0090
3695.00,0.0090
3694.00,0.0090
3693.00,0.0090
3692.00,0.0090
3691.00,0.0090
3690.00,0.0090
3689.00,0.0090
3688.00,0.0090
3687.00,0.0090
3686.00,0.0090
3685.00,0.0090
3684.00,0.0090
3683.00,0.0090
3682.00,0.0090
3681.00,0.0091
3680.00,0.0091
3679.00,0.0091
3678.00,0.0091
3677.00,0.0092
3676.00,0.0092
3675.00,0.0092
3674.00,0.0092
3673.00,0.0092
3672.00,0.0092
3671.00,0.0092
3670.00,0.0092
3669.00,0.0092
3668.00,0.0092
3667.00,0.0092
3666.00,0.0093
3665.00,0.0093
3664.00,0.0093
3663.00,0.0094
3662.00,0.0094
3661.00,0.0094
3660.00,0.0095
3659.00,0.0095
3658.00,0.0095
3657.00,0.0096
3656.00,0.0096
3655.00,0.0096
3654.00,0.0097
3653.00,0.0097
3652.00,0.0097
3651.00,0.0098
3650.00,0.0099
3649.00,0.0099
3648.00,0.0100
3647.00,0.0100
3646.00,0.0100
3645.00,0.0100
3644.00,0.0100
3643.00,0.0100
3642.00,0.0101
3641.00,0.0101
3640.00,0.0101
3639.00,0.0102
3638.00,0.0102
3637.00,0.0103
3636.00,0.0103
3635.00,0.0104
3634.00,0.0104
3633.00,0.0105
3632.00,0.0105
3631.00,0.0106
3630.00,0.0106
3629.00,0.0107
3628.00,0.0107
3627.00,0.0108
3626.00,0.0108
3625.00,0.0109
3624.00,0.0109
3623.00,0.0110
3622.00,0.0110
3621.00,0.0111
3620.00,0.0111
3619.00,0.0112
3618.00,0.0112
3617.00,0.0113
3616.00,0.0114
3615.00,0.0114
3614.00,0.0115
3613.00,0.0115
3612.00,0.0116
3611.00,0.0117
3610.00,0.0117
3609.00,0.0118
3608.00,0.0118
3607.00,0.0118
3606.00,0.0119
3605.00,0.0119
3604.00,0.0120
3603.00,0.0121
3602.00,0.0121
3601.00,0.0122
3600.00,0.0122
3599.00,0.0123
3598.00,0.0123
3597.00,0.0124
3596.00,0.0124
3595.00,0.0125
3594.00,0.0126
3593.00,0.0126
3592.00,0.0127
3591.00,0.0127
3590.00,0.0128
3589.00,0.0129
3588.00,0.0129
3587.00,0.0130
3586.00,0.0131
3585.00,0.0131
3584.00,0.0132
3583.00,0.0133
3582.00,0.0133
3581.00,0.0134
3580.00,0.0134
3579.00,0.0135
3578.00,0.0135
3577.00,0.0136
3576.00,0.0137
3575.00,0.0137
3574.00,0.0138
3573.00,0.0139
3572.00,0.0139
3571.00,0.0140
3570.00,0.0140
3569.00,0.0141
3568.00,0.0142
3567.00,0.0143
3566.00,0.0144
3565.00,0.0145
3564.00,0.0146
3563.00,0.0146
3562.00,0.0147
3561.00,0.0147
3560.00,0.0148
3559.00,0.0149
3558.00,0.0149
3557.00,0.0150
3556.00,0.0150
3555.00,0.0151
3554.00,0.0152
3553.00,0.0152
3552.00,0.0153
3551.00,0.0154
3550.00,0.0155
3549.00,0.0156
3548.00,0.0157
3547.00,0.0157
3546.00,0.0158
3545.00,0.0159
3544.00,0.0160
3543.00,0.0160
3542.00,0.0161
3541.00,0.0161
3540.00,0.0162
3539.00,0.0162
3538.00,0.0163
3537.00,0.0164
3536.00,0.0164
3535.00,0.0165
3534.00,0.0166
3533.00,0.0167
3532.00,0.0167
3531.00,0.0168
3530.00,0.0169
3529.00,0.0170
3528.00,0.0170
3527.00,0.0171
3526.00,0.0172
3525.00,0.0173
3524.00,0.0173
3523.00,0.0174
3522.00,0.0175
3521.00,0.0175
3520.00,0.0176
3519.00,0.0176
3518.00,0.0177
3517.00,0.0178
3516.00,0.0178
3515.00,0.0179
3514.00,0.0180
3513.00,0.0181
3512.00,0.0181
3511.00,0.0182
3510.00,0.0183
3509.00,0.0183
3508.00,0.0184
3507.00,0.0185
3506.00,0.0186
3505.00,0.0186
3504.00,0.0187
3503.00,0.0188
3502.00,0.0189
3501.00,0.0190
3500.00,0.0190
3499.00,0.0191
3498.00,0.0192
3497.00,0.0192
3496.00,0.0193
3495.00,0.0194
3494.00,0.0194
3493.00,0.0195
3492.00,0.0196
3491.00,0.0197
3490.00,0.0198
3489.00,0.0199
3488.00,0.0199
3487.00,0.0200
3486.00,0.0201
3485.00,0.0202
3484.00,0.0203
3483.00,0.0204
3482.00,0.0205
3481.00,0.0205
3480.00,0.0206
3479.00,0.0207
3478.00,0.0208
3477.00,0.0209
3476.00,0.0210
3475.00,0.0210
3474.00,0.0211
3473.00,0.0212
3472.00,0.0213
3471.00,0.0214
3470.00,0.0215
3469.00,0.0216
3468.00,0.0217
3467.00,0.0218
3466.00,0.0218
3465.00,0.0219
3464.00,0.0220
3463.00,0.0221
3462.00,0.0222
3461.00,0.0223
3460.00,0.0224
3459.00,0.0225
3458.00,0.0225
3457.00,0.0226
3456.00,0.0227
3455.00,0.0228
3454.00,0.0229
3453.00,0.0230
3452.00,0.0231
3451.00,0.0231
3450.00,0.0232
3449.00,0.0233
3448.00,0.0234
3447.00,0.0235
3446.00,0.0236
3445.00,0.0236
3444.00,0.0237
3443.00,0.0238
3442.00,0.0239
3441.00,0.0240
3440.00,0.0241
3439.00,0.0242
3438.00,0.0243
3437.00,0.0244
3436.00,0.0245
3435.00,0.0245
3434.00,0.0246
3433.00,0.0247
3432.00,0.0248
3431.00,0.0249
3430.00,0.0249
3429.00,0.0250
3428.00,0.0251
3427.00,0.0251
3426.00,0.0252
3425.00,0.0253
3424.00,0.0254
3423.00,0.0254
3422.00,0.0255
3421.00,0.0256
3420.00,0.0257
3419.00,0.0258
3418.00,0.0258
3417.00,0.0259
3416.00,0.0260
3415.00,0.0261
3414.00,0.0262
3413.00,0.0262
3412.00,0.0263
3411.00,0.0264
3410.00,0.0264
3409.00,0.0265
3408.00,0.0265
3407.00,0.0266
3406.00,0.0267
3405.00,0.0268
3404.00,0.0268
3403.00,0.0269
3402.00,0.0270
3401.00,0.0271
3400.00,0.0271
3399.00,0.0272
3398.00,0.0272
3397.00,0.0273
3396.00,0.0274
3395.00,0.0274
3394.00,0.0275
3393.00,0.0275
3392.00,0.0276
3391.00,0.0277
3390.00,0.0278
3389.00,0.0278
3388.00,0.0279
3387.00,0.0280
3386.00,0.0280
3385.00,0.0281
3384.00,0.0282
3383.00,0.0283
3382.00,0.0284
3381.00,0.0284
3380.00,0.0285
3379.00,0.0286
3378.00,0.0287
3377.00,0.0287
3376.00,0.0288
3375.00,0.0289
3374.00,0.0290
3373.00,0.0291
3372.00,0.0292
3371.00,0.0293
3370.00,0.0294
3369.00,0.0295
3368.00,0.0296
3367.00,0.0297
3366.00,0.0298
3365.00,0.0299
3364.00,0.0300
3363.00,0.0301
3362.00,0.0302
3361.00,0.0303
3360.00,0.0304
3359.00,0.0305
3358.00,0.0306
3357.00,0.0307
3356.00,0.0309
3355.00,0.0310
3354.00,0.0311
3353.00,0.0312
3352.00,0.0313
3351.00,0.0314
3350.00,0.0315
3349.00,0.0316
3348.00,0.0317
3347.00,0.0319
3346.00,0.0320
3345.00,0.0321
3344.00,0.0322
3343.00,0.0324
3342.00,0.0325
3341.00,0.0327
3340.00,0.0328
3339.00,0.0329
3338.00,0.0331
3337.00,0.0332
3336.00,0.0334
3335.00,0.0336
3334.00,0.0337
3333.00,0.0339
3332.00,0.0340
3331.00,0.0342
3330.00,0.0344
3329.00,0.0345
3328.00,0.0347
3327.00,0.0348
3326.00,0.0350
3325.00,0.0352
3324.00,0.0354
3323.00,0.0356
3322.00,0.0358
3321.00,0.0360
3320.00,0.0362
3319.00,0.0364
3318.00,0.0366
3317.00,0.0368
3316.00,0.0371
3315.00,0.0373
3314.00,0.0375
3313.00,0.0377
3312.00,0.0379
3311.00,0.0381
3310.00,0.0383
3309.00,0.0386
3308.00,0.0388
3307.00,0.0390
3306.00,0.0393
3305.00,0.0396
3304.00,0.0398
3303.00,0.0401
3302.00,0.0404
3301.00,0.0406
3300.00,0.0409
3299.00,0.0411
3298.00,0.0413
3297.00,0.0416
3296.00,0.0418
3295.00,0.0421
3294.00,0.0423
3293.00,0.0426
3292.00,0.0429
3291.00,0.0431
3290.00,0.0434
3289.00,0.0436
3288.00,0.0438
3287.00,0.0440
3286.00,0.0442
3285.00,0.0444
3284.00,0.0446
3283.00,0.0448
3282.00,0.0449
3281.00,0.0451
3280.00,0.0452
3279.00,0.0453
3278.00,0.0454
3277.00,0.0455
3276.00,0.0455
3275.00,0.0455
3274.00,0.0455
3273.00,0.0455
3272.00,0.0454
3271.00,0.0454
3270.00,0.0454
3269.00,0.0453
3268.00,0.0452
3267.00,0.0452
3266.00,0.0450
3265.00,0.0449
3264.00,0.0448
3263.00,0.0446
3262.00,0.0444
3261.00,0.0442
3260.00,0.0440
3259.00,0.0438
3258.00,0.0436
3257.00,0.0434
3256.00,0.0432
3255.00,0.0431
3254.00,0.0429
3253.00,0.0427
3252.00,0.0425
3251.00,0.0423
3250.00,0.0421
3249.00,0.0419
3248.00,0.0417
3247.00,0.0415
3246.00,0.0414
3245.00,0.0413
3244.00,0.0411
3243.00,0.0410
3242.00,0.0408
3241.00,0.0406
3240.00,0.0405
3239.00,0.0403
3238.00,0.0402
3237.00,0.0400
3236.00,0.0398
3235.00,0.0397
3234.00,0.0395
3233.00,0.0394
3232.00,0.0394
3231.00,0.0393
3230.00,0.0392
3229.00,0.0391
3228.00,0.0390
3227.00,0.0389
3226.00,0.0388
3225.00,0.0387
3224.00,0.0386
3223.00,0.0386
3222.00,0.0385
3221.00,0.0384
3220.00,0.0383
3219.00,0.0382
3218.00,0.0381
3217.00,0.0381
3216.00,0.0380
3215.00,0.0379
3214.00,0.0378
3213.00,0.0378
3212.00,0.0377
3211.00,0.0376
3210.00,0.0375
3209.00,0.0375
3208.00,0.0374
3207.00,0.0373
3206.00,0.0373
3205.00,0.0372
3204.00,0.0371
3203.00,0.0371
3202.00,0.0370
3201.00,0.0369
3200.00,0.0369
3199.00,0.0368
3198.00,0.0367
3197.00,0.0367
3196.00,0.0366
3195.00,0.0365
3194.00,0.0364
3193.00,0.0363
3192.00,0.0363
3191.00,0.0362
3190.00,0.0361
3189.00,0.0360
3188.00,0.0359
3187.00,0.0358
3186.00,0.0357
3185.00,0.0356
3184.00,0.0356
3183.00,0.0355
3182.00,0.0354
3181.00,0.0353
3180.00,0.0352
3179.00,0.0351
3178.00,0.0350
3177.00,0.0349
3176.00,0.0348
3175.00,0.0347
3174.00,0.0346
3173.00,0.0345
3172.00,0.0344
3171.00,0.0343
3170.00,0.0341
3169.00,0.0340
3168.00,0.0339
3167.00,0.0338
3166.00,0.0337
3165.00,0.0336
3164.00,0.0335
3163.00,0.0334
3162.00,0.0333
3161.00,0.0332
3160.00,0.0331
3159.00,0.0330
3158.00,0.0329
3157.00,0.0328
3156.00,0.0327
3155.00,0.0326
3154.00,0.0325
3153.00,0.0324
3152.00,0.0323
3151.00,0.0322
3150.00,0.0321
3149.00,0.0320
3148.00,0.0320
3147.00,0.0319
3146.00,0.0318
3145.00,0.0317
3144.00,0.0316
3143.00,0.0316
3142.00,0.0315
3141.00,0.0314
3140.00,0.0313
3139.00,0.0312
3138.00,0.0311
3137.00,0.0311
3136.00,0.0310
3135.00,0.0309
3134.00,0.0309
3133.00,0.0308
3132.00,0.0307
3131.00,0.0307
3130.00,0.0306
3129.00,0.0306
3128.00,0.0305
3127.00,0.0305
3126.00,0.0304
3125.00,0.0304
3124.00,0.0303
3123.00,0.0303
3122.00,0.0302
3121.00,0.0302
3120.00,0.0301
3119.00,0.0301
3118.00,0.0301
3117.00,0.0301
3116.00,0.0301
3115.00,0.0301
3114.00,0.0301
3113.00,0.0301
3112.00,0.0301
3111.00,0.0301
3110.00,0.0301
3109.00,0.0301
3108.00,0.0301
3107.00,0.0301
3106.00,0.0301
3105.00,0.0301
3104.00,0.0302
3103.00,0.0302
3102.00,0.0302
3101.00,0.0302
3100.00,0.0302
3099.00,0.0303
3098.00,0.0303
3097.00,0.0304
3096.00,0.0304
3095.00,0.0304
3094.00,0.0304
3093.00,0.0305
3092.00,0.0305
3091.00,0.0305
3090.00,0.0306
3089.00,0.0306
3088.00,0.0306
3087.00,0.0306
3086.00,0.0306
3085.00,0.0307
3084.00,0.0307
3083.00,0.0307
3082.00,0.0307
3081.00,0.0308
3080.00,0.0308
3079.00,0.0308
3078.00,0.0309
3077.00,0.0309
3076.00,0.0310
3075.00,0.0310
3074.00,0.0310
3073.00,0.0310
3072.00,0.0310
3071.00,0.0310
3070.00,0.0310
3069.00,0.0309
3068.00,0.0309
3067.00,0.0309
3066.00,0.0309
3065.00,0.0309
3064.00,0.0309
3063.00,0.0309
3062.00,0.0309
3061.00,0.0308
3060.00,0.0308
3059.00,0.0307
3058.00,0.0306
3057.00,0.0306
3056.00,0.0305
3055.00,0.0304
3054.00,0.0304
3053.00,0.0303
3052.00,0.0302
3051.00,0.0301
3050.00,0.0301
3049.00,0.0300
3048.00,0.0299
3047.00,0.0298
3046.00,0.0297
3045.00,0.0296
3044.00,0.0295
3043.00,0.0294
3042.00,0.0294
3041.00,0.0293
3040.00,0.0293
3039.00,0.0292
3038.00,0.0291
3037.00,0.0290
3036.00,0.0289
3035.00,0.0288
3034.00,0.0287
3033.00,0.0287
3032.00,0.0286
3031.00,0.0286
3030.00,0.0285
3029.00,0.0284
3028.00,0.0284
3027.00,0.0283
3026.00,0.0282
3025.00,0.0281
3024.00,0.0280
3023.00,0.0279
3022.00,0.0278
3021.00,0.0277
3020.00,0.0276
3019.00,0.0275
3018.00,0.0274
3017.00,0.0273
3016.00,0.0272
3015.00,0.0271
3014.00,0.0270
3013.00,0.0270
3012.00,0.0270
3011.00,0.0269
3010.00,0.0269
3009.00,0.0269
3008.00,0.0269
3007.00,0.0269
3006.00,0.0268
3005.00,0.0268
3004.00,0.0268
3003.00,0.0268
3002.00,0.0268
3001.00,0.0268
3000.00,0.0268
2999.00,0.0267
2998.00,0.0267
2997.00,0.0268
2996.00,0.0268
2995.00,0.0268
2994.00,0.0268
2993.00,0.0269
2992.00,0.0270
2991.00,0.0271
2990.00,0.0272
2989.00,0.0272
2988.00,0.0273
2987.00,0.0274
2986.00,0.0275
2985.00,0.0276
2984.00,0.0277
2983.00,0.0278
2982.00,0.0279
2981.00,0.0280
2980.00,0.0281
2979.00,0.0282
2978.00,0.0284
2977.00,0.0285
2976.00,0.0286
2975.00,0.0287
2974.00,0.0288
2973.00,0.0289
2972.00,0.0290
2971.00,0.0291
2970.00,0.0292
2969.00,0.0292
2968.00,0.0293
2967.00,0.0293
2966.00,0.0294
2965.00,0.0294
2964.00,0.0294
2963.00,0.0294
2962.00,0.0294
2961.00,0.0293
2960.00,0.0293
2959.00,0.0292
2958.00,0.0292
2957.00,0.0292
2956.00,0.0291
2955.00,0.0291
2954.00,0.0291
2953.00,0.0291
2952.00,0.0291
2951.00,0.0291
2950.00,0.0291
2949.00,0.0291
2948.00,0.0291
2947.00,0.0292
2946.00,0.0292
2945.00,0.0293
2944.00,0.0294
2943.00,0.0295
2942.00,0.0296
2941.00,0.0297
2940.00,0.0298
2939.00,0.0298
2938.00,0.0299
2937.00,0.0300
2936.00,0.0300
2935.00,0.0300
2934.00,0.0300
2933.00,0.0300
2932.00,0.0299
2931.00,0.0299
2930.00,0.0297
2929.00,0.0296
2928.00,0.0294
2927.00,0.0292
2926.00,0.0289
2925.00,0.0286
2924.00,0.0282
2923.00,0.0277
2922.00,0.0272
2921.00,0.0267
2920.00,0.0261
2919.00,0.0255
2918.00,0.0250
2917.00,0.0246
2916.00,0.0244
2915.00,0.0245
2914.00,0.0248
2913.00,0.0253
2912.00,0.0257
2911.00,0.0261
2910.00,0.0264
2909.00,0.0265
2908.00,0.0266
2907.00,0.0267
2906.00,0.0267
2905.00,0.0267
2904.00,0.0266
2903.00,0.0266
2902.00,0.0266
2901.00,0.0265
2900.00,0.0265
2899.00,0.0264
2898.00,0.0264
2897.00,0.0263
2896.00,0.0263
2895.00,0.0263
2894.00,0.0262
2893.00,0.0262
2892.00,0.0262
2891.00,0.0262
2890.00,0.0262
2889.00,0.0262
2888.00,0.0262
2887.00,0.0262
2886.00,0.0262
2885.00,0.0262
2884.00,0.0263
2883.00,0.0263
2882.00,0.0264
2881.00,0.0265
2880.00,0.0265
2879.00,0.0266
2878.00,0.0266
2877.00,0.0266
2876.00,0.0266
2875.00,0.0266
2874.00,0.0266
2873.00,0.0266
2872.00,0.0265
2871.00,0.0265
2870.00,0.0264
2869.00,0.0263
2868.00,0.0262
2867.00,0.0260
2866.00,0.0259
2865.00,0.0258
2864.00,0.0257
2863.00,0.0256
2862.00,0.0255
2861.00,0.0254
2860.00,0.0253
2859.00,0.0252
2858.00,0.0251
2857.00,0.0249
2856.00,0.0247
2855.00,0.0245
2854.00,0.0241
2853.00,0.0237
2852.00,0.0232
2851.00,0.0226
2850.00,0.0221
2849.00,0.0219
2848.00,0.0219
2847.00,0.0221
2846.00,0.0225
2845.00,0.0229
2844.00,0.0232
2843.00,0.0234
2842.00,0.0236
2841.00,0.0236
2840.00,0.0236
2839.00,0.0236
2838.00,0.0236
2837.00,0.0235
2836.00,0.0235
2835.00,0.0235
2834.00,0.0234
2833.00,0.0234
2832.00,0.0234
2831.00,0.0233
2830.00,0.0233
2829.00,0.0232
2828.00,0.0232
2827.00,0.0232
2826.00,0.0231
2825.00,0.0231
2824.00,0.0230
2823.00,0.0230
2822.00,0.0229
2821.00,0.0229
2820.00,0.0229
2819.00,0.0228
2818.00,0.0228
2817.00,0.0228
2816.00,0.0227
2815.00,0.0227
2814.00,0.0227
2813.00,0.0226
2812.00,0.0226
2811.00,0.0225
2810.00,0.0225
2809.00,0.0224
2808.00,0.0224
2807.00,0.0224
2806.00,0.0223
2805.00,0.0223
2804.00,0.0223
2803.00,0.0222
2802.00,0.0222
2801.00,0.0222
2800.00,0.0221
2799.00,0.0221
2798.00,0.0220
2797.00,0.0220
2796.00,0.0220
2795.00,0.0219
2794.00,0.0219
2793.00,0.0219
2792.00,0.0218
2791.00,0.0218
2790.00,0.0218
2789.00,0.0217
2788.00,0.0217
2787.00,0.0217
2786.00,0.0217
2785.00,0.0217
2784.00,0.0216
2783.00,0.0216
2782.00,0.0216
2781.00,0.0215
2780.00,0.0215
2779.00,0.0215
2778.00,0.0214
2777.00,0.0214
2776.00,0.0214
2775.00,0.0213
2774.00,0.0213
2773.00,0.0213
2772.00,0.0213
2771.00,0.0213
2770.00,0.0212
2769.00,0.0212
2768.00,0.0212
2767.00,0.0211
2766.00,0.0211
2765.00,0.0211
2764.00,0.0211
2763.00,0.0211
2762.00,0.0210
2761.00,0.0210
2760.00,0.0210
2759.00,0.0209
2758.00,0.0209
2757.00,0.0209
2756.00,0.0209
2755.00,0.0208
2754.00,0.0208
2753.00,0.0208
2752.00,0.0207
2751.00,0.0207
2750.00,0.0207
2749.00,0.0206
2748.00,0.0206
2747.00,0.0206
2746.00,0.0206
2745.00,0.0205
2744.00,0.0205
2743.00,0.0205
2742.00,0.0205
2741.00,0.0204
2740.00,0.0204
2739.00,0.0204
2738.00,0.0203
2737.00,0.0203
2736.00,0.0203
2735.00,0.0202
2734.00,0.0202
2733.00,0.0202
2732.00,0.0202
2731.00,0.0201
2730.00,0.0201
2729.00,0.0200
2728.00,0.0200
2727.00,0.0200
2726.00,0.0199
2725.00,0.0199
2724.00,0.0199
2723.00,0.0198
2722.00,0.0198
2721.00,0.0198
2720.00,0.0198
2719.00,0.0197
2718.00,0.0197
2717.00,0.0196
2716.00,0.0196
2715.00,0.0196
2714.00,0.0195
2713.00,0.0195
2712.00,0.0195
2711.00,0.0194
2710.00,0.0194
2709.00,0.0194
2708.00,0.0193
2707.00,0.0193
2706.00,0.0193
2705.00,0.0192
2704.00,0.0192
2703.00,0.0192
2702.00,0.0192
2701.00,0.0191
2700.00,0.0191
2699.00,0.0191
2698.00,0.0191
2697.00,0.0190
2696.00,0.0190
2695.00,0.0190
2694.00,0.0190
2693.00,0.0189
2692.00,0.0189
2691.00,0.0189
2690.00,0.0189
2689.00,0.0189
2688.00,0.0189
2687.00,0.0188
2686.00,0.0188
2685.00,0.0188
2684.00,0.0188
2683.00,0.0188
2682.00,0.0188
2681.00,0.0187
2680.00,0.0187
2679.00,0.0187
2678.00,0.0187
2677.00,0.0187
2676.00,0.0187
2675.00,0.0187
2674.00,0.0186
2673.00,0.0186
2672.00,0.0186
2671.00,0.0186
2670.00,0.0186
2669.00,0.0186
2668.00,0.0186
2667.00,0.0186
2666.00,0.0187
2665.00,0.0187
2664.00,0.0187
2663.00,0.0188
2662.00,0.0188
2661.00,0.0188
2660.00,0.0188
2659.00,0.0188
2658.00,0.0188
2657.00,0.0188
2656.00,0.0188
2655.00,0.0188
2654.00,0.0188
2653.00,0.0188
2652.00,0.0188
2651.00,0.0188
2650.00,0.0188
2649.00,0.0188
2648.00,0.0187
2647.00,0.0187
2646.00,0.0187
2645.00,0.0187
2644.00,0.0187
2643.00,0.0186
2642.00,0.0186
2641.00,0.0186
2640.00,0.0186
2639.00,0.0186
2638.00,0.0185
2637.00,0.0185
2636.00,0.0185
2635.00,0.0185
2634.00,0.0185
2633.00,0.0185
2632.00,0.0185
2631.00,0.0185
2630.00,0.0184
2629.00,0.0184
2628.00,0.0184
2627.00,0.0184
2626.00,0.0183
2625.00,0.0183
2624.00,0.0183
2623.00,0.0183
2622.00,0.0183
2621.00,0.0182
2620.00,0.0182
2619.00,0.0182
2618.00,0.0182
2617.00,0.0181
2616.00,0.0181
2615.00,0.0181
2614.00,0.0180
2613.00,0.0180
2612.00,0.0180
2611.00,0.0180
2610.00,0.0180
2609.00,0.0180
2608.00,0.0179
2607.00,0.0179
2606.00,0.0179
2605.00,0.0179
2604.00,0.0178
2603.00,0.0178
2602.00,0.0178
2601.00,0.0178
2600.00,0.0177
2599.00,0.0177
2598.00,0.0177
2597.00,0.0177
2596.00,0.0176
2595.00,0.0176
2594.00,0.0176
2593.00,0.0175
2592.00,0.0175
2591.00,0.0175
2590.00,0.0175
2589.00,0.0175
2588.00,0.0174
2587.00,0.0174
2586.00,0.0174
2585.00,0.0173
2584.00,0.0173
2583.00,0.0172
2582.00,0.0172
2581.00,0.0172
2580.00,0.0172
2579.00,0.0172
2578.00,0.0171
2577.00,0.0171
2576.00,0.0171
2575.00,0.0171
2574.00,0.0171
2573.00,0.0171
2572.00,0.0170
2571.00,0.0170
2570.00,0.0170
2569.00,0.0170
2568.00,0.0169
2567.00,0.0169
2566.00,0.0169
2565.00,0.0169
2564.00,0.0169
2563.00,0.0168
2562.00,0.0168
2561.00,0.0168
2560.00,0.0169
2559.00,0.0168
2558.00,0.0168
2557.00,0.0168
2556.00,0.0168
2555.00,0.0168
2554.00,0.0167
2553.00,0.0167
2552.00,0.0167
2551.00,0.0167
2550.00,0.0166
2549.00,0.0166
2548.00,0.0166
2547.00,0.0166
2546.00,0.0166
2545.00,0.0166
2544.00,0.0166
2543.00,0.0166
2542.00,0.0166
2541.00,0.0166
2540.00,0.0165
2539.00,0.0165
2538.00,0.0164
2537.00,0.0164
2536.00,0.0164
2535.00,0.0164
2534.00,0.0164
2533.00,0.0164
2532.00,0.0164
2531.00,0.0164
2530.00,0.0164
2529.00,0.0164
2528.00,0.0164
2527.00,0.0164
2526.00,0.0164
2525.00,0.0163
2524.00,0.0163
2523.00,0.0163
2522.00,0.0163
2521.00,0.0163
2520.00,0.0163
2519.00,0.0163
2518.00,0.0163
2517.00,0.0163
2516.00,0.0163
2515.00,0.0163
2514.00,0.0162
2513.00,0.0162
2512.00,0.0162
2511.00,0.0162
2510.00,0.0162
2509.00,0.0162
2508.00,0.0162
2507.00,0.0162
2506.00,0.0162
2505.00,0.0162
2504.00,0.0162
2503.00,0.0162
2502.00,0.0161
2501.00,0.0161
2500.00,0.0161
2499.00,0.0161
2498.00,0.0161
2497.00,0.0161
2496.00,0.0161
2495.00,0.0160
2494.00,0.0160
2493.00,0.0160
2492.00,0.0160
2491.00,0.0159
2490.00,0.0159
2489.00,0.0159
2488.00,0.0159
2487.00,0.0159
2486.00,0.0159
2485.00,0.0159
2484.00,0.0158
2483.00,0.0158
2482.00,0.0158
2481.00,0.0158
2480.00,0.0158
2479.00,0.0158
2478.00,0.0157
2477.00,0.0157
2476.00,0.0157
2475.00,0.0157
2474.00,0.0157
2473.00,0.0157
2472.00,0.0157
2471.00,0.0157
2470.00,0.0157
2469.00,0.0157
2468.00,0.0157
2467.00,0.0157
2466.00,0.0156
2465.00,0.0156
2464.00,0.0156
2463.00,0.0156
2462.00,0.0156
2461.00,0.0156
2460.00,0.0156
2459.00,0.0156
2458.00,0.0156
2457.00,0.0156
2456.00,0.0156
2455.00,0.0156
2454.00,0.0155
2453.00,0.0155
2452.00,0.0155
2451.00,0.0155
2450.00,0.0154
2449.00,0.0154
2448.00,0.0154
2447.00,0.0154
2446.00,0.0153
2445.00,0.0153
2444.00,0.0153
2443.00,0.0153
2442.00,0.0153
2441.00,0.0152
2440.00,0.0152
2439.00,0.0152
2438.00,0.0152
2437.00,0.0152
2436.00,0.0151
2435.00,0.0151
2434.00,0.0151
2433.00,0.0151
2432.00,0.0151
2431.00,0.0150
2430.00,0.0150
2429.00,0.0150
2428.00,0.0150
2427.00,0.0150
2426.00,0.0150
2425.00,0.0150
2424.00,0.0149
2423.00,0.0149
2422.00,0.0149
2421.00,0.0149
2420.00,0.0149
2419.00,0.0148
2418.00,0.0148
2417.00,0.0148
2416.00,0.0148
2415.00,0.0148
2414.00,0.0148
2413.00,0.0148
2412.00,0.0148
2411.00,0.0148
2410.00,0.0147
2409.00,0.0147
2408.00,0.0146
2407.00,0.0146
2406.00,0.0145
2405.00,0.0145
2404.00,0.0145
2403.00,0.0145
2402.00,0.0145
2401.00,0.0145
2400.00,0.0145
2399.00,0.0145
2398.00,0.0145
2397.00,0.0145
2396.00,0.0144
2395.00,0.0144
2394.00,0.0144
2393.00,0.0144
2392.00,0.0144
2391.00,0.0143
2390.00,0.0143
2389.00,0.0143
2388.00,0.0143
2387.00,0.0143
2386.00,0.0142
2385.00,0.0142
2384.00,0.0141
2383.00,0.0141
2382.00,0.0140
2381.00,0.0140
2380.00,0.0139
2379.00,0.0139
2378.00,0.0139
2377.00,0.0139
2376.00,0.0139
2375.00,0.0139
2374.00,0.0139
2373.00,0.0139
2372.00,0.0139
2371.00,0.0138
2370.00,0.0138
2369.00,0.0137
2368.00,0.0137
2367.00,0.0137
2366.00,0.0137
2365.00,0.0137
2364.00,0.0137
2363.00,0.0137
2362.00,0.0137
2361.00,0.0137
2360.00,0.0137
2359.00,0.0137
2358.00,0.0137
2357.00,0.0137
2356.00,0.0137
2355.00,0.0137
2354.00,0.0137
2353.00,0.0136
2352.00,0.0136
2351.00,0.0137
2350.00,0.0137
2349.00,0.0138
2348.00,0.0139
2347.00,0.0139
2346.00,0.0138
2345.00,0.0138
2344.00,0.0138
2343.00,0.0139
2342.00,0.0139
2341.00,0.0139
2340.00,0.0139
2339.00,0.0139
2338.00,0.0139
2337.00,0.0139
2336.00,0.0139
2335.00,0.0139
2334.00,0.0138
2333.00,0.0138
2332.00,0.0138
2331.00,0.0138
2330.00,0.0139
2329.00,0.0141
2328.00,0.0144
2327.00,0.0148
2326.00,0.0150
2325.00,0.0151
2324.00,0.0150
2323.00,0.0148
2322.00,0.0146
2321.00,0.0145
2320.00,0.0144
2319.00,0.0143
2318.00,0.0143
2317.00,0.0143
2316.00,0.0142
2315.00,0.0142
2314.00,0.0141
2313.00,0.0141
2312.00,0.0141
2311.00,0.0140
2310.00,0.0140
2309.00,0.0140
2308.00,0.0140
2307.00,0.0140
2306.00,0.0140
2305.00,0.0140
2304.00,0.0140
2303.00,0.0141
2302.00,0.0141
2301.00,0.0141
2300.00,0.0141
2299.00,0.0142
2298.00,0.0142
2297.00,0.0142
2296.00,0.0143
2295.00,0.0143
2294.00,0.0144
2293.00,0.0145
2292.00,0.0145
2291.00,0.0146
2290.00,0.0146
2289.00,0.0147
2288.00,0.0147
2287.00,0.0146
2286.00,0.0146
2285.00,0.0145
2284.00,0.0145
2283.00,0.0144
2282.00,0.0143
2281.00,0.0143
2280.00,0.0142
2279.00,0.0142
2278.00,0.0142
2277.00,0.0141
2276.00,0.0141
2275.00,0.0140
2274.00,0.0140
2273.00,0.0140
2272.00,0.0140
2271.00,0.0139
2270.00,0.0139
2269.00,0.0139
2268.00,0.0139
2267.00,0.0138
2266.00,0.0137
2265.00,0.0137
2264.00,0.0137
2263.00,0.0137
2262.00,0.0138
2261.00,0.0138
2260.00,0.0138
2259.00,0.0138
2258.00,0.0137
2257.00,0.0136
2256.00,0.0135
2255.00,0.0134
2254.00,0.0134
2253.00,0.0134
2252.00,0.0134
2251.00,0.0135
2250.00,0.0135
2249.00,0.0135
2248.00,0.0135
2247.00,0.0135
2246.00,0.0135
2245.00,0.0135
2244.00,0.0135
2243.00,0.0135
2242.00,0.0135
2241.00,0.0135
2240.00,0.0135
2239.00,0.0135
2238.00,0.0134
2237.00,0.0134
2236.00,0.0135
2235.00,0.0135
2234.00,0.0135
2233.00,0.0135
2232.00,0.0135
2231.00,0.0134
2230.00,0.0134
2229.00,0.0134
2228.00,0.0133
2227.00,0.0133
2226.00,0.0133
2225.00,0.0133
2224.00,0.0133
2223.00,0.0133
2222.00,0.0133
2221.00,0.0133
2220.00,0.0132
2219.00,0.0132
2218.00,0.0132
2217.00,0.0132
2216.00,0.0132
2215.00,0.0133
2214.00,0.0133
2213.00,0.0133
2212.00,0.0132
2211.00,0.0132
2210.00,0.0132
2209.00,0.0132
2208.00,0.0132
2207.00,0.0132
2206.00,0.0132
2205.00,0.0132
2204.00,0.0132
2203.00,0.0133
2202.00,0.0133
2201.00,0.0133
2200.00,0.0133
2199.00,0.0133
2198.00,0.0133
2197.00,0.0133
2196.00,0.0133
2195.00,0.0133
2194.00,0.0133
2193.00,0.0133
2192.00,0.0133
2191.00,0.0133
2190.00,0.0133
2189.00,0.0134
2188.00,0.0135
2187.00,0.0135
2186.00,0.0135
2185.00,0.0133
2184.00,0.0131
2183.00,0.0129
2182.00,0.0127
2181.00,0.0128
2180.00,0.0128
2179.00,0.0128
2178.00,0.0128
2177.00,0.0126
2176.00,0.0125
2175.00,0.0126
2174.00,0.0127
2173.00,0.0129
2172.00,0.0131
2171.00,0.0133
2170.00,0.0135
2169.00,0.0136
2168.00,0.0137
2167.00,0.0138
2166.00,0.0139
2165.00,0.0140
2164.00,0.0142
2163.00,0.0141
2162.00,0.0136
2161.00,0.0125
2160.00,0.0111
2159.00,0.0100
2158.00,0.0096
2157.00,0.0097
2156.00,0.0100
2155.00,0.0104
2154.00,0.0106
2153.00,0.0109
2152.00,0.0110
2151.00,0.0111
2150.00,0.0112
2149.00,0.0112
2148.00,0.0112
2147.00,0.0112
2146.00,0.0112
2145.00,0.0112
2144.00,0.0113
2143.00,0.0113
2142.00,0.0113
2141.00,0.0114
2140.00,0.0114
2139.00,0.0114
2138.00,0.0113
2137.00,0.0111
2136.00,0.0110
2135.00,0.0108
2134.00,0.0108
2133.00,0.0109
2132.00,0.0110
2131.00,0.0112
2130.00,0.0113
2129.00,0.0114
2128.00,0.0116
2127.00,0.0117
2126.00,0.0118
2125.00,0.0118
2124.00,0.0119
2123.00,0.0120
2122.00,0.0121
2121.00,0.0123
2120.00,0.0124
2119.00,0.0124
2118.00,0.0125
2117.00,0.0126
2116.00,0.0127
2115.00,0.0127
2114.00,0.0127
2113.00,0.0127
2112.00,0.0127
2111.00,0.0127
2110.00,0.0127
2109.00,0.0127
2108.00,0.0127
2107.00,0.0127
2106.00,0.0127
2105.00,0.0127
2104.00,0.0127
2103.00,0.0127
2102.00,0.0127
2101.00,0.0127
2100.00,0.0127
2099.00,0.0126
2098.00,0.0125
2097.00,0.0124
2096.00,0.0122
2095.00,0.0121
2094.00,0.0122
2093.00,0.0123
2092.00,0.0124
2091.00,0.0125
2090.00,0.0125
2089.00,0.0125
2088.00,0.0125
2087.00,0.0126
2086.00,0.0126
2085.00,0.0127
2084.00,0.0127
2083.00,0.0127
2082.00,0.0127
2081.00,0.0127
2080.00,0.0127
2079.00,0.0127
2078.00,0.0127
2077.00,0.0127
2076.00,0.0126
2075.00,0.0126
2074.00,0.0125
2073.00,0.0125
2072.00,0.0125
2071.00,0.0125
2070.00,0.0124
2069.00,0.0124
2068.00,0.0124
2067.00,0.0124
2066.00,0.0124
2065.00,0.0124
2064.00,0.0124
2063.00,0.0124
2062.00,0.0123
2061.00,0.0123
2060.00,0.0123
2059.00,0.0124
2058.00,0.0124
2057.00,0.0124
2056.00,0.0124
2055.00,0.0125
2054.00,0.0127
2053.00,0.0130
2052.00,0.0133
2051.00,0.0133
2050.00,0.0130
2049.00,0.0126
2048.00,0.0124
2047.00,0.0123
2046.00,0.0122
2045.00,0.0122
2044.00,0.0122
2043.00,0.0123
2042.00,0.0123
2041.00,0.0124
2040.00,0.0124
2039.00,0.0124
2038.00,0.0123
2037.00,0.0123
2036.00,0.0123
2035.00,0.0121
2034.00,0.0119
2033.00,0.0117
2032.00,0.0114
2031.00,0.0113
2030.00,0.0112
2029.00,0.0111
2028.00,0.0111
2027.00,0.0111
2026.00,0.0111
2025.00,0.0111
2024.00,0.0111
2023.00,0.0112
2022.00,0.0113
2021.00,0.0113
2020.00,0.0113
2019.00,0.0113
2018.00,0.0113
2017.00,0.0113
2016.00,0.0113
2015.00,0.0113
2014.00,0.0113
2013.00,0.0113
2012.00,0.0113
2011.00,0.0113
2010.00,0.0112
2009.00,0.0111
2008.00,0.0108
2007.00,0.0106
2006.00,0.0106
2005.00,0.0106
2004.00,0.0107
2003.00,0.0108
2002.00,0.0109
2001.00,0.0110
2000.00,0.0112
1999.00,0.0112
1998.00,0.0113
1997.00,0.0113
1996.00,0.0114
1995.00,0.0114
1994.00,0.0114
1993.00,0.0115
1992.00,0.0115
1991.00,0.0115
1990.00,0.0115
1989.00,0.0116
1988.00,0.0117
1987.00,0.0118
1986.00,0.0119
1985.00,0.0120
1984.00,0.0122
1983.00,0.0123
1982.00,0.0124
1981.00,0.0124
1980.00,0.0121
1979.00,0.0116
1978.00,0.0110
1977.00,0.0106
1976.00,0.0104
1975.00,0.0103
1974.00,0.0103
1973.00,0.0104
1972.00,0.0104
1971.00,0.0104
1970.00,0.0104
1969.00,0.0105
1968.00,0.0106
1967.00,0.0106
1966.00,0.0105
1965.00,0.0104
1964.00,0.0104
1963.00,0.0104
1962.00,0.0104
1961.00,0.0103
1960.00,0.0102
1959.00,0.0101
1958.00,0.0100
1957.00,0.0101
1956.00,0.0102
1955.00,0.0103
1954.00,0.0103
1953.00,0.0103
1952.00,0.0104
1951.00,0.0104
1950.00,0.0104
1949.00,0.0104
1948.00,0.0105
1947.00,0.0104
1946.00,0.0104
1945.00,0.0104
1944.00,0.0105
1943.00,0.0105
1942.00,0.0104
1941.00,0.0104
1940.00,0.0104
1939.00,0.0104
1938.00,0.0104
1937.00,0.0104
1936.00,0.0104
1935.00,0.0104
1934.00,0.0104
1933.00,0.0104
1932.00,0.0104
1931.00,0.0104
1930.00,0.0104
1929.00,0.0103
1928.00,0.0103
1927.00,0.0103
1926.00,0.0103
1925.00,0.0103
1924.00,0.0104
1923.00,0.0105
1922.00,0.0105
1921.00,0.0105
1920.00,0.0105
1919.00,0.0104
1918.00,0.0104
1917.00,0.0104
1916.00,0.0104
1915.00,0.0104
1914.00,0.0105
1913.00,0.0105
1912.00,0.0105
1911.00,0.0105
1910.00,0.0104
1909.00,0.0104
1908.00,0.0104
1907.00,0.0104
1906.00,0.0104
1905.00,0.0104
1904.00,0.0105
1903.00,0.0104
1902.00,0.0104
1901.00,0.0104
1900.00,0.0104
1899.00,0.0103
1898.00,0.0103
1897.00,0.0103
1896.00,0.0104
1895.00,0.0104
1894.00,0.0103
1893.00,0.0103
1892.00,0.0103
1891.00,0.0103
1890.00,0.0103
1889.00,0.0103
1888.00,0.0103
1887.00,0.0103
1886.00,0.0103
1885.00,0.0103
1884.00,0.0103
1883.00,0.0103
1882.00,0.0103
1881.00,0.0102
1880.00,0.0102
1879.00,0.0102
1878.00,0.0102
1877.00,0.0102
1876.00,0.0102
1875.00,0.0102
1874.00,0.0102
1873.00,0.0101
1872.00,0.0101
1871.00,0.0101
1870.00,0.0101
1869.00,0.0101
1868.00,0.0101
1867.00,0.0101
1866.00,0.0101
1865.00,0.0101
1864.00,0.0101
1863.00,0.0101
1862.00,0.0100
1861.00,0.0100
1860.00,0.0100
1859.00,0.0100
1858.00,0.0100
1857.00,0.0100
1856.00,0.0099
1855.00,0.0099
1854.00,0.0099
1853.00,0.0099
1852.00,0.0099
1851.00,0.0099
1850.00,0.0099
1849.00,0.0099
1848.00,0.0098
1847.00,0.0097
1846.00,0.0096
1845.00,0.0096
1844.00,0.0095
1843.00,0.0096
1842.00,0.0096
1841.00,0.0097
1840.00,0.0097
1839.00,0.0098
1838.00,0.0098
1837.00,0.0097
1836.00,0.0097
1835.00,0.0097
1834.00,0.0096
1833.00,0.0096
1832.00,0.0096
1831.00,0.0096
1830.00,0.0096
1829.00,0.0096
1828.00,0.0096
1827.00,0.0095
1826.00,0.0095
1825.00,0.0096
1824.00,0.0096
1823.00,0.0096
1822.00,0.0096
1821.00,0.0096
1820.00,0.0095
1819.00,0.0094
1818.00,0.0093
1817.00,0.0093
1816.00,0.0093
1815.00,0.0094
1814.00,0.0094
1813.00,0.0095
1812.00,0.0095
1811.00,0.0095
1810.00,0.0095
1809.00,0.0095
1808.00,0.0095
1807.00,0.0095
1806.00,0.0095
1805.00,0.0095
1804.00,0.0094
1803.00,0.0094
1802.00,0.0093
1801.00,0.0094
1800.00,0.0094
1799.00,0.0094
1798.00,0.0095
1797.00,0.0095
1796.00,0.0095
1795.00,0.0094
1794.00,0.0094
1793.00,0.0093
1792.00,0.0093
1791.00,0.0092
1790.00,0.0092
1789.00,0.0093
1788.00,0.0093
1787.00,0.0093
1786.00,0.0093
1785.00,0.0093
1784.00,0.0093
1783.00,0.0094
1782.00,0.0094
1781.00,0.0094
1780.00,0.0094
1779.00,0.0094
1778.00,0.0093
1777.00,0.0093
1776.00,0.0094
1775.00,0.0094
1774.00,0.0094
1773.00,0.0095
1772.00,0.0094
1771.00,0.0093
1770.00,0.0092
1769.00,0.0092
1768.00,0.0092
1767.00,0.0093
1766.00,0.0094
1765.00,0.0094
1764.00,0.0095
1763.00,0.0095
1762.00,0.0095
1761.00,0.0095
1760.00,0.0096
1759.00,0.0096
1758.00,0.0097
1757.00,0.0097
1756.00,0.0098
1755.00,0.0099
1754.00,0.0099
1753.00,0.0100
1752.00,0.0102
1751.00,0.0103
1750.00,0.0105
1749.00,0.0107
1748.00,0.0109
1747.00,0.0110
1746.00,0.0111
1745.00,0.0113
1744.00,0.0114
1743.00,0.0115
1742.00,0.0115
1741.00,0.0116
1740.00,0.0118
1739.00,0.0119
1738.00,0.0120
1737.00,0.0120
1736.00,0.0121
1735.00,0.0123
1734.00,0.0125
1733.00,0.0127
1732.00,0.0129
1731.00,0.0131
1730.00,0.0132
1729.00,0.0133
1728.00,0.0134
1727.00,0.0136
1726.00,0.0137
1725.00,0.0138
1724.00,0.0140
1723.00,0.0141
1722.00,0.0141
1721.00,0.0141
1720.00,0.0142
1719.00,0.0144
1718.00,0.0146
1717.00,0.0149
1716.00,0.0151
1715.00,0.0152
1714.00,0.0153
1713.00,0.0155
1712.00,0.0159
1711.00,0.0162
1710.00,0.0165
1709.00,0.0168
1708.00,0.0173
1707.00,0.0178
1706.00,0.0186
1705.00,0.0194
1704.00,0.0202
1703.00,0.0208
1702.00,0.0216
1701.00,0.0230
1700.00,0.0252
1699.00,0.0272
1698.00,0.0285
1697.00,0.0296
1696.00,0.0306
1695.00,0.0315
1694.00,0.0321
1693.00,0.0327
1692.00,0.0333
1691.00,0.0341
1690.00,0.0349
1689.00,0.0358
1688.00,0.0365
1687.00,0.0372
1686.00,0.0379
1685.00,0.0392
1684.00,0.0409
1683.00,0.0423
1682.00,0.0433
1681.00,0.0443
1680.00,0.0454
1679.00,0.0464
1678.00,0.0472
1677.00,0.0480
1676.00,0.0492
1675.00,0.0507
1674.00,0.0521
1673.00,0.0533
1672.00,0.0543
1671.00,0.0554
1670.00,0.0568
1669.00,0.0584
1668.00,0.0599
1667.00,0.0610
1666.00,0.0619
1665.00,0.0628
1664.00,0.0639
1663.00,0.0653
1662.00,0.0668
1661.00,0.0681
1660.00,0.0692
1659.00,0.0702
1658.00,0.0710
1657.00,0.0715
1656.00,0.0718
1655.00,0.0721
1654.00,0.0732
1653.00,0.0753
1652.00,0.0771
1651.00,0.0778
1650.00,0.0778
1649.00,0.0778
1648.00,0.0782
1647.00,0.0790
1646.00,0.0799
1645.00,0.0805
1644.00,0.0809
1643.00,0.0811
1642.00,0.0813
1641.00,0.0816
1640.00,0.0818
1639.00,0.0820
1638.00,0.0821
1637.00,0.0824
1636.00,0.0833
1635.00,0.0845
1634.00,0.0853
1633.00,0.0858
1632.00,0.0862
1631.00,0.0866
1630.00,0.0870
1629.00,0.0876
1628.00,0.0885
1627.00,0.0893
1626.00,0.0898
1625.00,0.0903
1624.00,0.0910
1623.00,0.0919
1622.00,0.0926
1621.00,0.0928
1620.00,0.0926
1619.00,0.0923
1618.00,0.0919
1617.00,0.0917
1616.00,0.0913
1615.00,0.0906
1614.00,0.0895
1613.00,0.0881
1612.00,0.0866
1611.00,0.0849
1610.00,0.0832
1609.00,0.0813
1608.00,0.0794
1607.00,0.0774
1606.00,0.0755
1605.00,0.0736
1604.00,0.0717
1603.00,0.0698
1602.00,0.0680
1601.00,0.0663
1600.00,0.0646
1599.00,0.0631
1598.00,0.0616
1597.00,0.0603
1596.00,0.0589
1595.00,0.0577
1594.00,0.0565
1593.00,0.0553
1592.00,0.0542
1591.00,0.0531
1590.00,0.0522
1589.00,0.0513
1588.00,0.0505
1587.00,0.0498
1586.00,0.0492
1585.00,0.0487
1584.00,0.0482
1583.00,0.0478
1582.00,0.0476
1581.00,0.0474
1580.00,0.0471
1579.00,0.0469
1578.00,0.0469
1577.00,0.0472
1576.00,0.0476
1575.00,0.0479
1574.00,0.0481
1573.00,0.0482
1572.00,0.0483
1571.00,0.0486
1570.00,0.0493
1569.00,0.0502
1568.00,0.0510
1567.00,0.0516
1566.00,0.0523
1565.00,0.0532
1564.00,0.0539
1563.00,0.0544
1562.00,0.0546
1561.00,0.0548
1560.00,0.0557
1559.00,0.0581
1558.00,0.0604
1557.00,0.0617
1556.00,0.0625
1555.00,0.0634
1554.00,0.0645
1553.00,0.0656
1552.00,0.0665
1551.00,0.0674
1550.00,0.0685
1549.00,0.0696
1548.00,0.0703
1547.00,0.0709
1546.00,0.0714
1545.00,0.0722
1544.00,0.0729
1543.00,0.0735
1542.00,0.0742
1541.00,0.0753
1540.00,0.0768
1539.00,0.0781
1538.00,0.0787
1537.00,0.0788
1536.00,0.0787
1535.00,0.0787
1534.00,0.0793
1533.00,0.0802
1532.00,0.0810
1531.00,0.0814
1530.00,0.0817
1529.00,0.0819
1528.00,0.0822
1527.00,0.0827
1526.00,0.0832
1525.00,0.0837
1524.00,0.0839
1523.00,0.0842
1522.00,0.0849
1521.00,0.0858
1520.00,0.0865
1519.00,0.0868
1518.00,0.0870
1517.00,0.0874
1516.00,0.0877
1515.00,0.0877
1514.00,0.0874
1513.00,0.0868
1512.00,0.0861
1511.00,0.0853
1510.00,0.0844
1509.00,0.0834
1508.00,0.0824
1507.00,0.0814
1506.00,0.0804
1505.00,0.0793
1504.00,0.0783
1503.00,0.0770
1502.00,0.0756
1501.00,0.0741
1500.00,0.0726
1499.00,0.0712
1498.00,0.0699
1497.00,0.0686
1496.00,0.0673
1495.00,0.0661
1494.00,0.0648
1493.00,0.0634
1492.00,0.0620
1491.00,0.0606
1490.00,0.0593
1489.00,0.0581
1488.00,0.0569
1487.00,0.0559
1486.00,0.0549
1485.00,0.0540
1484.00,0.0531
1483.00,0.0523
1482.00,0.0516
1481.00,0.0510
1480.00,0.0505
1479.00,0.0499
1478.00,0.0494
1477.00,0.0490
1476.00,0.0488
1475.00,0.0486
1474.00,0.0486
1473.00,0.0488
1472.00,0.0492
1471.00,0.0496
1470.00,0.0498
1469.00,0.0498
1468.00,0.0497
1467.00,0.0496
1466.00,0.0495
1465.00,0.0496
1464.00,0.0498
1463.00,0.0500
1462.00,0.0502
1461.00,0.0503
1460.00,0.0503
1459.00,0.0506
1458.00,0.0512
1457.00,0.0523
1456.00,0.0533
1455.00,0.0540
1454.00,0.0544
1453.00,0.0547
1452.00,0.0548
1451.00,0.0549
1450.00,0.0550
1449.00,0.0550
1448.00,0.0551
1447.00,0.0551
1446.00,0.0551
1445.00,0.0549
1444.00,0.0547
1443.00,0.0544
1442.00,0.0540
1441.00,0.0536
1440.00,0.0531
1439.00,0.0525
1438.00,0.0519
1437.00,0.0514
1436.00,0.0513
1435.00,0.0512
1434.00,0.0512
1433.00,0.0509
1432.00,0.0507
1431.00,0.0505
1430.00,0.0504
1429.00,0.0504
1428.00,0.0504
1427.00,0.0505
1426.00,0.0506
1425.00,0.0508
1424.00,0.0511
1423.00,0.0514
1422.00,0.0515
1421.00,0.0516
1420.00,0.0518
1419.00,0.0525
1418.00,0.0532
1417.00,0.0538
1416.00,0.0543
1415.00,0.0547
1414.00,0.0551
1413.00,0.0555
1412.00,0.0559
1411.00,0.0563
1410.00,0.0567
1409.00,0.0570
1408.00,0.0573
1407.00,0.0575
1406.00,0.0578
1405.00,0.0581
1404.00,0.0584
1403.00,0.0586
1402.00,0.0587
1401.00,0.0586
1400.00,0.0587
1399.00,0.0588
1398.00,0.0590
1397.00,0.0591
1396.00,0.0591
1395.00,0.0592
1394.00,0.0594
1393.00,0.0596
1392.00,0.0597
1391.00,0.0597
1390.00,0.0597
1389.00,0.0596
1388.00,0.0597
1387.00,0.0598
1386.00,0.0600
1385.00,0.0600
1384.00,0.0599
1383.00,0.0598
1382.00,0.0597
1381.00,0.0596
1380.00,0.0595
1379.00,0.0594
1378.00,0.0592
1377.00,0.0591
1376.00,0.0589
1375.00,0.0589
1374.00,0.0589
1373.00,0.0588
1372.00,0.0588
1371.00,0.0587
1370.00,0.0586
1369.00,0.0584
1368.00,0.0583
1367.00,0.0580
1366.00,0.0577
1365.00,0.0574
1364.00,0.0570
1363.00,0.0568
1362.00,0.0567
1361.00,0.0566
1360.00,0.0565
1359.00,0.0564
1358.00,0.0563
1357.00,0.0563
1356.00,0.0562
1355.00,0.0562
1354.00,0.0563
1353.00,0.0563
1352.00,0.0564
1351.00,0.0565
1350.00,0.0566
1349.00,0.0568
1348.00,0.0569
1347.00,0.0570
1346.00,0.0572
1345.00,0.0573
1344.00,0.0575
1343.00,0.0576
1342.00,0.0577
1341.00,0.0579
1340.00,0.0580
1339.00,0.0582
1338.00,0.0583
1337.00,0.0583
1336.00,0.0583
1335.00,0.0583
1334.00,0.0582
1333.00,0.0582
1332.00,0.0581
1331.00,0.0580
1330.00,0.0580
1329.00,0.0579
1328.00,0.0578
1327.00,0.0577
1326.00,0.0577
1325.00,0.0576
1324.00,0.0575
1323.00,0.0574
1322.00,0.0574
1321.00,0.0573
1320.00,0.0573
1319.00,0.0573
1318.00,0.0572
1317.00,0.0572
1316.00,0.0571
1315.00,0.0570
1314.00,0.0569
1313.00,0.0568
1312.00,0.0566
1311.00,0.0565
1310.00,0.0563
1309.00,0.0561
1308.00,0.0558
1307.00,0.0556
1306.00,0.0554
1305.00,0.0551
1304.00,0.0548
1303.00,0.0546
1302.00,0.0543
1301.00,0.0541
1300.00,0.0538
1299.00,0.0536
1298.00,0.0533
1297.00,0.0531
1296.00,0.0528
1295.00,0.0526
1294.00,0.0524
1293.00,0.0522
1292.00,0.0520
1291.00,0.0518
1290.00,0.0517
1289.00,0.0515
1288.00,0.0514
1287.00,0.0512
1286.00,0.0511
1285.00,0.0510
1284.00,0.0508
1283.00,0.0507
1282.00,0.0506
1281.00,0.0504
1280.00,0.0503
1279.00,0.0501
1278.00,0.0500
1277.00,0.0499
1276.00,0.0498
1275.00,0.0498
1274.00,0.0497
1273.00,0.0497
1272.00,0.0497
1271.00,0.0497
1270.00,0.0497
1269.00,0.0498
1268.00,0.0498
1267.00,0.0498
1266.00,0.0499
1265.00,0.0500
1264.00,0.0501
1263.00,0.0503
1262.00,0.0504
1261.00,0.0506
1260.00,0.0508
1259.00,0.0510
1258.00,0.0513
1257.00,0.0515
1256.00,0.0518
1255.00,0.0521
1254.00,0.0524
1253.00,0.0527
1252.00,0.0530
1251.00,0.0533
1250.00,0.0537
1249.00,0.0540
1248.00,0.0543
1247.00,0.0546
1246.00,0.0549
1245.00,0.0552
1244.00,0.0555
1243.00,0.0558
1242.00,0.0560
1241.00,0.0562
1240.00,0.0564
1239.00,0.0566
1238.00,0.0568
1237.00,0.0569
1236.00,0.0570
1235.00,0.0571
1234.00,0.0572
1233.00,0.0572
1232.00,0.0572
1231.00,0.0573
1230.00,0.0573
1229.00,0.0572
1228.00,0.0572
1227.00,0.0571
1226.00,0.0570
1225.00,0.0569
1224.00,0.0568
1223.00,0.0567
1222.00,0.0566
1221.00,0.0564
1220.00,0.0563
1219.00,0.0561
1218.00,0.0559
1217.00,0.0557
1216.00,0.0555
1215.00,0.0552
1214.00,0.0550
1213.00,0.0547
1212.00,0.0544
1211.00,0.0542
1210.00,0.0539
1209.00,0.0536
1208.00,0.0533
1207.00,0.0529
1206.00,0.0526
1205.00,0.0523
1204.00,0.0519
1203.00,0.0515
1202.00,0.0511
1201.00,0.0508
1200.00,0.0504
1199.00,0.0500
1198.00,0.0497
1197.00,0.0494
1196.00,0.0491
1195.00,0.0488
1194.00,0.0485
1193.00,0.0483
1192.00,0.0480
1191.00,0.0478
1190.00,0.0476
1189.00,0.0474
1188.00,0.0473
1187.00,0.0471
1186.00,0.0470
1185.00,0.0469
1184.00,0.0468
1183.00,0.0467
1182.00,0.0467
1181.00,0.0467
1180.00,0.0467
1179.00,0.0468
1178.00,0.0469
1177.00,0.0471
1176.00,0.0473
1175.00,0.0475
1174.00,0.0478
1173.00,0.0480
1172.00,0.0483
1171.00,0.0485
1170.00,0.0487
1169.00,0.0489
1168.00,0.0491
1167.00,0.0492
1166.00,0.0494
1165.00,0.0495
1164.00,0.0495
1163.00,0.0496
1162.00,0.0497
1161.00,0.0497
1160.00,0.0496
1159.00,0.0496
1158.00,0.0495
1157.00,0.0494
1156.00,0.0492
1155.00,0.0490
1154.00,0.0488
1153.00,0.0486
1152.00,0.0483
1151.00,0.0481
1150.00,0.0478
1149.00,0.0476
1148.00,0.0473
1147.00,0.0470
1146.00,0.0468
1145.00,0.0465
1144.00,0.0463
1143.00,0.0461
1142.00,0.0459
1141.00,0.0458
1140.00,0.0456
1139.00,0.0454
1138.00,0.0453
1137.00,0.0452
1136.00,0.0450
1135.00,0.0449
1134.00,0.0448
1133.00,0.0447
1132.00,0.0446
1131.00,0.0446
1130.00,0.0445
1129.00,0.0444
1128.00,0.0443
1127.00,0.0442
1126.00,0.0442
1125.00,0.0441
1124.00,0.0440
1123.00,0.0439
1122.00,0.0439
1121.00,0.0438
1120.00,0.0437
1119.00,0.0436
1118.00,0.0435
1117.00,0.0434
1116.00,0.0433
1115.00,0.0432
1114.00,0.0431
1113.00,0.0430
1112.00,0.0429
1111.00,0.0428
1110.00,0.0427
1109.00,0.0427
1108.00,0.0426
1107.00,0.0425
1106.00,0.0424
1105.00,0.0424
1104.00,0.0423
1103.00,0.0423
1102.00,0.0423
1101.00,0.0422
1100.00,0.0422
1099.00,0.0421
1098.00,0.0422
1097.00,0.0422
1096.00,0.0423
1095.00,0.0424
1094.00,0.0426
1093.00,0.0428
1092.00,0.0430
1091.00,0.0432
1090.00,0.0436
1089.00,0.0440
1088.00,0.0443
1087.00,0.0447
1086.00,0.0452
1085.00,0.0457
1084.00,0.0461
1083.00,0.0466
1082.00,0.0472
1081.00,0.0477
1080.00,0.0481
1079.00,0.0485
1078.00,0.0490
1077.00,0.0495
1076.00,0.0498
1075.00,0.0502
1074.00,0.0506
1073.00,0.0510
1072.00,0.0513
1071.00,0.0516
1070.00,0.0519
1069.00,0.0522
1068.00,0.0524
1067.00,0.0526
1066.00,0.0528
1065.00,0.0530
1064.00,0.0531
1063.00,0.0532
1062.00,0.0532
1061.00,0.0532
1060.00,0.0530
1059.00,0.0528
1058.00,0.0527
1057.00,0.0525
1056.00,0.0522
1055.00,0.0520
1054.00,0.0518
1053.00,0.0516
1052.00,0.0514
1051.00,0.0512
1050.00,0.0511
1049.00,0.0510
1048.00,0.0509
1047.00,0.0508
1046.00,0.0508
1045.00,0.0507
1044.00,0.0507
1043.00,0.0507
1042.00,0.0507
1041.00,0.0507
1040.00,0.0506
1039.00,0.0505
1038.00,0.0505
1037.00,0.0504
1036.00,0.0502
1035.00,0.0500
1034.00,0.0499
1033.00,0.0496
1032.00,0.0493
1031.00,0.0490
1030.00,0.0486
1029.00,0.0482
1028.00,0.0477
1027.00,0.0472
1026.00,0.0468
1025.00,0.0463
1024.00,0.0457
1023.00,0.0452
1022.00,0.0447
1021.00,0.0443
1020.00,0.0439
1019.00,0.0435
1018.00,0.0431
1017.00,0.0428
1016.00,0.0424
1015.00,0.0420
1014.00,0.0417
1013.00,0.0414
1012.00,0.0411
1011.00,0.0408
1010.00,0.0406
1009.00,0.0403
1008.00,0.0400
1007.00,0.0397
1006.00,0.0395
1005.00,0.0392
1004.00,0.0390
1003.00,0.0387
1002.00,0.0385
1001.00,0.0383
1000.00,0.0381
999.00,0.0379
998.00,0.0378
997.00,0.0377
996.00,0.0375
995.00,0.0373
994.00,0.0373
993.00,0.0372
992.00,0.0370
991.00,0.0369
990.00,0.0368
989.00,0.0367
988.00,0.0366
987.00,0.0365
986.00,0.0364
985.00,0.0364
984.00,0.0363
983.00,0.0363
982.00,0.0363
981.00,0.0362
980.00,0.0362
979.00,0.0362
978.00,0.0363
977.00,0.0364
976.00,0.0364
975.00,0.0364
974.00,0.0365
973.00,0.0366
972.00,0.0366
971.00,0.0367
970.00,0.0368
969.00,0.0369
968.00,0.0370
967.00,0.0371
966.00,0.0372
965.00,0.0373
964.00,0.0373
963.00,0.0373
962.00,0.0374
961.00,0.0373
960.00,0.0372
959.00,0.0371
958.00,0.0371
957.00,0.0369
956.00,0.0367
955.00,0.0366
954.00,0.0364
953.00,0.0363
952.00,0.0361
951.00,0.0360
950.00,0.0359
949.00,0.0358
948.00,0.0357
947.00,0.0356
946.00,0.0355
945.00,0.0355
944.00,0.0354
943.00,0.0353
942.00,0.0353
941.00,0.0353
940.00,0.0352
939.00,0.0352
938.00,0.0353
937.00,0.0353
936.00,0.0353
935.00,0.0352
934.00,0.0353
933.00,0.0353
932.00,0.0352
931.00,0.0352
930.00,0.0351
929.00,0.0351
928.00,0.0350
927.00,0.0349
926.00,0.0348
925.00,0.0347
924.00,0.0345
923.00,0.0344
922.00,0.0343
921.00,0.0342
920.00,0.0340
919.00,0.0338
918.00,0.0337
917.00,0.0335
916.00,0.0333
915.00,0.0332
914.00,0.0331
913.00,0.0330
912.00,0.0328
911.00,0.0327
910.00,0.0327
909.00,0.0327
908.00,0.0326
907.00,0.0325
906.00,0.0325
905.00,0.0325
904.00,0.0324
903.00,0.0324
902.00,0.0324
901.00,0.0324
900.00,0.0323
899.00,0.0322
898.00,0.0322
897.00,0.0321
896.00,0.0320
895.00,0.0320
894.00,0.0319
893.00,0.0319
892.00,0.0317
891.00,0.0316
890.00,0.0316
889.00,0.0315
888.00,0.0313
887.00,0.0312
886.00,0.0312
885.00,0.0311
884.00,0.0310
883.00,0.0310
882.00,0.0310
881.00,0.0311
880.00,0.0311
879.00,0.0311
878.00,0.0311
877.00,0.0311
876.00,0.0311
875.00,0.0311
874.00,0.0311
873.00,0.0312
872.00,0.0311
871.00,0.0311
870.00,0.0311
869.00,0.0311
868.00,0.0310
867.00,0.0310
866.00,0.0309
865.00,0.0309
864.00,0.0308
863.00,0.0307
862.00,0.0307
861.00,0.0307
860.00,0.0306
859.00,0.0306
858.00,0.0306
857.00,0.0306
856.00,0.0307
855.00,0.0307
854.00,0.0308
853.00,0.0308
852.00,0.0308
851.00,0.0308
850.00,0.0308
849.00,0.0308
848.00,0.0307
847.00,0.0306
846.00,0.0306
845.00,0.0306
844.00,0.0306
843.00,0.0306
842.00,0.0307
841.00,0.0307
840.00,0.0307
839.00,0.0307
838.00,0.0309
837.00,0.0310
836.00,0.0311
835.00,0.0313
834.00,0.0317
833.00,0.0321
832.00,0.0324
831.00,0.0329
830.00,0.0334
829.00,0.0338
828.00,0.0341
827.00,0.0343
826.00,0.0343
825.00,0.0342
824.00,0.0339
823.00,0.0336
822.00,0.0334
821.00,0.0332
820.00,0.0330
819.00,0.0330
818.00,0.0330
817.00,0.0331
816.00,0.0331
815.00,0.0331
814.00,0.0333
813.00,0.0334
812.00,0.0335
811.00,0.0336
810.00,0.0338
809.00,0.0339
808.00,0.0340
807.00,0.0340
806.00,0.0342
805.00,0.0343
804.00,0.0343
803.00,0.0344
802.00,0.0345
801.00,0.0346
800.00,0.0346
799.00,0.0346
798.00,0.0347
797.00,0.0349
796.00,0.0349
795.00,0.0351
794.00,0.0353
793.00,0.0355
792.00,0.0357
791.00,0.0359
790.00,0.0362
789.00,0.0365
788.00,0.0367
787.00,0.0369
786.00,0.0372
785.00,0.0374
784.00,0.0376
783.00,0.0379
782.00,0.0382
781.00,0.0385
780.00,0.0387
779.00,0.0389
778.00,0.0392
777.00,0.0395
776.00,0.0397
775.00,0.0399
774.00,0.0402
773.00,0.0404
772.00,0.0406
771.00,0.0407
770.00,0.0409
769.00,0.0411
768.00,0.0412
767.00,0.0413
766.00,0.0415
765.00,0.0416
764.00,0.0417
763.00,0.0418
762.00,0.0419
761.00,0.0420
760.00,0.0421
759.00,0.0421
758.00,0.0423
757.00,0.0425
756.00,0.0426
755.00,0.0427
754.00,0.0429
753.00,0.0432
752.00,0.0434
751.00,0.0436
750.00,0.0438
749.00,0.0440
748.00,0.0441
747.00,0.0443
746.00,0.0445
745.00,0.0447
744.00,0.0448
743.00,0.0449
742.00,0.0450
741.00,0.0451
740.00,0.0452
739.00,0.0452
738.00,0.0453
737.00,0.0454
736.00,0.0454
735.00,0.0454
734.00,0.0455
733.00,0.0456
732.00,0.0457
731.00,0.0459
730.00,0.0462
729.00,0.0465
728.00,0.0468
727.00,0.0472
726.00,0.0477
725.00,0.0481
724.00,0.0486
723.00,0.0490
722.00,0.0495
721.00,0.0501
720.00,0.0505
719.00,0.0511
718.00,0.0517
717.00,0.0523
716.00,0.0529
715.00,0.0534
714.00,0.0541
713.00,0.0547
712.00,0.0553
711.00,0.0558
710.00,0.0565
709.00,0.0571
708.00,0.0578
707.00,0.0584
706.00,0.0592
705.00,0.0599
704.00,0.0605
703.00,0.0611
702.00,0.0618
701.00,0.0623
700.00,0.0627
699.00,0.0630
698.00,0.0632
697.00,0.0634
696.00,0.0634
695.00,0.0634
694.00,0.0634
693.00,0.0635
692.00,0.0635
691.00,0.0635
690.00,0.0637
689.00,0.0638
688.00,0.0639
687.00,0.0641
686.00,0.0643
685.00,0.0644
684.00,0.0645
683.00,0.0645
682.00,0.0647
681.00,0.0649
680.00,0.0650
679.00,0.0652
678.00,0.0654
677.00,0.0655
676.00,0.0656
675.00,0.0657
674.00,0.0659
673.00,0.0661
672.00,0.0662
671.00,0.0663
670.00,0.0664
669.00,0.0667
668.00,0.0671
667.00,0.0674
666.00,0.0676
665.00,0.0676
664.00,0.0675
663.00,0.0675
662.00,0.0676
661.00,0.0678
660.00,0.0679
659.00,0.0680
658.00,0.0683
657.00,0.0685
656.00,0.0686
655.00,0.0687
654.00,0.0689
653.00,0.0691
652.00,0.0692
651.00,0.0693
650.00,0.0696
649.00,0.0698
648.00,0.0699
647.00,0.0701
646.00,0.0703
645.00,0.0706
644.00,0.0707
643.00,0.0709
642.00,0.0713
641.00,0.0716
640.00,0.0717
639.00,0.0719
638.00,0.0722
637.00,0.0725
636.00,0.0726
635.00,0.0728
634.00,0.0731
633.00,0.0734
632.00,0.0735
631.00,0.0738
630.00,0.0741
629.00,0.0744
628.00,0.0745
627.00,0.0746
626.00,0.0748
625.00,0.0750
624.00,0.0750
623.00,0.0751
622.00,0.0753
621.00,0.0754
620.00,0.0754
619.00,0.0754
618.00,0.0755
617.00,0.0756
616.00,0.0755
615.00,0.0754
614.00,0.0755
613.00,0.0756
612.00,0.0755
611.00,0.0754
610.00,0.0755
609.00,0.0755
608.00,0.0754
607.00,0.0753
606.00,0.0754
605.00,0.0754
604.00,0.0753
603.00,0.0752
602.00,0.0753
601.00,0.0754
600.00,0.0753
599.00,0.0752
598.00,0.0753
597.00,0.0753
596.00,0.0752
595.00,0.0753
594.00,0.0754
593.00,0.0756
592.00,0.0756
591.00,0.0756
590.00,0.0758
589.00,0.0759
588.00,0.0758
587.00,0.0758
586.00,0.0760
585.00,0.0762
584.00,0.0762
583.00,0.0762
582.00,0.0764
581.00,0.0766
580.00,0.0766
579.00,0.0766
578.00,0.0768
577.00,0.0770
576.00,0.0770
575.00,0.0771
574.00,0.0773
573.00,0.0775
572.00,0.0774
571.00,0.0775
570.00,0.0777
569.00,0.0780
568.00,0.0780
567.00,0.0780
566.00,0.0781
565.00,0.0783
564.00,0.0783
563.00,0.0784
562.00,0.0786
561.00,0.0788
560.00,0.0788
559.00,0.0788
558.00,0.0790
557.00,0.0791
556.00,0.0790
555.00,0.0791
554.00,0.0794
553.00,0.0796
552.00,0.0796
551.00,0.0796
550.00,0.0799
549.00,0.0801
548.00,0.0801
547.00,0.0801
546.00,0.0803
545.00,0.0805
544.00,0.0805
543.00,0.0805
542.00,0.0808
541.00,0.0811
540.00,0.0811
539.00,0.0811
538.00,0.0814
537.00,0.0816
536.00,0.0815
535.00,0.0815
534.00,0.0817
533.00,0.0819
532.00,0.0819
531.00,0.0820
530.00,0.0823
529.00,0.0825
528.00,0.0824
527.00,0.0825
526.00,0.0828
525.00,0.0831
524.00,0.0831
523.00,0.0830
522.00,0.0831
521.00,0.0833
520.00,0.0831
519.00,0.0831
518.00,0.0833
517.00,0.0834
516.00,0.0831
515.00,0.0829
514.00,0.0830
513.00,0.0829
512.00,0.0826
511.00,0.0823
510.00,0.0822
509.00,0.0822
508.00,0.0818
507.00,0.0816
506.00,0.0816
505.00,0.0816
504.00,0.0813
503.00,0.0810
502.00,0.0812
501.00,0.0812
500.00,0.0810
499.00,0.0809
498.00,0.0810
497.00,0.0811
496.00,0.0809
495.00,0.0807
494.00,0.0807
493.00,0.0807
492.00,0.0804
491.00,0.0802
490.00,0.0804
489.00,0.0804
488.00,0.0801
487.00,0.0799
486.00,0.0801
485.00,0.0803
484.00,0.0801
483.00,0.0800
482.00,0.0803
481.00,0.0805
480.00,0.0802
479.00,0.0799
478.00,0.0801
477.00,0.0802
476.00,0.0800
475.00,0.0797
474.00,0.0799
473.00,0.0801
472.00,0.0799
471.00,0.0797
470.00,0.0800
469.00,0.0801
468.00,0.0798
467.00,0.0796
466.00,0.0799
465.00,0.0802
464.00,0.0799
463.00,0.0797
462.00,0.0800
461.00,0.0802
460.00,0.0797
459.00,0.0792
458.00,0.0793
457.00,0.0794
456.00,0.0790
455.00,0.0788
454.00,0.0791
453.00,0.0793
452.00,0.0790
451.00,0.0787
450.00,0.0787
449.00,0.0787
448.00,0.0781
447.00,0.0775
446.00,0.0775
445.00,0.0774
444.00,0.0767
443.00,0.0762
442.00,0.0763
441.00,0.0764
440.00,0.0757
439.00,0.0750
438.00,0.0748
437.00,0.0746
436.00,0.0737
435.00,0.0732
434.00,0.0734
433.00,0.0734
432.00,0.0728
431.00,0.0722
430.00,0.0723
429.00,0.0724
428.00,0.0720
427.00,0.0716
426.00,0.0718
425.00,0.0720
424.00,0.0712
423.00,0.0706
422.00,0.0708
421.00,0.0706
420.00,0.0691
419.00,0.0679
418.00,0.0686
417.00,0.0694
416.00,0.0690
415.00,0.0687
414.00,0.0694
413.00,0.0699
412.00,0.0692
411.00,0.0685
410.00,0.0690
409.00,0.0694
408.00,0.0686
407.00,0.0680
406.00,0.0686
405.00,0.0689
404.00,0.0676
403.00,0.0665
402.00,0.0671
401.00,0.0674
400.00,0.0656
