Created as New Dataset,Sample 337 By YargerLab Date Monday, August 19 2024
cm-1,A
4000.00,0.0131
3999.00,0.0131
3998.00,0.0131
3997.00,0.0131
3996.00,0.0131
3995.00,0.0131
3994.00,0.0131
3993.00,0.0131
3992.00,0.0131
3991.00,0.0131
3990.00,0.0131
3989.00,0.0131
3988.00,0.0131
3987.00,0.0131
3986.00,0.0131
3985.00,0.0131
3984.00,0.0131
3983.00,0.0131
3982.00,0.0131
3981.00,0.0131
3980.00,0.0131
3979.00,0.0131
3978.00,0.0131
3977.00,0.0131
3976.00,0.0131
3975.00,0.0131
3974.00,0.0131
3973.00,0.0131
3972.00,0.0131
3971.00,0.0131
3970.00,0.0131
3969.00,0.0131
3968.00,0.0131
3967.00,0.0131
3966.00,0.0131
3965.00,0.0131
3964.00,0.0131
3963.00,0.0131
3962.00,0.0131
3961.00,0.0131
3960.00,0.0131
3959.00,0.0131
3958.00,0.0131
3957.00,0.0131
3956.00,0.0131
3955.00,0.0131
3954.00,0.0131
3953.00,0.0131
3952.00,0.0131
3951.00,0.0131
3950.00,0.0131
3949.00,0.0131
3948.00,0.0132
3947.00,0.0132
3946.00,0.0132
3945.00,0.0132
3944.00,0.0131
3943.00,0.0131
3942.00,0.0131
3941.00,0.0131
3940.00,0.0131
3939.00,0.0131
3938.00,0.0131
3937.00,0.0131
3936.00,0.0131
3935.00,0.0131
3934.00,0.0131
3933.00,0.0132
3932.00,0.0131
3931.00,0.0131
3930.00,0.0131
3929.00,0.0131
3928.00,0.0131
3927.00,0.0131
3926.00,0.0131
3925.00,0.0131
3924.00,0.0131
3923.00,0.0131
3922.00,0.0131
3921.00,0.0131
3920.00,0.0131
3919.00,0.0131
3918.00,0.0131
3917.00,0.0131
3916.00,0.0131
3915.00,0.0131
3914.00,0.0130
3913.00,0.0130
3912.00,0.0130
3911.00,0.0130
3910.00,0.0130
3909.00,0.0130
3908.00,0.0130
3907.00,0.0130
3906.00,0.0131
3905.00,0.0131
3904.00,0.0131
3903.00,0.0132
3902.00,0.0132
3901.00,0.0132
3900.00,0.0132
3899.00,0.0131
3898.00,0.0131
3897.00,0.0131
3896.00,0.0131
3895.00,0.0130
3894.00,0.0130
3893.00,0.0130
3892.00,0.0130
3891.00,0.0130
3890.00,0.0130
3889.00,0.0130
3888.00,0.0130
3887.00,0.0131
3886.00,0.0131
3885.00,0.0131
3884.00,0.0131
3883.00,0.0131
3882.00,0.0130
3881.00,0.0130
3880.00,0.0130
3879.00,0.0130
3878.00,0.0130
3877.00,0.0130
3876.00,0.0131
3875.00,0.0131
3874.00,0.0130
3873.00,0.0130
3872.00,0.0130
3871.00,0.0130
3870.00,0.0130
3869.00,0.0130
3868.00,0.0130
3867.00,0.0130
3866.00,0.0130
3865.00,0.0130
3864.00,0.0130
3863.00,0.0130
3862.00,0.0130
3861.00,0.0130
3860.00,0.0130
3859.00,0.0130
3858.00,0.0130
3857.00,0.0129
3856.00,0.0129
3855.00,0.0130
3854.00,0.0130
3853.00,0.0130
3852.00,0.0130
3851.00,0.0130
3850.00,0.0130
3849.00,0.0130
3848.00,0.0129
3847.00,0.0129
3846.00,0.0129
3845.00,0.0129
3844.00,0.0129
3843.00,0.0129
3842.00,0.0130
3841.00,0.0130
3840.00,0.0130
3839.00,0.0130
3838.00,0.0130
3837.00,0.0130
3836.00,0.0130
3835.00,0.0129
3834.00,0.0129
3833.00,0.0129
3832.00,0.0129
3831.00,0.0129
3830.00,0.0129
3829.00,0.0129
3828.00,0.0129
3827.00,0.0129
3826.00,0.0129
3825.00,0.0129
3824.00,0.0129
3823.00,0.0129
3822.00,0.0129
3821.00,0.0129
3820.00,0.0129
3819.00,0.0129
3818.00,0.0129
3817.00,0.0129
3816.00,0.0128
3815.00,0.0128
3814.00,0.0128
3813.00,0.0128
3812.00,0.0128
3811.00,0.0128
3810.00,0.0127
3809.00,0.0127
3808.00,0.0128
3807.00,0.0128
3806.00,0.0128
3805.00,0.0128
3804.00,0.0128
3803.00,0.0128
3802.00,0.0128
3801.00,0.0128
3800.00,0.0128
3799.00,0.0127
3798.00,0.0127
3797.00,0.0127
3796.00,0.0127
3795.00,0.0127
3794.00,0.0127
3793.00,0.0127
3792.00,0.0126
3791.00,0.0126
3790.00,0.0126
3789.00,0.0126
3788.00,0.0126
3787.00,0.0126
3786.00,0.0126
3785.00,0.0126
3784.00,0.0126
3783.00,0.0126
3782.00,0.0126
3781.00,0.0126
3780.00,0.0126
3779.00,0.0126
3778.00,0.0126
3777.00,0.0126
3776.00,0.0126
3775.00,0.0126
3774.00,0.0126
3773.00,0.0126
3772.00,0.0126
3771.00,0.0126
3770.00,0.0126
3769.00,0.0126
3768.00,0.0126
3767.00,0.0126
3766.00,0.0127
3765.00,0.0127
3764.00,0.0126
3763.00,0.0126
3762.00,0.0126
3761.00,0.0126
3760.00,0.0126
3759.00,0.0126
3758.00,0.0126
3757.00,0.0126
3756.00,0.0126
3755.00,0.0126
3754.00,0.0127
3753.00,0.0127
3752.00,0.0127
3751.00,0.0127
3750.00,0.0128
3749.00,0.0128
3748.00,0.0128
3747.00,0.0127
3746.00,0.0127
3745.00,0.0127
3744.00,0.0127
3743.00,0.0126
3742.00,0.0126
3741.00,0.0126
3740.00,0.0126
3739.00,0.0126
3738.00,0.0127
3737.00,0.0127
3736.00,0.0126
3735.00,0.0126
3734.00,0.0126
3733.00,0.0125
3732.00,0.0125
3731.00,0.0125
3730.00,0.0125
3729.00,0.0124
3728.00,0.0124
3727.00,0.0124
3726.00,0.0124
3725.00,0.0124
3724.00,0.0124
3723.00,0.0124
3722.00,0.0123
3721.00,0.0123
3720.00,0.0123
3719.00,0.0123
3718.00,0.0123
3717.00,0.0123
3716.00,0.0123
3715.00,0.0123
3714.00,0.0123
3713.00,0.0123
3712.00,0.0123
3711.00,0.0123
3710.00,0.0122
3709.00,0.0122
3708.00,0.0122
3707.00,0.0122
3706.00,0.0122
3705.00,0.0122
3704.00,0.0122
3703.00,0.0122
3702.00,0.0121
3701.00,0.0121
3700.00,0.0121
3699.00,0.0121
3698.00,0.0121
3697.00,0.0121
3696.00,0.0121
3695.00,0.0121
3694.00,0.0121
3693.00,0.0122
3692.00,0.0122
3691.00,0.0122
3690.00,0.0122
3689.00,0.0122
3688.00,0.0122
3687.00,0.0122
3686.00,0.0122
3685.00,0.0122
3684.00,0.0122
3683.00,0.0122
3682.00,0.0122
3681.00,0.0122
3680.00,0.0122
3679.00,0.0123
3678.00,0.0123
3677.00,0.0124
3676.00,0.0124
3675.00,0.0125
3674.00,0.0125
3673.00,0.0125
3672.00,0.0125
3671.00,0.0125
3670.00,0.0125
3669.00,0.0124
3668.00,0.0124
3667.00,0.0125
3666.00,0.0125
3665.00,0.0125
3664.00,0.0125
3663.00,0.0125
3662.00,0.0125
3661.00,0.0125
3660.00,0.0125
3659.00,0.0126
3658.00,0.0126
3657.00,0.0126
3656.00,0.0127
3655.00,0.0127
3654.00,0.0128
3653.00,0.0129
3652.00,0.0129
3651.00,0.0130
3650.00,0.0131
3649.00,0.0131
3648.00,0.0131
3647.00,0.0131
3646.00,0.0131
3645.00,0.0131
3644.00,0.0131
3643.00,0.0131
3642.00,0.0131
3641.00,0.0131
3640.00,0.0132
3639.00,0.0132
3638.00,0.0132
3637.00,0.0133
3636.00,0.0133
3635.00,0.0134
3634.00,0.0135
3633.00,0.0135
3632.00,0.0136
3631.00,0.0136
3630.00,0.0137
3629.00,0.0138
3628.00,0.0138
3627.00,0.0139
3626.00,0.0139
3625.00,0.0139
3624.00,0.0140
3623.00,0.0140
3622.00,0.0141
3621.00,0.0141
3620.00,0.0142
3619.00,0.0142
3618.00,0.0143
3617.00,0.0144
3616.00,0.0144
3615.00,0.0145
3614.00,0.0145
3613.00,0.0146
3612.00,0.0146
3611.00,0.0147
3610.00,0.0148
3609.00,0.0148
3608.00,0.0148
3607.00,0.0149
3606.00,0.0149
3605.00,0.0150
3604.00,0.0150
3603.00,0.0151
3602.00,0.0151
3601.00,0.0152
3600.00,0.0152
3599.00,0.0153
3598.00,0.0153
3597.00,0.0154
3596.00,0.0154
3595.00,0.0155
3594.00,0.0156
3593.00,0.0156
3592.00,0.0157
3591.00,0.0158
3590.00,0.0158
3589.00,0.0159
3588.00,0.0159
3587.00,0.0160
3586.00,0.0161
3585.00,0.0162
3584.00,0.0162
3583.00,0.0163
3582.00,0.0163
3581.00,0.0164
3580.00,0.0164
3579.00,0.0165
3578.00,0.0165
3577.00,0.0166
3576.00,0.0166
3575.00,0.0167
3574.00,0.0168
3573.00,0.0168
3572.00,0.0169
3571.00,0.0170
3570.00,0.0171
3569.00,0.0172
3568.00,0.0173
3567.00,0.0174
3566.00,0.0175
3565.00,0.0176
3564.00,0.0177
3563.00,0.0177
3562.00,0.0178
3561.00,0.0178
3560.00,0.0179
3559.00,0.0179
3558.00,0.0180
3557.00,0.0180
3556.00,0.0181
3555.00,0.0182
3554.00,0.0182
3553.00,0.0183
3552.00,0.0184
3551.00,0.0185
3550.00,0.0186
3549.00,0.0187
3548.00,0.0188
3547.00,0.0189
3546.00,0.0190
3545.00,0.0191
3544.00,0.0191
3543.00,0.0192
3542.00,0.0193
3541.00,0.0193
3540.00,0.0194
3539.00,0.0194
3538.00,0.0195
3537.00,0.0195
3536.00,0.0196
3535.00,0.0197
3534.00,0.0197
3533.00,0.0198
3532.00,0.0199
3531.00,0.0200
3530.00,0.0201
3529.00,0.0202
3528.00,0.0203
3527.00,0.0204
3526.00,0.0205
3525.00,0.0205
3524.00,0.0206
3523.00,0.0207
3522.00,0.0207
3521.00,0.0208
3520.00,0.0208
3519.00,0.0209
3518.00,0.0210
3517.00,0.0210
3516.00,0.0211
3515.00,0.0212
3514.00,0.0213
3513.00,0.0214
3512.00,0.0214
3511.00,0.0215
3510.00,0.0216
3509.00,0.0216
3508.00,0.0217
3507.00,0.0218
3506.00,0.0219
3505.00,0.0220
3504.00,0.0221
3503.00,0.0222
3502.00,0.0223
3501.00,0.0224
3500.00,0.0224
3499.00,0.0225
3498.00,0.0226
3497.00,0.0226
3496.00,0.0227
3495.00,0.0228
3494.00,0.0229
3493.00,0.0229
3492.00,0.0230
3491.00,0.0231
3490.00,0.0232
3489.00,0.0233
3488.00,0.0234
3487.00,0.0235
3486.00,0.0235
3485.00,0.0236
3484.00,0.0237
3483.00,0.0238
3482.00,0.0239
3481.00,0.0240
3480.00,0.0242
3479.00,0.0242
3478.00,0.0243
3477.00,0.0244
3476.00,0.0245
3475.00,0.0246
3474.00,0.0247
3473.00,0.0248
3472.00,0.0248
3471.00,0.0249
3470.00,0.0250
3469.00,0.0251
3468.00,0.0252
3467.00,0.0253
3466.00,0.0254
3465.00,0.0255
3464.00,0.0256
3463.00,0.0257
3462.00,0.0258
3461.00,0.0259
3460.00,0.0260
3459.00,0.0261
3458.00,0.0261
3457.00,0.0262
3456.00,0.0263
3455.00,0.0264
3454.00,0.0265
3453.00,0.0266
3452.00,0.0267
3451.00,0.0267
3450.00,0.0268
3449.00,0.0269
3448.00,0.0270
3447.00,0.0271
3446.00,0.0272
3445.00,0.0273
3444.00,0.0274
3443.00,0.0275
3442.00,0.0276
3441.00,0.0277
3440.00,0.0278
3439.00,0.0279
3438.00,0.0280
3437.00,0.0281
3436.00,0.0282
3435.00,0.0283
3434.00,0.0284
3433.00,0.0285
3432.00,0.0286
3431.00,0.0287
3430.00,0.0287
3429.00,0.0288
3428.00,0.0289
3427.00,0.0290
3426.00,0.0291
3425.00,0.0292
3424.00,0.0293
3423.00,0.0293
3422.00,0.0294
3421.00,0.0295
3420.00,0.0297
3419.00,0.0298
3418.00,0.0298
3417.00,0.0299
3416.00,0.0300
3415.00,0.0301
3414.00,0.0302
3413.00,0.0303
3412.00,0.0304
3411.00,0.0304
3410.00,0.0305
3409.00,0.0306
3408.00,0.0307
3407.00,0.0308
3406.00,0.0308
3405.00,0.0309
3404.00,0.0310
3403.00,0.0311
3402.00,0.0312
3401.00,0.0313
3400.00,0.0314
3399.00,0.0315
3398.00,0.0315
3397.00,0.0316
3396.00,0.0317
3395.00,0.0318
3394.00,0.0319
3393.00,0.0319
3392.00,0.0320
3391.00,0.0321
3390.00,0.0322
3389.00,0.0323
3388.00,0.0323
3387.00,0.0324
3386.00,0.0325
3385.00,0.0326
3384.00,0.0327
3383.00,0.0328
3382.00,0.0329
3381.00,0.0330
3380.00,0.0331
3379.00,0.0332
3378.00,0.0333
3377.00,0.0334
3376.00,0.0335
3375.00,0.0336
3374.00,0.0337
3373.00,0.0338
3372.00,0.0339
3371.00,0.0340
3370.00,0.0341
3369.00,0.0342
3368.00,0.0344
3367.00,0.0345
3366.00,0.0346
3365.00,0.0348
3364.00,0.0349
3363.00,0.0351
3362.00,0.0352
3361.00,0.0353
3360.00,0.0355
3359.00,0.0356
3358.00,0.0357
3357.00,0.0359
3356.00,0.0360
3355.00,0.0361
3354.00,0.0363
3353.00,0.0364
3352.00,0.0365
3351.00,0.0366
3350.00,0.0368
3349.00,0.0370
3348.00,0.0371
3347.00,0.0373
3346.00,0.0374
3345.00,0.0376
3344.00,0.0377
3343.00,0.0379
3342.00,0.0381
3341.00,0.0382
3340.00,0.0384
3339.00,0.0386
3338.00,0.0388
3337.00,0.0390
3336.00,0.0392
3335.00,0.0394
3334.00,0.0396
3333.00,0.0398
3332.00,0.0400
3331.00,0.0402
3330.00,0.0404
3329.00,0.0406
3328.00,0.0408
3327.00,0.0410
3326.00,0.0412
3325.00,0.0414
3324.00,0.0416
3323.00,0.0419
3322.00,0.0421
3321.00,0.0424
3320.00,0.0426
3319.00,0.0429
3318.00,0.0431
3317.00,0.0434
3316.00,0.0436
3315.00,0.0439
3314.00,0.0442
3313.00,0.0444
3312.00,0.0446
3311.00,0.0449
3310.00,0.0451
3309.00,0.0454
3308.00,0.0456
3307.00,0.0459
3306.00,0.0462
3305.00,0.0466
3304.00,0.0469
3303.00,0.0473
3302.00,0.0476
3301.00,0.0479
3300.00,0.0482
3299.00,0.0484
3298.00,0.0487
3297.00,0.0490
3296.00,0.0493
3295.00,0.0495
3294.00,0.0498
3293.00,0.0501
3292.00,0.0504
3291.00,0.0507
3290.00,0.0510
3289.00,0.0513
3288.00,0.0516
3287.00,0.0518
3286.00,0.0521
3285.00,0.0523
3284.00,0.0525
3283.00,0.0526
3282.00,0.0528
3281.00,0.0530
3280.00,0.0531
3279.00,0.0532
3278.00,0.0533
3277.00,0.0533
3276.00,0.0534
3275.00,0.0534
3274.00,0.0534
3273.00,0.0533
3272.00,0.0533
3271.00,0.0532
3270.00,0.0532
3269.00,0.0532
3268.00,0.0531
3267.00,0.0530
3266.00,0.0528
3265.00,0.0527
3264.00,0.0525
3263.00,0.0523
3262.00,0.0521
3261.00,0.0519
3260.00,0.0517
3259.00,0.0515
3258.00,0.0512
3257.00,0.0510
3256.00,0.0508
3255.00,0.0506
3254.00,0.0504
3253.00,0.0502
3252.00,0.0500
3251.00,0.0497
3250.00,0.0495
3249.00,0.0492
3248.00,0.0490
3247.00,0.0488
3246.00,0.0486
3245.00,0.0485
3244.00,0.0483
3243.00,0.0481
3242.00,0.0479
3241.00,0.0477
3240.00,0.0475
3239.00,0.0473
3238.00,0.0471
3237.00,0.0469
3236.00,0.0467
3235.00,0.0465
3234.00,0.0463
3233.00,0.0462
3232.00,0.0461
3231.00,0.0460
3230.00,0.0459
3229.00,0.0458
3228.00,0.0457
3227.00,0.0456
3226.00,0.0454
3225.00,0.0453
3224.00,0.0452
3223.00,0.0451
3222.00,0.0449
3221.00,0.0448
3220.00,0.0447
3219.00,0.0446
3218.00,0.0445
3217.00,0.0444
3216.00,0.0443
3215.00,0.0442
3214.00,0.0441
3213.00,0.0440
3212.00,0.0439
3211.00,0.0438
3210.00,0.0437
3209.00,0.0436
3208.00,0.0435
3207.00,0.0434
3206.00,0.0433
3205.00,0.0432
3204.00,0.0432
3203.00,0.0431
3202.00,0.0430
3201.00,0.0429
3200.00,0.0428
3199.00,0.0427
3198.00,0.0426
3197.00,0.0425
3196.00,0.0424
3195.00,0.0423
3194.00,0.0422
3193.00,0.0421
3192.00,0.0419
3191.00,0.0418
3190.00,0.0417
3189.00,0.0416
3188.00,0.0415
3187.00,0.0413
3186.00,0.0412
3185.00,0.0411
3184.00,0.0410
3183.00,0.0409
3182.00,0.0407
3181.00,0.0406
3180.00,0.0405
3179.00,0.0403
3178.00,0.0402
3177.00,0.0401
3176.00,0.0400
3175.00,0.0399
3174.00,0.0397
3173.00,0.0396
3172.00,0.0395
3171.00,0.0393
3170.00,0.0392
3169.00,0.0391
3168.00,0.0389
3167.00,0.0388
3166.00,0.0387
3165.00,0.0386
3164.00,0.0384
3163.00,0.0383
3162.00,0.0382
3161.00,0.0380
3160.00,0.0379
3159.00,0.0378
3158.00,0.0376
3157.00,0.0375
3156.00,0.0374
3155.00,0.0372
3154.00,0.0371
3153.00,0.0370
3152.00,0.0369
3151.00,0.0368
3150.00,0.0367
3149.00,0.0366
3148.00,0.0365
3147.00,0.0364
3146.00,0.0363
3145.00,0.0362
3144.00,0.0361
3143.00,0.0360
3142.00,0.0359
3141.00,0.0358
3140.00,0.0357
3139.00,0.0356
3138.00,0.0355
3137.00,0.0354
3136.00,0.0354
3135.00,0.0353
3134.00,0.0352
3133.00,0.0351
3132.00,0.0350
3131.00,0.0350
3130.00,0.0349
3129.00,0.0348
3128.00,0.0348
3127.00,0.0347
3126.00,0.0347
3125.00,0.0346
3124.00,0.0345
3123.00,0.0344
3122.00,0.0344
3121.00,0.0343
3120.00,0.0342
3119.00,0.0342
3118.00,0.0342
3117.00,0.0341
3116.00,0.0341
3115.00,0.0341
3114.00,0.0342
3113.00,0.0342
3112.00,0.0342
3111.00,0.0341
3110.00,0.0341
3109.00,0.0341
3108.00,0.0341
3107.00,0.0342
3106.00,0.0342
3105.00,0.0342
3104.00,0.0342
3103.00,0.0342
3102.00,0.0342
3101.00,0.0342
3100.00,0.0343
3099.00,0.0343
3098.00,0.0344
3097.00,0.0344
3096.00,0.0345
3095.00,0.0345
3094.00,0.0345
3093.00,0.0345
3092.00,0.0345
3091.00,0.0346
3090.00,0.0346
3089.00,0.0346
3088.00,0.0347
3087.00,0.0347
3086.00,0.0347
3085.00,0.0347
3084.00,0.0347
3083.00,0.0347
3082.00,0.0348
3081.00,0.0348
3080.00,0.0348
3079.00,0.0348
3078.00,0.0349
3077.00,0.0350
3076.00,0.0351
3075.00,0.0351
3074.00,0.0351
3073.00,0.0352
3072.00,0.0352
3071.00,0.0351
3070.00,0.0351
3069.00,0.0350
3068.00,0.0350
3067.00,0.0350
3066.00,0.0350
3065.00,0.0350
3064.00,0.0351
3063.00,0.0350
3062.00,0.0350
3061.00,0.0350
3060.00,0.0349
3059.00,0.0348
3058.00,0.0348
3057.00,0.0347
3056.00,0.0346
3055.00,0.0345
3054.00,0.0344
3053.00,0.0343
3052.00,0.0342
3051.00,0.0341
3050.00,0.0341
3049.00,0.0340
3048.00,0.0339
3047.00,0.0338
3046.00,0.0337
3045.00,0.0335
3044.00,0.0334
3043.00,0.0333
3042.00,0.0332
3041.00,0.0332
3040.00,0.0331
3039.00,0.0331
3038.00,0.0330
3037.00,0.0329
3036.00,0.0328
3035.00,0.0326
3034.00,0.0326
3033.00,0.0325
3032.00,0.0325
3031.00,0.0324
3030.00,0.0323
3029.00,0.0323
3028.00,0.0322
3027.00,0.0320
3026.00,0.0319
3025.00,0.0318
3024.00,0.0317
3023.00,0.0316
3022.00,0.0315
3021.00,0.0314
3020.00,0.0312
3019.00,0.0311
3018.00,0.0310
3017.00,0.0309
3016.00,0.0308
3015.00,0.0307
3014.00,0.0306
3013.00,0.0306
3012.00,0.0305
3011.00,0.0305
3010.00,0.0305
3009.00,0.0305
3008.00,0.0305
3007.00,0.0305
3006.00,0.0304
3005.00,0.0304
3004.00,0.0304
3003.00,0.0303
3002.00,0.0303
3001.00,0.0303
3000.00,0.0303
2999.00,0.0303
2998.00,0.0303
2997.00,0.0303
2996.00,0.0304
2995.00,0.0304
2994.00,0.0304
2993.00,0.0305
2992.00,0.0306
2991.00,0.0307
2990.00,0.0308
2989.00,0.0310
2988.00,0.0311
2987.00,0.0312
2986.00,0.0313
2985.00,0.0314
2984.00,0.0315
2983.00,0.0317
2982.00,0.0318
2981.00,0.0319
2980.00,0.0321
2979.00,0.0322
2978.00,0.0324
2977.00,0.0325
2976.00,0.0327
2975.00,0.0328
2974.00,0.0330
2973.00,0.0331
2972.00,0.0332
2971.00,0.0334
2970.00,0.0335
2969.00,0.0336
2968.00,0.0337
2967.00,0.0338
2966.00,0.0339
2965.00,0.0339
2964.00,0.0340
2963.00,0.0340
2962.00,0.0340
2961.00,0.0340
2960.00,0.0340
2959.00,0.0340
2958.00,0.0340
2957.00,0.0340
2956.00,0.0339
2955.00,0.0339
2954.00,0.0339
2953.00,0.0339
2952.00,0.0338
2951.00,0.0338
2950.00,0.0339
2949.00,0.0339
2948.00,0.0339
2947.00,0.0339
2946.00,0.0340
2945.00,0.0341
2944.00,0.0342
2943.00,0.0344
2942.00,0.0345
2941.00,0.0347
2940.00,0.0349
2939.00,0.0350
2938.00,0.0351
2937.00,0.0353
2936.00,0.0354
2935.00,0.0355
2934.00,0.0355
2933.00,0.0356
2932.00,0.0356
2931.00,0.0355
2930.00,0.0355
2929.00,0.0354
2928.00,0.0353
2927.00,0.0351
2926.00,0.0348
2925.00,0.0345
2924.00,0.0342
2923.00,0.0338
2922.00,0.0333
2921.00,0.0327
2920.00,0.0321
2919.00,0.0315
2918.00,0.0309
2917.00,0.0305
2916.00,0.0302
2915.00,0.0302
2914.00,0.0304
2913.00,0.0307
2912.00,0.0311
2911.00,0.0314
2910.00,0.0316
2909.00,0.0317
2908.00,0.0317
2907.00,0.0317
2906.00,0.0316
2905.00,0.0316
2904.00,0.0315
2903.00,0.0314
2902.00,0.0313
2901.00,0.0313
2900.00,0.0312
2899.00,0.0311
2898.00,0.0310
2897.00,0.0310
2896.00,0.0309
2895.00,0.0309
2894.00,0.0308
2893.00,0.0308
2892.00,0.0307
2891.00,0.0307
2890.00,0.0307
2889.00,0.0307
2888.00,0.0307
2887.00,0.0307
2886.00,0.0307
2885.00,0.0308
2884.00,0.0308
2883.00,0.0309
2882.00,0.0309
2881.00,0.0310
2880.00,0.0311
2879.00,0.0311
2878.00,0.0312
2877.00,0.0312
2876.00,0.0312
2875.00,0.0312
2874.00,0.0312
2873.00,0.0312
2872.00,0.0312
2871.00,0.0311
2870.00,0.0310
2869.00,0.0309
2868.00,0.0308
2867.00,0.0306
2866.00,0.0305
2865.00,0.0304
2864.00,0.0303
2863.00,0.0302
2862.00,0.0301
2861.00,0.0300
2860.00,0.0300
2859.00,0.0299
2858.00,0.0298
2857.00,0.0297
2856.00,0.0296
2855.00,0.0294
2854.00,0.0291
2853.00,0.0287
2852.00,0.0282
2851.00,0.0276
2850.00,0.0271
2849.00,0.0268
2848.00,0.0267
2847.00,0.0269
2846.00,0.0272
2845.00,0.0275
2844.00,0.0277
2843.00,0.0278
2842.00,0.0279
2841.00,0.0278
2840.00,0.0278
2839.00,0.0277
2838.00,0.0277
2837.00,0.0276
2836.00,0.0276
2835.00,0.0275
2834.00,0.0275
2833.00,0.0274
2832.00,0.0273
2831.00,0.0273
2830.00,0.0272
2829.00,0.0272
2828.00,0.0271
2827.00,0.0271
2826.00,0.0270
2825.00,0.0270
2824.00,0.0269
2823.00,0.0269
2822.00,0.0268
2821.00,0.0268
2820.00,0.0267
2819.00,0.0267
2818.00,0.0267
2817.00,0.0266
2816.00,0.0266
2815.00,0.0265
2814.00,0.0265
2813.00,0.0264
2812.00,0.0264
2811.00,0.0263
2810.00,0.0263
2809.00,0.0263
2808.00,0.0262
2807.00,0.0262
2806.00,0.0261
2805.00,0.0261
2804.00,0.0261
2803.00,0.0260
2802.00,0.0260
2801.00,0.0260
2800.00,0.0259
2799.00,0.0259
2798.00,0.0258
2797.00,0.0258
2796.00,0.0258
2795.00,0.0258
2794.00,0.0257
2793.00,0.0257
2792.00,0.0256
2791.00,0.0256
2790.00,0.0256
2789.00,0.0255
2788.00,0.0255
2787.00,0.0255
2786.00,0.0255
2785.00,0.0254
2784.00,0.0254
2783.00,0.0254
2782.00,0.0253
2781.00,0.0253
2780.00,0.0253
2779.00,0.0252
2778.00,0.0252
2777.00,0.0252
2776.00,0.0251
2775.00,0.0251
2774.00,0.0251
2773.00,0.0250
2772.00,0.0250
2771.00,0.0250
2770.00,0.0250
2769.00,0.0249
2768.00,0.0249
2767.00,0.0249
2766.00,0.0249
2765.00,0.0248
2764.00,0.0248
2763.00,0.0248
2762.00,0.0247
2761.00,0.0247
2760.00,0.0247
2759.00,0.0246
2758.00,0.0246
2757.00,0.0246
2756.00,0.0245
2755.00,0.0245
2754.00,0.0245
2753.00,0.0245
2752.00,0.0244
2751.00,0.0244
2750.00,0.0244
2749.00,0.0243
2748.00,0.0243
2747.00,0.0243
2746.00,0.0242
2745.00,0.0242
2744.00,0.0242
2743.00,0.0242
2742.00,0.0241
2741.00,0.0241
2740.00,0.0241
2739.00,0.0240
2738.00,0.0240
2737.00,0.0240
2736.00,0.0240
2735.00,0.0239
2734.00,0.0239
2733.00,0.0238
2732.00,0.0238
2731.00,0.0238
2730.00,0.0237
2729.00,0.0237
2728.00,0.0237
2727.00,0.0236
2726.00,0.0236
2725.00,0.0236
2724.00,0.0235
2723.00,0.0235
2722.00,0.0235
2721.00,0.0234
2720.00,0.0234
2719.00,0.0234
2718.00,0.0233
2717.00,0.0233
2716.00,0.0233
2715.00,0.0232
2714.00,0.0232
2713.00,0.0232
2712.00,0.0231
2711.00,0.0231
2710.00,0.0231
2709.00,0.0230
2708.00,0.0230
2707.00,0.0230
2706.00,0.0229
2705.00,0.0229
2704.00,0.0229
2703.00,0.0229
2702.00,0.0228
2701.00,0.0228
2700.00,0.0228
2699.00,0.0228
2698.00,0.0227
2697.00,0.0227
2696.00,0.0227
2695.00,0.0227
2694.00,0.0226
2693.00,0.0226
2692.00,0.0226
2691.00,0.0226
2690.00,0.0226
2689.00,0.0225
2688.00,0.0225
2687.00,0.0225
2686.00,0.0225
2685.00,0.0225
2684.00,0.0225
2683.00,0.0224
2682.00,0.0224
2681.00,0.0224
2680.00,0.0224
2679.00,0.0224
2678.00,0.0223
2677.00,0.0223
2676.00,0.0223
2675.00,0.0223
2674.00,0.0223
2673.00,0.0223
2672.00,0.0223
2671.00,0.0223
2670.00,0.0223
2669.00,0.0222
2668.00,0.0223
2667.00,0.0223
2666.00,0.0223
2665.00,0.0223
2664.00,0.0224
2663.00,0.0224
2662.00,0.0224
2661.00,0.0224
2660.00,0.0224
2659.00,0.0224
2658.00,0.0224
2657.00,0.0224
2656.00,0.0224
2655.00,0.0224
2654.00,0.0224
2653.00,0.0224
2652.00,0.0224
2651.00,0.0224
2650.00,0.0223
2649.00,0.0223
2648.00,0.0223
2647.00,0.0223
2646.00,0.0223
2645.00,0.0223
2644.00,0.0222
2643.00,0.0222
2642.00,0.0222
2641.00,0.0222
2640.00,0.0221
2639.00,0.0221
2638.00,0.0221
2637.00,0.0221
2636.00,0.0221
2635.00,0.0221
2634.00,0.0221
2633.00,0.0220
2632.00,0.0220
2631.00,0.0220
2630.00,0.0220
2629.00,0.0219
2628.00,0.0219
2627.00,0.0219
2626.00,0.0219
2625.00,0.0218
2624.00,0.0218
2623.00,0.0218
2622.00,0.0218
2621.00,0.0218
2620.00,0.0218
2619.00,0.0217
2618.00,0.0217
2617.00,0.0217
2616.00,0.0217
2615.00,0.0216
2614.00,0.0216
2613.00,0.0216
2612.00,0.0215
2611.00,0.0215
2610.00,0.0215
2609.00,0.0215
2608.00,0.0215
2607.00,0.0214
2606.00,0.0214
2605.00,0.0214
2604.00,0.0214
2603.00,0.0214
2602.00,0.0213
2601.00,0.0213
2600.00,0.0213
2599.00,0.0213
2598.00,0.0212
2597.00,0.0212
2596.00,0.0212
2595.00,0.0212
2594.00,0.0211
2593.00,0.0211
2592.00,0.0211
2591.00,0.0210
2590.00,0.0210
2589.00,0.0210
2588.00,0.0210
2587.00,0.0209
2586.00,0.0209
2585.00,0.0209
2584.00,0.0208
2583.00,0.0208
2582.00,0.0208
2581.00,0.0208
2580.00,0.0207
2579.00,0.0207
2578.00,0.0207
2577.00,0.0207
2576.00,0.0206
2575.00,0.0206
2574.00,0.0206
2573.00,0.0206
2572.00,0.0206
2571.00,0.0206
2570.00,0.0205
2569.00,0.0205
2568.00,0.0205
2567.00,0.0205
2566.00,0.0204
2565.00,0.0204
2564.00,0.0204
2563.00,0.0204
2562.00,0.0204
2561.00,0.0204
2560.00,0.0204
2559.00,0.0204
2558.00,0.0203
2557.00,0.0203
2556.00,0.0203
2555.00,0.0203
2554.00,0.0202
2553.00,0.0202
2552.00,0.0202
2551.00,0.0202
2550.00,0.0202
2549.00,0.0202
2548.00,0.0201
2547.00,0.0201
2546.00,0.0201
2545.00,0.0201
2544.00,0.0201
2543.00,0.0201
2542.00,0.0201
2541.00,0.0201
2540.00,0.0201
2539.00,0.0200
2538.00,0.0200
2537.00,0.0200
2536.00,0.0200
2535.00,0.0200
2534.00,0.0199
2533.00,0.0199
2532.00,0.0199
2531.00,0.0199
2530.00,0.0199
2529.00,0.0199
2528.00,0.0199
2527.00,0.0199
2526.00,0.0199
2525.00,0.0199
2524.00,0.0198
2523.00,0.0198
2522.00,0.0198
2521.00,0.0198
2520.00,0.0198
2519.00,0.0198
2518.00,0.0198
2517.00,0.0198
2516.00,0.0198
2515.00,0.0197
2514.00,0.0197
2513.00,0.0197
2512.00,0.0197
2511.00,0.0197
2510.00,0.0196
2509.00,0.0196
2508.00,0.0196
2507.00,0.0196
2506.00,0.0196
2505.00,0.0196
2504.00,0.0196
2503.00,0.0196
2502.00,0.0196
2501.00,0.0195
2500.00,0.0195
2499.00,0.0195
2498.00,0.0195
2497.00,0.0195
2496.00,0.0195
2495.00,0.0195
2494.00,0.0195
2493.00,0.0195
2492.00,0.0194
2491.00,0.0194
2490.00,0.0194
2489.00,0.0194
2488.00,0.0194
2487.00,0.0193
2486.00,0.0193
2485.00,0.0193
2484.00,0.0193
2483.00,0.0193
2482.00,0.0192
2481.00,0.0192
2480.00,0.0192
2479.00,0.0192
2478.00,0.0192
2477.00,0.0192
2476.00,0.0192
2475.00,0.0191
2474.00,0.0191
2473.00,0.0191
2472.00,0.0191
2471.00,0.0191
2470.00,0.0191
2469.00,0.0191
2468.00,0.0191
2467.00,0.0191
2466.00,0.0191
2465.00,0.0191
2464.00,0.0191
2463.00,0.0191
2462.00,0.0190
2461.00,0.0190
2460.00,0.0190
2459.00,0.0190
2458.00,0.0190
2457.00,0.0190
2456.00,0.0190
2455.00,0.0190
2454.00,0.0190
2453.00,0.0190
2452.00,0.0190
2451.00,0.0189
2450.00,0.0189
2449.00,0.0189
2448.00,0.0188
2447.00,0.0188
2446.00,0.0188
2445.00,0.0188
2444.00,0.0187
2443.00,0.0187
2442.00,0.0187
2441.00,0.0187
2440.00,0.0187
2439.00,0.0186
2438.00,0.0186
2437.00,0.0186
2436.00,0.0186
2435.00,0.0186
2434.00,0.0186
2433.00,0.0185
2432.00,0.0185
2431.00,0.0185
2430.00,0.0185
2429.00,0.0185
2428.00,0.0184
2427.00,0.0184
2426.00,0.0184
2425.00,0.0184
2424.00,0.0184
2423.00,0.0183
2422.00,0.0183
2421.00,0.0183
2420.00,0.0183
2419.00,0.0183
2418.00,0.0182
2417.00,0.0182
2416.00,0.0182
2415.00,0.0182
2414.00,0.0182
2413.00,0.0182
2412.00,0.0182
2411.00,0.0182
2410.00,0.0181
2409.00,0.0181
2408.00,0.0180
2407.00,0.0179
2406.00,0.0179
2405.00,0.0179
2404.00,0.0179
2403.00,0.0179
2402.00,0.0179
2401.00,0.0179
2400.00,0.0179
2399.00,0.0179
2398.00,0.0178
2397.00,0.0178
2396.00,0.0178
2395.00,0.0178
2394.00,0.0178
2393.00,0.0178
2392.00,0.0177
2391.00,0.0177
2390.00,0.0177
2389.00,0.0177
2388.00,0.0176
2387.00,0.0176
2386.00,0.0176
2385.00,0.0175
2384.00,0.0175
2383.00,0.0174
2382.00,0.0173
2381.00,0.0173
2380.00,0.0173
2379.00,0.0173
2378.00,0.0173
2377.00,0.0173
2376.00,0.0173
2375.00,0.0173
2374.00,0.0173
2373.00,0.0172
2372.00,0.0172
2371.00,0.0172
2370.00,0.0172
2369.00,0.0171
2368.00,0.0171
2367.00,0.0171
2366.00,0.0171
2365.00,0.0171
2364.00,0.0171
2363.00,0.0171
2362.00,0.0171
2361.00,0.0171
2360.00,0.0171
2359.00,0.0171
2358.00,0.0172
2357.00,0.0172
2356.00,0.0172
2355.00,0.0172
2354.00,0.0171
2353.00,0.0171
2352.00,0.0171
2351.00,0.0171
2350.00,0.0172
2349.00,0.0172
2348.00,0.0172
2347.00,0.0172
2346.00,0.0172
2345.00,0.0171
2344.00,0.0172
2343.00,0.0172
2342.00,0.0173
2341.00,0.0173
2340.00,0.0174
2339.00,0.0174
2338.00,0.0174
2337.00,0.0174
2336.00,0.0174
2335.00,0.0174
2334.00,0.0173
2333.00,0.0173
2332.00,0.0173
2331.00,0.0173
2330.00,0.0173
2329.00,0.0175
2328.00,0.0179
2327.00,0.0182
2326.00,0.0185
2325.00,0.0186
2324.00,0.0184
2323.00,0.0182
2322.00,0.0180
2321.00,0.0178
2320.00,0.0178
2319.00,0.0177
2318.00,0.0177
2317.00,0.0176
2316.00,0.0176
2315.00,0.0175
2314.00,0.0175
2313.00,0.0174
2312.00,0.0174
2311.00,0.0173
2310.00,0.0173
2309.00,0.0173
2308.00,0.0173
2307.00,0.0173
2306.00,0.0173
2305.00,0.0173
2304.00,0.0174
2303.00,0.0174
2302.00,0.0174
2301.00,0.0174
2300.00,0.0174
2299.00,0.0175
2298.00,0.0175
2297.00,0.0175
2296.00,0.0176
2295.00,0.0176
2294.00,0.0177
2293.00,0.0178
2292.00,0.0179
2291.00,0.0179
2290.00,0.0179
2289.00,0.0180
2288.00,0.0180
2287.00,0.0180
2286.00,0.0179
2285.00,0.0179
2284.00,0.0178
2283.00,0.0177
2282.00,0.0176
2281.00,0.0175
2280.00,0.0175
2279.00,0.0175
2278.00,0.0174
2277.00,0.0174
2276.00,0.0174
2275.00,0.0174
2274.00,0.0173
2273.00,0.0173
2272.00,0.0173
2271.00,0.0173
2270.00,0.0172
2269.00,0.0172
2268.00,0.0171
2267.00,0.0171
2266.00,0.0170
2265.00,0.0170
2264.00,0.0170
2263.00,0.0170
2262.00,0.0170
2261.00,0.0170
2260.00,0.0171
2259.00,0.0170
2258.00,0.0170
2257.00,0.0169
2256.00,0.0168
2255.00,0.0167
2254.00,0.0167
2253.00,0.0167
2252.00,0.0167
2251.00,0.0167
2250.00,0.0167
2249.00,0.0168
2248.00,0.0168
2247.00,0.0168
2246.00,0.0167
2245.00,0.0167
2244.00,0.0167
2243.00,0.0167
2242.00,0.0167
2241.00,0.0167
2240.00,0.0168
2239.00,0.0167
2238.00,0.0167
2237.00,0.0167
2236.00,0.0167
2235.00,0.0167
2234.00,0.0167
2233.00,0.0167
2232.00,0.0167
2231.00,0.0167
2230.00,0.0167
2229.00,0.0166
2228.00,0.0166
2227.00,0.0166
2226.00,0.0165
2225.00,0.0165
2224.00,0.0165
2223.00,0.0165
2222.00,0.0165
2221.00,0.0166
2220.00,0.0166
2219.00,0.0165
2218.00,0.0165
2217.00,0.0165
2216.00,0.0165
2215.00,0.0166
2214.00,0.0165
2213.00,0.0165
2212.00,0.0165
2211.00,0.0165
2210.00,0.0164
2209.00,0.0164
2208.00,0.0164
2207.00,0.0165
2206.00,0.0165
2205.00,0.0165
2204.00,0.0165
2203.00,0.0165
2202.00,0.0164
2201.00,0.0164
2200.00,0.0164
2199.00,0.0163
2198.00,0.0164
2197.00,0.0164
2196.00,0.0164
2195.00,0.0165
2194.00,0.0165
2193.00,0.0165
2192.00,0.0165
2191.00,0.0165
2190.00,0.0165
2189.00,0.0165
2188.00,0.0166
2187.00,0.0167
2186.00,0.0165
2185.00,0.0163
2184.00,0.0160
2183.00,0.0158
2182.00,0.0157
2181.00,0.0158
2180.00,0.0159
2179.00,0.0159
2178.00,0.0158
2177.00,0.0158
2176.00,0.0157
2175.00,0.0157
2174.00,0.0158
2173.00,0.0160
2172.00,0.0162
2171.00,0.0164
2170.00,0.0166
2169.00,0.0167
2168.00,0.0169
2167.00,0.0169
2166.00,0.0170
2165.00,0.0171
2164.00,0.0173
2163.00,0.0173
2162.00,0.0167
2161.00,0.0156
2160.00,0.0141
2159.00,0.0130
2158.00,0.0125
2157.00,0.0126
2156.00,0.0130
2155.00,0.0134
2154.00,0.0136
2153.00,0.0138
2152.00,0.0140
2151.00,0.0141
2150.00,0.0142
2149.00,0.0142
2148.00,0.0143
2147.00,0.0143
2146.00,0.0143
2145.00,0.0144
2144.00,0.0144
2143.00,0.0144
2142.00,0.0144
2141.00,0.0144
2140.00,0.0144
2139.00,0.0143
2138.00,0.0143
2137.00,0.0141
2136.00,0.0140
2135.00,0.0138
2134.00,0.0138
2133.00,0.0139
2132.00,0.0141
2131.00,0.0142
2130.00,0.0144
2129.00,0.0145
2128.00,0.0146
2127.00,0.0147
2126.00,0.0148
2125.00,0.0150
2124.00,0.0151
2123.00,0.0152
2122.00,0.0153
2121.00,0.0154
2120.00,0.0155
2119.00,0.0155
2118.00,0.0156
2117.00,0.0157
2116.00,0.0157
2115.00,0.0157
2114.00,0.0156
2113.00,0.0156
2112.00,0.0156
2111.00,0.0157
2110.00,0.0157
2109.00,0.0157
2108.00,0.0157
2107.00,0.0157
2106.00,0.0157
2105.00,0.0157
2104.00,0.0157
2103.00,0.0157
2102.00,0.0156
2101.00,0.0156
2100.00,0.0156
2099.00,0.0155
2098.00,0.0154
2097.00,0.0152
2096.00,0.0150
2095.00,0.0150
2094.00,0.0150
2093.00,0.0151
2092.00,0.0152
2091.00,0.0153
2090.00,0.0154
2089.00,0.0154
2088.00,0.0155
2087.00,0.0155
2086.00,0.0156
2085.00,0.0156
2084.00,0.0157
2083.00,0.0157
2082.00,0.0156
2081.00,0.0156
2080.00,0.0157
2079.00,0.0157
2078.00,0.0157
2077.00,0.0156
2076.00,0.0156
2075.00,0.0155
2074.00,0.0155
2073.00,0.0154
2072.00,0.0154
2071.00,0.0153
2070.00,0.0153
2069.00,0.0152
2068.00,0.0153
2067.00,0.0153
2066.00,0.0152
2065.00,0.0152
2064.00,0.0152
2063.00,0.0152
2062.00,0.0152
2061.00,0.0152
2060.00,0.0152
2059.00,0.0153
2058.00,0.0153
2057.00,0.0153
2056.00,0.0153
2055.00,0.0153
2054.00,0.0155
2053.00,0.0158
2052.00,0.0161
2051.00,0.0161
2050.00,0.0159
2049.00,0.0156
2048.00,0.0154
2047.00,0.0153
2046.00,0.0152
2045.00,0.0151
2044.00,0.0151
2043.00,0.0151
2042.00,0.0151
2041.00,0.0152
2040.00,0.0152
2039.00,0.0152
2038.00,0.0151
2037.00,0.0150
2036.00,0.0148
2035.00,0.0146
2034.00,0.0144
2033.00,0.0143
2032.00,0.0143
2031.00,0.0143
2030.00,0.0142
2029.00,0.0141
2028.00,0.0141
2027.00,0.0140
2026.00,0.0139
2025.00,0.0139
2024.00,0.0140
2023.00,0.0141
2022.00,0.0141
2021.00,0.0141
2020.00,0.0140
2019.00,0.0139
2018.00,0.0138
2017.00,0.0138
2016.00,0.0139
2015.00,0.0139
2014.00,0.0140
2013.00,0.0141
2012.00,0.0142
2011.00,0.0142
2010.00,0.0141
2009.00,0.0140
2008.00,0.0138
2007.00,0.0135
2006.00,0.0134
2005.00,0.0134
2004.00,0.0135
2003.00,0.0136
2002.00,0.0137
2001.00,0.0139
2000.00,0.0140
1999.00,0.0141
1998.00,0.0140
1997.00,0.0140
1996.00,0.0141
1995.00,0.0141
1994.00,0.0142
1993.00,0.0142
1992.00,0.0143
1991.00,0.0143
1990.00,0.0142
1989.00,0.0143
1988.00,0.0144
1987.00,0.0146
1986.00,0.0147
1985.00,0.0148
1984.00,0.0150
1983.00,0.0152
1982.00,0.0153
1981.00,0.0153
1980.00,0.0150
1979.00,0.0144
1978.00,0.0137
1977.00,0.0133
1976.00,0.0132
1975.00,0.0132
1974.00,0.0131
1973.00,0.0131
1972.00,0.0132
1971.00,0.0131
1970.00,0.0131
1969.00,0.0131
1968.00,0.0131
1967.00,0.0131
1966.00,0.0130
1965.00,0.0130
1964.00,0.0131
1963.00,0.0131
1962.00,0.0130
1961.00,0.0129
1960.00,0.0128
1959.00,0.0127
1958.00,0.0127
1957.00,0.0128
1956.00,0.0129
1955.00,0.0130
1954.00,0.0130
1953.00,0.0130
1952.00,0.0130
1951.00,0.0130
1950.00,0.0130
1949.00,0.0130
1948.00,0.0130
1947.00,0.0131
1946.00,0.0131
1945.00,0.0131
1944.00,0.0131
1943.00,0.0131
1942.00,0.0130
1941.00,0.0130
1940.00,0.0130
1939.00,0.0130
1938.00,0.0130
1937.00,0.0130
1936.00,0.0130
1935.00,0.0130
1934.00,0.0130
1933.00,0.0130
1932.00,0.0130
1931.00,0.0130
1930.00,0.0129
1929.00,0.0129
1928.00,0.0130
1927.00,0.0130
1926.00,0.0130
1925.00,0.0130
1924.00,0.0131
1923.00,0.0132
1922.00,0.0132
1921.00,0.0132
1920.00,0.0131
1919.00,0.0130
1918.00,0.0129
1917.00,0.0129
1916.00,0.0129
1915.00,0.0129
1914.00,0.0130
1913.00,0.0130
1912.00,0.0131
1911.00,0.0131
1910.00,0.0131
1909.00,0.0131
1908.00,0.0131
1907.00,0.0130
1906.00,0.0130
1905.00,0.0130
1904.00,0.0130
1903.00,0.0129
1902.00,0.0129
1901.00,0.0129
1900.00,0.0129
1899.00,0.0129
1898.00,0.0129
1897.00,0.0129
1896.00,0.0129
1895.00,0.0129
1894.00,0.0128
1893.00,0.0128
1892.00,0.0128
1891.00,0.0128
1890.00,0.0128
1889.00,0.0128
1888.00,0.0127
1887.00,0.0127
1886.00,0.0127
1885.00,0.0127
1884.00,0.0127
1883.00,0.0127
1882.00,0.0127
1881.00,0.0127
1880.00,0.0127
1879.00,0.0126
1878.00,0.0126
1877.00,0.0125
1876.00,0.0126
1875.00,0.0126
1874.00,0.0125
1873.00,0.0126
1872.00,0.0126
1871.00,0.0126
1870.00,0.0126
1869.00,0.0125
1868.00,0.0125
1867.00,0.0124
1866.00,0.0124
1865.00,0.0124
1864.00,0.0124
1863.00,0.0124
1862.00,0.0124
1861.00,0.0124
1860.00,0.0124
1859.00,0.0124
1858.00,0.0123
1857.00,0.0123
1856.00,0.0123
1855.00,0.0123
1854.00,0.0122
1853.00,0.0122
1852.00,0.0122
1851.00,0.0122
1850.00,0.0122
1849.00,0.0122
1848.00,0.0122
1847.00,0.0122
1846.00,0.0121
1845.00,0.0120
1844.00,0.0119
1843.00,0.0118
1842.00,0.0118
1841.00,0.0119
1840.00,0.0120
1839.00,0.0120
1838.00,0.0120
1837.00,0.0120
1836.00,0.0120
1835.00,0.0119
1834.00,0.0119
1833.00,0.0119
1832.00,0.0120
1831.00,0.0120
1830.00,0.0119
1829.00,0.0118
1828.00,0.0118
1827.00,0.0118
1826.00,0.0118
1825.00,0.0117
1824.00,0.0117
1823.00,0.0117
1822.00,0.0117
1821.00,0.0117
1820.00,0.0116
1819.00,0.0115
1818.00,0.0114
1817.00,0.0114
1816.00,0.0114
1815.00,0.0115
1814.00,0.0115
1813.00,0.0116
1812.00,0.0117
1811.00,0.0117
1810.00,0.0116
1809.00,0.0116
1808.00,0.0116
1807.00,0.0116
1806.00,0.0115
1805.00,0.0115
1804.00,0.0115
1803.00,0.0115
1802.00,0.0114
1801.00,0.0114
1800.00,0.0115
1799.00,0.0115
1798.00,0.0115
1797.00,0.0116
1796.00,0.0116
1795.00,0.0116
1794.00,0.0116
1793.00,0.0115
1792.00,0.0113
1791.00,0.0112
1790.00,0.0112
1789.00,0.0112
1788.00,0.0113
1787.00,0.0113
1786.00,0.0113
1785.00,0.0112
1784.00,0.0113
1783.00,0.0113
1782.00,0.0114
1781.00,0.0114
1780.00,0.0114
1779.00,0.0113
1778.00,0.0113
1777.00,0.0113
1776.00,0.0114
1775.00,0.0115
1774.00,0.0116
1773.00,0.0116
1772.00,0.0115
1771.00,0.0112
1770.00,0.0110
1769.00,0.0110
1768.00,0.0110
1767.00,0.0111
1766.00,0.0111
1765.00,0.0113
1764.00,0.0114
1763.00,0.0114
1762.00,0.0113
1761.00,0.0112
1760.00,0.0113
1759.00,0.0114
1758.00,0.0115
1757.00,0.0115
1756.00,0.0115
1755.00,0.0116
1754.00,0.0117
1753.00,0.0119
1752.00,0.0121
1751.00,0.0122
1750.00,0.0123
1749.00,0.0125
1748.00,0.0127
1747.00,0.0128
1746.00,0.0129
1745.00,0.0130
1744.00,0.0132
1743.00,0.0133
1742.00,0.0134
1741.00,0.0135
1740.00,0.0136
1739.00,0.0137
1738.00,0.0137
1737.00,0.0139
1736.00,0.0142
1735.00,0.0143
1734.00,0.0142
1733.00,0.0142
1732.00,0.0143
1731.00,0.0145
1730.00,0.0147
1729.00,0.0147
1728.00,0.0148
1727.00,0.0150
1726.00,0.0151
1725.00,0.0152
1724.00,0.0154
1723.00,0.0155
1722.00,0.0155
1721.00,0.0156
1720.00,0.0159
1719.00,0.0161
1718.00,0.0163
1717.00,0.0165
1716.00,0.0166
1715.00,0.0166
1714.00,0.0168
1713.00,0.0171
1712.00,0.0175
1711.00,0.0180
1710.00,0.0184
1709.00,0.0189
1708.00,0.0195
1707.00,0.0203
1706.00,0.0212
1705.00,0.0222
1704.00,0.0233
1703.00,0.0242
1702.00,0.0254
1701.00,0.0272
1700.00,0.0298
1699.00,0.0321
1698.00,0.0336
1697.00,0.0350
1696.00,0.0362
1695.00,0.0371
1694.00,0.0378
1693.00,0.0385
1692.00,0.0393
1691.00,0.0402
1690.00,0.0412
1689.00,0.0423
1688.00,0.0433
1687.00,0.0442
1686.00,0.0451
1685.00,0.0466
1684.00,0.0487
1683.00,0.0504
1682.00,0.0516
1681.00,0.0528
1680.00,0.0540
1679.00,0.0551
1678.00,0.0560
1677.00,0.0570
1676.00,0.0585
1675.00,0.0603
1674.00,0.0620
1673.00,0.0634
1672.00,0.0646
1671.00,0.0660
1670.00,0.0677
1669.00,0.0697
1668.00,0.0715
1667.00,0.0729
1666.00,0.0739
1665.00,0.0748
1664.00,0.0762
1663.00,0.0779
1662.00,0.0798
1661.00,0.0815
1660.00,0.0829
1659.00,0.0840
1658.00,0.0849
1657.00,0.0855
1656.00,0.0857
1655.00,0.0861
1654.00,0.0876
1653.00,0.0908
1652.00,0.0933
1651.00,0.0941
1650.00,0.0939
1649.00,0.0936
1648.00,0.0940
1647.00,0.0952
1646.00,0.0965
1645.00,0.0972
1644.00,0.0976
1643.00,0.0977
1642.00,0.0978
1641.00,0.0979
1640.00,0.0981
1639.00,0.0982
1638.00,0.0982
1637.00,0.0986
1636.00,0.0999
1635.00,0.1014
1634.00,0.1025
1633.00,0.1029
1632.00,0.1031
1631.00,0.1033
1630.00,0.1036
1629.00,0.1043
1628.00,0.1054
1627.00,0.1064
1626.00,0.1072
1625.00,0.1078
1624.00,0.1088
1623.00,0.1102
1622.00,0.1113
1621.00,0.1116
1620.00,0.1114
1619.00,0.1109
1618.00,0.1105
1617.00,0.1104
1616.00,0.1103
1615.00,0.1096
1614.00,0.1082
1613.00,0.1063
1612.00,0.1043
1611.00,0.1022
1610.00,0.1000
1609.00,0.0977
1608.00,0.0953
1607.00,0.0930
1606.00,0.0906
1605.00,0.0882
1604.00,0.0859
1603.00,0.0836
1602.00,0.0814
1601.00,0.0793
1600.00,0.0773
1599.00,0.0754
1598.00,0.0737
1597.00,0.0720
1596.00,0.0703
1595.00,0.0688
1594.00,0.0673
1593.00,0.0659
1592.00,0.0645
1591.00,0.0632
1590.00,0.0620
1589.00,0.0610
1588.00,0.0599
1587.00,0.0591
1586.00,0.0583
1585.00,0.0577
1584.00,0.0571
1583.00,0.0566
1582.00,0.0562
1581.00,0.0559
1580.00,0.0556
1579.00,0.0554
1578.00,0.0554
1577.00,0.0557
1576.00,0.0561
1575.00,0.0564
1574.00,0.0566
1573.00,0.0567
1572.00,0.0567
1571.00,0.0570
1570.00,0.0579
1569.00,0.0590
1568.00,0.0598
1567.00,0.0606
1566.00,0.0614
1565.00,0.0623
1564.00,0.0632
1563.00,0.0638
1562.00,0.0641
1561.00,0.0642
1560.00,0.0652
1559.00,0.0684
1558.00,0.0715
1557.00,0.0730
1556.00,0.0739
1555.00,0.0749
1554.00,0.0762
1553.00,0.0774
1552.00,0.0785
1551.00,0.0796
1550.00,0.0809
1549.00,0.0823
1548.00,0.0832
1547.00,0.0839
1546.00,0.0845
1545.00,0.0854
1544.00,0.0865
1543.00,0.0873
1542.00,0.0882
1541.00,0.0897
1540.00,0.0918
1539.00,0.0935
1538.00,0.0943
1537.00,0.0943
1536.00,0.0939
1535.00,0.0938
1534.00,0.0945
1533.00,0.0958
1532.00,0.0968
1531.00,0.0973
1530.00,0.0974
1529.00,0.0976
1528.00,0.0980
1527.00,0.0986
1526.00,0.0993
1525.00,0.0999
1524.00,0.1002
1523.00,0.1005
1522.00,0.1015
1521.00,0.1029
1520.00,0.1039
1519.00,0.1042
1518.00,0.1045
1517.00,0.1050
1516.00,0.1056
1515.00,0.1057
1514.00,0.1053
1513.00,0.1046
1512.00,0.1037
1511.00,0.1027
1510.00,0.1016
1509.00,0.1003
1508.00,0.0993
1507.00,0.0988
1506.00,0.0982
1505.00,0.0971
1504.00,0.0957
1503.00,0.0939
1502.00,0.0920
1501.00,0.0901
1500.00,0.0883
1499.00,0.0867
1498.00,0.0851
1497.00,0.0837
1496.00,0.0822
1495.00,0.0807
1494.00,0.0790
1493.00,0.0772
1492.00,0.0754
1491.00,0.0736
1490.00,0.0720
1489.00,0.0706
1488.00,0.0692
1487.00,0.0678
1486.00,0.0664
1485.00,0.0651
1484.00,0.0639
1483.00,0.0628
1482.00,0.0619
1481.00,0.0610
1480.00,0.0603
1479.00,0.0595
1478.00,0.0589
1477.00,0.0583
1476.00,0.0580
1475.00,0.0578
1474.00,0.0578
1473.00,0.0581
1472.00,0.0587
1471.00,0.0591
1470.00,0.0593
1469.00,0.0593
1468.00,0.0591
1467.00,0.0589
1466.00,0.0588
1465.00,0.0589
1464.00,0.0592
1463.00,0.0594
1462.00,0.0596
1461.00,0.0596
1460.00,0.0596
1459.00,0.0599
1458.00,0.0607
1457.00,0.0620
1456.00,0.0633
1455.00,0.0641
1454.00,0.0644
1453.00,0.0646
1452.00,0.0647
1451.00,0.0647
1450.00,0.0647
1449.00,0.0647
1448.00,0.0647
1447.00,0.0647
1446.00,0.0646
1445.00,0.0643
1444.00,0.0639
1443.00,0.0635
1442.00,0.0630
1441.00,0.0625
1440.00,0.0619
1439.00,0.0611
1438.00,0.0603
1437.00,0.0598
1436.00,0.0596
1435.00,0.0595
1434.00,0.0593
1433.00,0.0589
1432.00,0.0585
1431.00,0.0582
1430.00,0.0580
1429.00,0.0579
1428.00,0.0579
1427.00,0.0579
1426.00,0.0579
1425.00,0.0580
1424.00,0.0584
1423.00,0.0587
1422.00,0.0588
1421.00,0.0588
1420.00,0.0591
1419.00,0.0598
1418.00,0.0606
1417.00,0.0613
1416.00,0.0618
1415.00,0.0622
1414.00,0.0625
1413.00,0.0628
1412.00,0.0632
1411.00,0.0637
1410.00,0.0641
1409.00,0.0644
1408.00,0.0646
1407.00,0.0648
1406.00,0.0650
1405.00,0.0653
1404.00,0.0656
1403.00,0.0658
1402.00,0.0658
1401.00,0.0657
1400.00,0.0657
1399.00,0.0659
1398.00,0.0660
1397.00,0.0661
1396.00,0.0661
1395.00,0.0662
1394.00,0.0664
1393.00,0.0666
1392.00,0.0667
1391.00,0.0667
1390.00,0.0666
1389.00,0.0665
1388.00,0.0665
1387.00,0.0667
1386.00,0.0668
1385.00,0.0668
1384.00,0.0667
1383.00,0.0665
1382.00,0.0663
1381.00,0.0662
1380.00,0.0660
1379.00,0.0658
1378.00,0.0656
1377.00,0.0654
1376.00,0.0653
1375.00,0.0651
1374.00,0.0651
1373.00,0.0650
1372.00,0.0649
1371.00,0.0648
1370.00,0.0646
1369.00,0.0644
1368.00,0.0641
1367.00,0.0638
1366.00,0.0634
1365.00,0.0629
1364.00,0.0625
1363.00,0.0622
1362.00,0.0619
1361.00,0.0617
1360.00,0.0616
1359.00,0.0614
1358.00,0.0612
1357.00,0.0611
1356.00,0.0610
1355.00,0.0610
1354.00,0.0610
1353.00,0.0610
1352.00,0.0610
1351.00,0.0610
1350.00,0.0611
1349.00,0.0612
1348.00,0.0613
1347.00,0.0614
1346.00,0.0615
1345.00,0.0616
1344.00,0.0617
1343.00,0.0618
1342.00,0.0619
1341.00,0.0620
1340.00,0.0622
1339.00,0.0623
1338.00,0.0624
1337.00,0.0624
1336.00,0.0623
1335.00,0.0623
1334.00,0.0622
1333.00,0.0621
1332.00,0.0620
1331.00,0.0619
1330.00,0.0618
1329.00,0.0617
1328.00,0.0616
1327.00,0.0615
1326.00,0.0615
1325.00,0.0614
1324.00,0.0613
1323.00,0.0613
1322.00,0.0612
1321.00,0.0612
1320.00,0.0612
1319.00,0.0612
1318.00,0.0612
1317.00,0.0612
1316.00,0.0611
1315.00,0.0611
1314.00,0.0610
1313.00,0.0610
1312.00,0.0609
1311.00,0.0608
1310.00,0.0606
1309.00,0.0605
1308.00,0.0603
1307.00,0.0601
1306.00,0.0599
1305.00,0.0597
1304.00,0.0595
1303.00,0.0594
1302.00,0.0591
1301.00,0.0589
1300.00,0.0587
1299.00,0.0585
1298.00,0.0583
1297.00,0.0581
1296.00,0.0579
1295.00,0.0578
1294.00,0.0576
1293.00,0.0574
1292.00,0.0573
1291.00,0.0572
1290.00,0.0571
1289.00,0.0570
1288.00,0.0569
1287.00,0.0568
1286.00,0.0567
1285.00,0.0567
1284.00,0.0566
1283.00,0.0565
1282.00,0.0564
1281.00,0.0563
1280.00,0.0562
1279.00,0.0561
1278.00,0.0560
1277.00,0.0560
1276.00,0.0559
1275.00,0.0559
1274.00,0.0559
1273.00,0.0559
1272.00,0.0559
1271.00,0.0560
1270.00,0.0560
1269.00,0.0561
1268.00,0.0561
1267.00,0.0562
1266.00,0.0564
1265.00,0.0565
1264.00,0.0567
1263.00,0.0568
1262.00,0.0571
1261.00,0.0573
1260.00,0.0576
1259.00,0.0579
1258.00,0.0582
1257.00,0.0585
1256.00,0.0588
1255.00,0.0592
1254.00,0.0596
1253.00,0.0599
1252.00,0.0603
1251.00,0.0607
1250.00,0.0611
1249.00,0.0615
1248.00,0.0618
1247.00,0.0622
1246.00,0.0625
1245.00,0.0629
1244.00,0.0632
1243.00,0.0635
1242.00,0.0637
1241.00,0.0639
1240.00,0.0641
1239.00,0.0643
1238.00,0.0645
1237.00,0.0646
1236.00,0.0647
1235.00,0.0648
1234.00,0.0648
1233.00,0.0648
1232.00,0.0648
1231.00,0.0648
1230.00,0.0647
1229.00,0.0646
1228.00,0.0645
1227.00,0.0644
1226.00,0.0642
1225.00,0.0641
1224.00,0.0639
1223.00,0.0637
1222.00,0.0634
1221.00,0.0632
1220.00,0.0629
1219.00,0.0626
1218.00,0.0623
1217.00,0.0620
1216.00,0.0617
1215.00,0.0614
1214.00,0.0610
1213.00,0.0607
1212.00,0.0603
1211.00,0.0599
1210.00,0.0596
1209.00,0.0592
1208.00,0.0588
1207.00,0.0584
1206.00,0.0580
1205.00,0.0575
1204.00,0.0571
1203.00,0.0567
1202.00,0.0562
1201.00,0.0558
1200.00,0.0554
1199.00,0.0550
1198.00,0.0546
1197.00,0.0542
1196.00,0.0539
1195.00,0.0536
1194.00,0.0533
1193.00,0.0530
1192.00,0.0527
1191.00,0.0525
1190.00,0.0523
1189.00,0.0521
1188.00,0.0519
1187.00,0.0517
1186.00,0.0516
1185.00,0.0514
1184.00,0.0513
1183.00,0.0513
1182.00,0.0512
1181.00,0.0512
1180.00,0.0513
1179.00,0.0514
1178.00,0.0516
1177.00,0.0518
1176.00,0.0520
1175.00,0.0523
1174.00,0.0527
1173.00,0.0530
1172.00,0.0533
1171.00,0.0536
1170.00,0.0538
1169.00,0.0540
1168.00,0.0542
1167.00,0.0544
1166.00,0.0546
1165.00,0.0547
1164.00,0.0548
1163.00,0.0549
1162.00,0.0549
1161.00,0.0549
1160.00,0.0549
1159.00,0.0548
1158.00,0.0547
1157.00,0.0545
1156.00,0.0543
1155.00,0.0541
1154.00,0.0538
1153.00,0.0535
1152.00,0.0532
1151.00,0.0529
1150.00,0.0526
1149.00,0.0523
1148.00,0.0520
1147.00,0.0516
1146.00,0.0513
1145.00,0.0511
1144.00,0.0508
1143.00,0.0506
1142.00,0.0504
1141.00,0.0502
1140.00,0.0500
1139.00,0.0499
1138.00,0.0497
1137.00,0.0496
1136.00,0.0495
1135.00,0.0494
1134.00,0.0493
1133.00,0.0493
1132.00,0.0492
1131.00,0.0491
1130.00,0.0491
1129.00,0.0490
1128.00,0.0490
1127.00,0.0489
1126.00,0.0489
1125.00,0.0488
1124.00,0.0487
1123.00,0.0486
1122.00,0.0486
1121.00,0.0485
1120.00,0.0484
1119.00,0.0483
1118.00,0.0483
1117.00,0.0482
1116.00,0.0481
1115.00,0.0480
1114.00,0.0479
1113.00,0.0478
1112.00,0.0478
1111.00,0.0477
1110.00,0.0477
1109.00,0.0476
1108.00,0.0476
1107.00,0.0475
1106.00,0.0475
1105.00,0.0475
1104.00,0.0475
1103.00,0.0475
1102.00,0.0475
1101.00,0.0475
1100.00,0.0476
1099.00,0.0476
1098.00,0.0476
1097.00,0.0477
1096.00,0.0479
1095.00,0.0481
1094.00,0.0483
1093.00,0.0485
1092.00,0.0489
1091.00,0.0492
1090.00,0.0496
1089.00,0.0500
1088.00,0.0505
1087.00,0.0510
1086.00,0.0516
1085.00,0.0521
1084.00,0.0527
1083.00,0.0533
1082.00,0.0539
1081.00,0.0544
1080.00,0.0550
1079.00,0.0556
1078.00,0.0561
1077.00,0.0567
1076.00,0.0572
1075.00,0.0576
1074.00,0.0581
1073.00,0.0585
1072.00,0.0588
1071.00,0.0592
1070.00,0.0595
1069.00,0.0598
1068.00,0.0601
1067.00,0.0603
1066.00,0.0605
1065.00,0.0607
1064.00,0.0608
1063.00,0.0608
1062.00,0.0608
1061.00,0.0606
1060.00,0.0605
1059.00,0.0603
1058.00,0.0600
1057.00,0.0597
1056.00,0.0594
1055.00,0.0591
1054.00,0.0589
1053.00,0.0586
1052.00,0.0583
1051.00,0.0581
1050.00,0.0579
1049.00,0.0577
1048.00,0.0575
1047.00,0.0574
1046.00,0.0572
1045.00,0.0570
1044.00,0.0568
1043.00,0.0566
1042.00,0.0564
1041.00,0.0562
1040.00,0.0560
1039.00,0.0558
1038.00,0.0556
1037.00,0.0554
1036.00,0.0551
1035.00,0.0549
1034.00,0.0546
1033.00,0.0543
1032.00,0.0540
1031.00,0.0536
1030.00,0.0532
1029.00,0.0528
1028.00,0.0523
1027.00,0.0517
1026.00,0.0512
1025.00,0.0507
1024.00,0.0501
1023.00,0.0496
1022.00,0.0491
1021.00,0.0486
1020.00,0.0481
1019.00,0.0477
1018.00,0.0472
1017.00,0.0468
1016.00,0.0464
1015.00,0.0461
1014.00,0.0457
1013.00,0.0453
1012.00,0.0449
1011.00,0.0446
1010.00,0.0443
1009.00,0.0440
1008.00,0.0437
1007.00,0.0434
1006.00,0.0431
1005.00,0.0428
1004.00,0.0426
1003.00,0.0423
1002.00,0.0421
1001.00,0.0419
1000.00,0.0416
999.00,0.0415
998.00,0.0413
997.00,0.0411
996.00,0.0409
995.00,0.0408
994.00,0.0406
993.00,0.0405
992.00,0.0404
991.00,0.0402
990.00,0.0401
989.00,0.0400
988.00,0.0399
987.00,0.0398
986.00,0.0397
985.00,0.0396
984.00,0.0395
983.00,0.0395
982.00,0.0394
981.00,0.0394
980.00,0.0394
979.00,0.0394
978.00,0.0394
977.00,0.0395
976.00,0.0395
975.00,0.0395
974.00,0.0396
973.00,0.0396
972.00,0.0396
971.00,0.0397
970.00,0.0397
969.00,0.0397
968.00,0.0398
967.00,0.0399
966.00,0.0400
965.00,0.0401
964.00,0.0402
963.00,0.0403
962.00,0.0403
961.00,0.0403
960.00,0.0402
959.00,0.0402
958.00,0.0400
957.00,0.0399
956.00,0.0397
955.00,0.0396
954.00,0.0394
953.00,0.0392
952.00,0.0391
951.00,0.0390
950.00,0.0389
949.00,0.0388
948.00,0.0387
947.00,0.0386
946.00,0.0385
945.00,0.0384
944.00,0.0384
943.00,0.0383
942.00,0.0383
941.00,0.0382
940.00,0.0382
939.00,0.0382
938.00,0.0383
937.00,0.0383
936.00,0.0383
935.00,0.0383
934.00,0.0383
933.00,0.0383
932.00,0.0383
931.00,0.0382
930.00,0.0382
929.00,0.0381
928.00,0.0380
927.00,0.0379
926.00,0.0378
925.00,0.0376
924.00,0.0375
923.00,0.0374
922.00,0.0373
921.00,0.0371
920.00,0.0370
919.00,0.0368
918.00,0.0367
917.00,0.0365
916.00,0.0363
915.00,0.0362
914.00,0.0360
913.00,0.0360
912.00,0.0359
911.00,0.0358
910.00,0.0358
909.00,0.0358
908.00,0.0357
907.00,0.0357
906.00,0.0357
905.00,0.0357
904.00,0.0357
903.00,0.0357
902.00,0.0356
901.00,0.0356
900.00,0.0356
899.00,0.0355
898.00,0.0355
897.00,0.0354
896.00,0.0353
895.00,0.0353
894.00,0.0352
893.00,0.0351
892.00,0.0350
891.00,0.0349
890.00,0.0348
889.00,0.0347
888.00,0.0345
887.00,0.0344
886.00,0.0343
885.00,0.0342
884.00,0.0342
883.00,0.0342
882.00,0.0342
881.00,0.0342
880.00,0.0342
879.00,0.0342
878.00,0.0342
877.00,0.0342
876.00,0.0342
875.00,0.0343
874.00,0.0343
873.00,0.0342
872.00,0.0342
871.00,0.0341
870.00,0.0341
869.00,0.0340
868.00,0.0339
867.00,0.0339
866.00,0.0338
865.00,0.0337
864.00,0.0336
863.00,0.0335
862.00,0.0335
861.00,0.0334
860.00,0.0334
859.00,0.0334
858.00,0.0334
857.00,0.0334
856.00,0.0334
855.00,0.0335
854.00,0.0336
853.00,0.0336
852.00,0.0337
851.00,0.0337
850.00,0.0337
849.00,0.0337
848.00,0.0336
847.00,0.0336
846.00,0.0336
845.00,0.0335
844.00,0.0335
843.00,0.0336
842.00,0.0336
841.00,0.0337
840.00,0.0337
839.00,0.0338
838.00,0.0340
837.00,0.0341
836.00,0.0343
835.00,0.0346
834.00,0.0348
833.00,0.0351
832.00,0.0355
831.00,0.0359
830.00,0.0363
829.00,0.0367
828.00,0.0370
827.00,0.0371
826.00,0.0372
825.00,0.0371
824.00,0.0369
823.00,0.0368
822.00,0.0367
821.00,0.0366
820.00,0.0365
819.00,0.0365
818.00,0.0366
817.00,0.0366
816.00,0.0367
815.00,0.0369
814.00,0.0370
813.00,0.0372
812.00,0.0373
811.00,0.0375
810.00,0.0376
809.00,0.0377
808.00,0.0378
807.00,0.0380
806.00,0.0381
805.00,0.0382
804.00,0.0383
803.00,0.0384
802.00,0.0385
801.00,0.0385
800.00,0.0386
799.00,0.0387
798.00,0.0388
797.00,0.0389
796.00,0.0391
795.00,0.0393
794.00,0.0395
793.00,0.0397
792.00,0.0399
791.00,0.0402
790.00,0.0404
789.00,0.0407
788.00,0.0409
787.00,0.0412
786.00,0.0415
785.00,0.0418
784.00,0.0421
783.00,0.0424
782.00,0.0427
781.00,0.0430
780.00,0.0433
779.00,0.0436
778.00,0.0439
777.00,0.0441
776.00,0.0444
775.00,0.0447
774.00,0.0450
773.00,0.0452
772.00,0.0455
771.00,0.0457
770.00,0.0459
769.00,0.0461
768.00,0.0463
767.00,0.0465
766.00,0.0467
765.00,0.0468
764.00,0.0470
763.00,0.0471
762.00,0.0473
761.00,0.0474
760.00,0.0475
759.00,0.0477
758.00,0.0478
757.00,0.0480
756.00,0.0482
755.00,0.0484
754.00,0.0486
753.00,0.0488
752.00,0.0491
751.00,0.0493
750.00,0.0495
749.00,0.0498
748.00,0.0500
747.00,0.0502
746.00,0.0503
745.00,0.0505
744.00,0.0506
743.00,0.0507
742.00,0.0508
741.00,0.0509
740.00,0.0510
739.00,0.0511
738.00,0.0511
737.00,0.0512
736.00,0.0513
735.00,0.0514
734.00,0.0516
733.00,0.0518
732.00,0.0520
731.00,0.0522
730.00,0.0525
729.00,0.0529
728.00,0.0533
727.00,0.0538
726.00,0.0544
725.00,0.0549
724.00,0.0555
723.00,0.0560
722.00,0.0566
721.00,0.0572
720.00,0.0578
719.00,0.0585
718.00,0.0591
717.00,0.0598
716.00,0.0605
715.00,0.0612
714.00,0.0619
713.00,0.0625
712.00,0.0633
711.00,0.0640
710.00,0.0648
709.00,0.0656
708.00,0.0664
707.00,0.0673
706.00,0.0681
705.00,0.0690
704.00,0.0698
703.00,0.0706
702.00,0.0713
701.00,0.0719
700.00,0.0725
699.00,0.0729
698.00,0.0731
697.00,0.0733
696.00,0.0734
695.00,0.0734
694.00,0.0734
693.00,0.0734
692.00,0.0735
691.00,0.0735
690.00,0.0736
689.00,0.0738
688.00,0.0740
687.00,0.0741
686.00,0.0743
685.00,0.0744
684.00,0.0745
683.00,0.0747
682.00,0.0748
681.00,0.0750
680.00,0.0752
679.00,0.0754
678.00,0.0756
677.00,0.0758
676.00,0.0760
675.00,0.0762
674.00,0.0764
673.00,0.0765
672.00,0.0766
671.00,0.0767
670.00,0.0768
669.00,0.0771
668.00,0.0777
667.00,0.0783
666.00,0.0784
665.00,0.0782
664.00,0.0782
663.00,0.0782
662.00,0.0784
661.00,0.0785
660.00,0.0787
659.00,0.0789
658.00,0.0791
657.00,0.0792
656.00,0.0794
655.00,0.0797
654.00,0.0799
653.00,0.0801
652.00,0.0803
651.00,0.0805
650.00,0.0807
649.00,0.0809
648.00,0.0811
647.00,0.0814
646.00,0.0816
645.00,0.0819
644.00,0.0822
643.00,0.0825
642.00,0.0827
641.00,0.0830
640.00,0.0834
639.00,0.0837
638.00,0.0840
637.00,0.0843
636.00,0.0846
635.00,0.0849
634.00,0.0852
633.00,0.0854
632.00,0.0857
631.00,0.0860
630.00,0.0863
629.00,0.0865
628.00,0.0868
627.00,0.0870
626.00,0.0872
625.00,0.0873
624.00,0.0874
623.00,0.0876
622.00,0.0877
621.00,0.0877
620.00,0.0877
619.00,0.0877
618.00,0.0877
617.00,0.0877
616.00,0.0877
615.00,0.0878
614.00,0.0877
613.00,0.0876
612.00,0.0876
611.00,0.0876
610.00,0.0876
609.00,0.0875
608.00,0.0875
607.00,0.0875
606.00,0.0875
605.00,0.0875
604.00,0.0874
603.00,0.0874
602.00,0.0874
601.00,0.0874
600.00,0.0874
599.00,0.0874
598.00,0.0874
597.00,0.0874
596.00,0.0875
595.00,0.0876
594.00,0.0876
593.00,0.0877
592.00,0.0877
591.00,0.0878
590.00,0.0879
589.00,0.0880
588.00,0.0882
587.00,0.0883
586.00,0.0885
585.00,0.0886
584.00,0.0887
583.00,0.0888
582.00,0.0889
581.00,0.0890
580.00,0.0891
579.00,0.0892
578.00,0.0893
577.00,0.0894
576.00,0.0896
575.00,0.0898
574.00,0.0900
573.00,0.0901
572.00,0.0902
571.00,0.0904
570.00,0.0905
569.00,0.0906
568.00,0.0908
567.00,0.0909
566.00,0.0910
565.00,0.0911
564.00,0.0913
563.00,0.0915
562.00,0.0916
561.00,0.0917
560.00,0.0919
559.00,0.0921
558.00,0.0921
557.00,0.0921
556.00,0.0922
555.00,0.0924
554.00,0.0926
553.00,0.0927
552.00,0.0929
551.00,0.0929
550.00,0.0930
549.00,0.0930
548.00,0.0932
547.00,0.0935
546.00,0.0936
545.00,0.0938
544.00,0.0939
543.00,0.0941
542.00,0.0942
541.00,0.0942
540.00,0.0943
539.00,0.0944
538.00,0.0945
537.00,0.0946
536.00,0.0948
535.00,0.0949
534.00,0.0949
533.00,0.0949
532.00,0.0951
531.00,0.0952
530.00,0.0953
529.00,0.0954
528.00,0.0955
527.00,0.0956
526.00,0.0956
525.00,0.0958
524.00,0.0960
523.00,0.0961
522.00,0.0962
521.00,0.0962
520.00,0.0962
519.00,0.0964
518.00,0.0964
517.00,0.0964
516.00,0.0963
515.00,0.0961
514.00,0.0958
513.00,0.0955
512.00,0.0954
511.00,0.0953
510.00,0.0951
509.00,0.0949
508.00,0.0948
507.00,0.0948
506.00,0.0947
505.00,0.0945
504.00,0.0943
503.00,0.0942
502.00,0.0941
501.00,0.0941
500.00,0.0942
499.00,0.0942
498.00,0.0941
497.00,0.0940
496.00,0.0939
495.00,0.0937
494.00,0.0936
493.00,0.0935
492.00,0.0935
491.00,0.0935
490.00,0.0934
489.00,0.0932
488.00,0.0931
487.00,0.0930
486.00,0.0929
485.00,0.0929
484.00,0.0930
483.00,0.0930
482.00,0.0928
481.00,0.0926
480.00,0.0925
479.00,0.0924
478.00,0.0924
477.00,0.0923
476.00,0.0924
475.00,0.0924
474.00,0.0924
473.00,0.0924
472.00,0.0926
471.00,0.0929
470.00,0.0930
469.00,0.0931
468.00,0.0933
467.00,0.0933
466.00,0.0932
465.00,0.0931
464.00,0.0931
463.00,0.0932
462.00,0.0931
461.00,0.0931
460.00,0.0929
459.00,0.0927
458.00,0.0923
457.00,0.0921
456.00,0.0920
455.00,0.0919
454.00,0.0918
453.00,0.0917
452.00,0.0916
451.00,0.0914
450.00,0.0910
449.00,0.0906
448.00,0.0902
447.00,0.0899
446.00,0.0896
445.00,0.0892
444.00,0.0890
443.00,0.0888
442.00,0.0885
441.00,0.0882
440.00,0.0878
439.00,0.0873
438.00,0.0867
437.00,0.0861
436.00,0.0857
435.00,0.0854
434.00,0.0851
433.00,0.0849
432.00,0.0847
431.00,0.0845
430.00,0.0841
429.00,0.0838
428.00,0.0836
427.00,0.0833
426.00,0.0828
425.00,0.0825
424.00,0.0824
423.00,0.0824
422.00,0.0820
421.00,0.0814
420.00,0.0810
419.00,0.0810
418.00,0.0811
417.00,0.0812
416.00,0.0813
415.00,0.0813
414.00,0.0811
413.00,0.0807
412.00,0.0805
411.00,0.0802
410.00,0.0798
409.00,0.0795
408.00,0.0793
407.00,0.0791
406.00,0.0787
405.00,0.0783
404.00,0.0782
403.00,0.0781
402.00,0.0778
401.00,0.0774
400.00,0.0770
