Created as New Dataset,Sample 296 By YargerLab Date Sunday, August 18 2024
cm-1,A
4000.00,0.0147
3999.00,0.0147
3998.00,0.0147
3997.00,0.0147
3996.00,0.0147
3995.00,0.0147
3994.00,0.0147
3993.00,0.0147
3992.00,0.0147
3991.00,0.0147
3990.00,0.0147
3989.00,0.0147
3988.00,0.0147
3987.00,0.0147
3986.00,0.0147
3985.00,0.0147
3984.00,0.0147
3983.00,0.0147
3982.00,0.0147
3981.00,0.0147
3980.00,0.0147
3979.00,0.0147
3978.00,0.0147
3977.00,0.0147
3976.00,0.0147
3975.00,0.0147
3974.00,0.0147
3973.00,0.0147
3972.00,0.0147
3971.00,0.0147
3970.00,0.0146
3969.00,0.0146
3968.00,0.0146
3967.00,0.0146
3966.00,0.0146
3965.00,0.0146
3964.00,0.0146
3963.00,0.0146
3962.00,0.0146
3961.00,0.0146
3960.00,0.0146
3959.00,0.0146
3958.00,0.0146
3957.00,0.0146
3956.00,0.0146
3955.00,0.0146
3954.00,0.0146
3953.00,0.0146
3952.00,0.0146
3951.00,0.0146
3950.00,0.0146
3949.00,0.0146
3948.00,0.0146
3947.00,0.0146
3946.00,0.0146
3945.00,0.0146
3944.00,0.0146
3943.00,0.0146
3942.00,0.0146
3941.00,0.0146
3940.00,0.0146
3939.00,0.0146
3938.00,0.0146
3937.00,0.0146
3936.00,0.0146
3935.00,0.0146
3934.00,0.0146
3933.00,0.0146
3932.00,0.0145
3931.00,0.0145
3930.00,0.0145
3929.00,0.0145
3928.00,0.0145
3927.00,0.0145
3926.00,0.0145
3925.00,0.0145
3924.00,0.0145
3923.00,0.0145
3922.00,0.0145
3921.00,0.0145
3920.00,0.0145
3919.00,0.0145
3918.00,0.0145
3917.00,0.0145
3916.00,0.0145
3915.00,0.0145
3914.00,0.0145
3913.00,0.0145
3912.00,0.0145
3911.00,0.0145
3910.00,0.0144
3909.00,0.0144
3908.00,0.0144
3907.00,0.0144
3906.00,0.0144
3905.00,0.0144
3904.00,0.0144
3903.00,0.0145
3902.00,0.0145
3901.00,0.0145
3900.00,0.0145
3899.00,0.0145
3898.00,0.0144
3897.00,0.0144
3896.00,0.0144
3895.00,0.0144
3894.00,0.0144
3893.00,0.0144
3892.00,0.0144
3891.00,0.0144
3890.00,0.0144
3889.00,0.0144
3888.00,0.0144
3887.00,0.0144
3886.00,0.0144
3885.00,0.0144
3884.00,0.0144
3883.00,0.0144
3882.00,0.0144
3881.00,0.0143
3880.00,0.0143
3879.00,0.0143
3878.00,0.0143
3877.00,0.0143
3876.00,0.0143
3875.00,0.0143
3874.00,0.0143
3873.00,0.0143
3872.00,0.0143
3871.00,0.0143
3870.00,0.0143
3869.00,0.0143
3868.00,0.0143
3867.00,0.0143
3866.00,0.0143
3865.00,0.0143
3864.00,0.0143
3863.00,0.0143
3862.00,0.0143
3861.00,0.0143
3860.00,0.0143
3859.00,0.0142
3858.00,0.0142
3857.00,0.0142
3856.00,0.0142
3855.00,0.0142
3854.00,0.0142
3853.00,0.0142
3852.00,0.0142
3851.00,0.0142
3850.00,0.0142
3849.00,0.0142
3848.00,0.0142
3847.00,0.0142
3846.00,0.0142
3845.00,0.0142
3844.00,0.0142
3843.00,0.0141
3842.00,0.0141
3841.00,0.0141
3840.00,0.0142
3839.00,0.0142
3838.00,0.0142
3837.00,0.0142
3836.00,0.0142
3835.00,0.0141
3834.00,0.0141
3833.00,0.0141
3832.00,0.0141
3831.00,0.0141
3830.00,0.0141
3829.00,0.0141
3828.00,0.0140
3827.00,0.0140
3826.00,0.0140
3825.00,0.0141
3824.00,0.0141
3823.00,0.0141
3822.00,0.0141
3821.00,0.0140
3820.00,0.0140
3819.00,0.0140
3818.00,0.0140
3817.00,0.0140
3816.00,0.0140
3815.00,0.0140
3814.00,0.0140
3813.00,0.0140
3812.00,0.0139
3811.00,0.0139
3810.00,0.0139
3809.00,0.0139
3808.00,0.0139
3807.00,0.0139
3806.00,0.0139
3805.00,0.0139
3804.00,0.0139
3803.00,0.0139
3802.00,0.0139
3801.00,0.0139
3800.00,0.0139
3799.00,0.0139
3798.00,0.0139
3797.00,0.0139
3796.00,0.0139
3795.00,0.0139
3794.00,0.0139
3793.00,0.0138
3792.00,0.0138
3791.00,0.0138
3790.00,0.0138
3789.00,0.0138
3788.00,0.0138
3787.00,0.0138
3786.00,0.0138
3785.00,0.0138
3784.00,0.0138
3783.00,0.0138
3782.00,0.0138
3781.00,0.0138
3780.00,0.0138
3779.00,0.0137
3778.00,0.0137
3777.00,0.0137
3776.00,0.0137
3775.00,0.0137
3774.00,0.0137
3773.00,0.0137
3772.00,0.0137
3771.00,0.0137
3770.00,0.0137
3769.00,0.0137
3768.00,0.0137
3767.00,0.0137
3766.00,0.0137
3765.00,0.0137
3764.00,0.0137
3763.00,0.0137
3762.00,0.0137
3761.00,0.0137
3760.00,0.0137
3759.00,0.0137
3758.00,0.0137
3757.00,0.0137
3756.00,0.0137
3755.00,0.0137
3754.00,0.0137
3753.00,0.0137
3752.00,0.0137
3751.00,0.0137
3750.00,0.0137
3749.00,0.0137
3748.00,0.0137
3747.00,0.0137
3746.00,0.0137
3745.00,0.0136
3744.00,0.0136
3743.00,0.0136
3742.00,0.0136
3741.00,0.0136
3740.00,0.0135
3739.00,0.0135
3738.00,0.0135
3737.00,0.0135
3736.00,0.0135
3735.00,0.0135
3734.00,0.0135
3733.00,0.0134
3732.00,0.0134
3731.00,0.0134
3730.00,0.0134
3729.00,0.0134
3728.00,0.0134
3727.00,0.0134
3726.00,0.0133
3725.00,0.0133
3724.00,0.0133
3723.00,0.0133
3722.00,0.0133
3721.00,0.0133
3720.00,0.0132
3719.00,0.0132
3718.00,0.0132
3717.00,0.0132
3716.00,0.0132
3715.00,0.0132
3714.00,0.0132
3713.00,0.0132
3712.00,0.0132
3711.00,0.0132
3710.00,0.0132
3709.00,0.0132
3708.00,0.0132
3707.00,0.0131
3706.00,0.0131
3705.00,0.0131
3704.00,0.0131
3703.00,0.0130
3702.00,0.0130
3701.00,0.0130
3700.00,0.0130
3699.00,0.0130
3698.00,0.0130
3697.00,0.0130
3696.00,0.0130
3695.00,0.0130
3694.00,0.0130
3693.00,0.0130
3692.00,0.0130
3691.00,0.0130
3690.00,0.0130
3689.00,0.0130
3688.00,0.0130
3687.00,0.0130
3686.00,0.0130
3685.00,0.0130
3684.00,0.0130
3683.00,0.0130
3682.00,0.0130
3681.00,0.0130
3680.00,0.0130
3679.00,0.0131
3678.00,0.0131
3677.00,0.0131
3676.00,0.0131
3675.00,0.0131
3674.00,0.0131
3673.00,0.0131
3672.00,0.0131
3671.00,0.0131
3670.00,0.0131
3669.00,0.0131
3668.00,0.0131
3667.00,0.0131
3666.00,0.0131
3665.00,0.0131
3664.00,0.0131
3663.00,0.0131
3662.00,0.0131
3661.00,0.0132
3660.00,0.0132
3659.00,0.0132
3658.00,0.0133
3657.00,0.0133
3656.00,0.0133
3655.00,0.0133
3654.00,0.0133
3653.00,0.0133
3652.00,0.0133
3651.00,0.0134
3650.00,0.0134
3649.00,0.0134
3648.00,0.0135
3647.00,0.0135
3646.00,0.0135
3645.00,0.0135
3644.00,0.0135
3643.00,0.0135
3642.00,0.0135
3641.00,0.0135
3640.00,0.0136
3639.00,0.0136
3638.00,0.0136
3637.00,0.0137
3636.00,0.0137
3635.00,0.0138
3634.00,0.0138
3633.00,0.0138
3632.00,0.0138
3631.00,0.0139
3630.00,0.0139
3629.00,0.0139
3628.00,0.0140
3627.00,0.0140
3626.00,0.0140
3625.00,0.0141
3624.00,0.0141
3623.00,0.0141
3622.00,0.0141
3621.00,0.0142
3620.00,0.0142
3619.00,0.0142
3618.00,0.0143
3617.00,0.0144
3616.00,0.0144
3615.00,0.0145
3614.00,0.0145
3613.00,0.0146
3612.00,0.0146
3611.00,0.0146
3610.00,0.0146
3609.00,0.0147
3608.00,0.0147
3607.00,0.0147
3606.00,0.0148
3605.00,0.0148
3604.00,0.0148
3603.00,0.0149
3602.00,0.0149
3601.00,0.0149
3600.00,0.0150
3599.00,0.0150
3598.00,0.0150
3597.00,0.0151
3596.00,0.0151
3595.00,0.0152
3594.00,0.0152
3593.00,0.0153
3592.00,0.0153
3591.00,0.0154
3590.00,0.0154
3589.00,0.0154
3588.00,0.0155
3587.00,0.0155
3586.00,0.0156
3585.00,0.0156
3584.00,0.0157
3583.00,0.0157
3582.00,0.0157
3581.00,0.0158
3580.00,0.0159
3579.00,0.0159
3578.00,0.0160
3577.00,0.0160
3576.00,0.0161
3575.00,0.0161
3574.00,0.0162
3573.00,0.0163
3572.00,0.0163
3571.00,0.0164
3570.00,0.0164
3569.00,0.0165
3568.00,0.0165
3567.00,0.0166
3566.00,0.0166
3565.00,0.0167
3564.00,0.0168
3563.00,0.0168
3562.00,0.0169
3561.00,0.0169
3560.00,0.0170
3559.00,0.0170
3558.00,0.0171
3557.00,0.0172
3556.00,0.0172
3555.00,0.0173
3554.00,0.0174
3553.00,0.0174
3552.00,0.0175
3551.00,0.0176
3550.00,0.0176
3549.00,0.0177
3548.00,0.0178
3547.00,0.0179
3546.00,0.0179
3545.00,0.0180
3544.00,0.0180
3543.00,0.0181
3542.00,0.0181
3541.00,0.0181
3540.00,0.0182
3539.00,0.0183
3538.00,0.0183
3537.00,0.0184
3536.00,0.0185
3535.00,0.0185
3534.00,0.0186
3533.00,0.0186
3532.00,0.0187
3531.00,0.0187
3530.00,0.0188
3529.00,0.0189
3528.00,0.0189
3527.00,0.0190
3526.00,0.0191
3525.00,0.0192
3524.00,0.0192
3523.00,0.0193
3522.00,0.0193
3521.00,0.0194
3520.00,0.0194
3519.00,0.0195
3518.00,0.0195
3517.00,0.0196
3516.00,0.0197
3515.00,0.0197
3514.00,0.0198
3513.00,0.0199
3512.00,0.0199
3511.00,0.0200
3510.00,0.0200
3509.00,0.0201
3508.00,0.0201
3507.00,0.0202
3506.00,0.0203
3505.00,0.0204
3504.00,0.0204
3503.00,0.0205
3502.00,0.0206
3501.00,0.0206
3500.00,0.0207
3499.00,0.0208
3498.00,0.0208
3497.00,0.0209
3496.00,0.0210
3495.00,0.0210
3494.00,0.0211
3493.00,0.0211
3492.00,0.0212
3491.00,0.0212
3490.00,0.0213
3489.00,0.0214
3488.00,0.0214
3487.00,0.0215
3486.00,0.0216
3485.00,0.0217
3484.00,0.0217
3483.00,0.0218
3482.00,0.0218
3481.00,0.0219
3480.00,0.0220
3479.00,0.0221
3478.00,0.0221
3477.00,0.0222
3476.00,0.0223
3475.00,0.0223
3474.00,0.0224
3473.00,0.0225
3472.00,0.0226
3471.00,0.0226
3470.00,0.0227
3469.00,0.0228
3468.00,0.0229
3467.00,0.0229
3466.00,0.0230
3465.00,0.0230
3464.00,0.0231
3463.00,0.0232
3462.00,0.0232
3461.00,0.0233
3460.00,0.0234
3459.00,0.0234
3458.00,0.0235
3457.00,0.0236
3456.00,0.0236
3455.00,0.0237
3454.00,0.0237
3453.00,0.0238
3452.00,0.0239
3451.00,0.0240
3450.00,0.0240
3449.00,0.0241
3448.00,0.0241
3447.00,0.0242
3446.00,0.0243
3445.00,0.0244
3444.00,0.0244
3443.00,0.0245
3442.00,0.0246
3441.00,0.0246
3440.00,0.0247
3439.00,0.0248
3438.00,0.0249
3437.00,0.0249
3436.00,0.0250
3435.00,0.0251
3434.00,0.0251
3433.00,0.0252
3432.00,0.0253
3431.00,0.0253
3430.00,0.0254
3429.00,0.0255
3428.00,0.0255
3427.00,0.0256
3426.00,0.0257
3425.00,0.0257
3424.00,0.0258
3423.00,0.0259
3422.00,0.0260
3421.00,0.0260
3420.00,0.0261
3419.00,0.0261
3418.00,0.0262
3417.00,0.0263
3416.00,0.0264
3415.00,0.0264
3414.00,0.0265
3413.00,0.0266
3412.00,0.0266
3411.00,0.0267
3410.00,0.0267
3409.00,0.0268
3408.00,0.0269
3407.00,0.0270
3406.00,0.0270
3405.00,0.0271
3404.00,0.0271
3403.00,0.0272
3402.00,0.0273
3401.00,0.0273
3400.00,0.0274
3399.00,0.0274
3398.00,0.0275
3397.00,0.0275
3396.00,0.0276
3395.00,0.0276
3394.00,0.0277
3393.00,0.0278
3392.00,0.0278
3391.00,0.0279
3390.00,0.0280
3389.00,0.0280
3388.00,0.0281
3387.00,0.0281
3386.00,0.0282
3385.00,0.0283
3384.00,0.0284
3383.00,0.0284
3382.00,0.0285
3381.00,0.0285
3380.00,0.0286
3379.00,0.0287
3378.00,0.0287
3377.00,0.0288
3376.00,0.0289
3375.00,0.0289
3374.00,0.0290
3373.00,0.0291
3372.00,0.0291
3371.00,0.0292
3370.00,0.0293
3369.00,0.0294
3368.00,0.0295
3367.00,0.0296
3366.00,0.0297
3365.00,0.0298
3364.00,0.0299
3363.00,0.0300
3362.00,0.0300
3361.00,0.0301
3360.00,0.0303
3359.00,0.0304
3358.00,0.0305
3357.00,0.0306
3356.00,0.0307
3355.00,0.0308
3354.00,0.0309
3353.00,0.0310
3352.00,0.0311
3351.00,0.0312
3350.00,0.0313
3349.00,0.0315
3348.00,0.0316
3347.00,0.0317
3346.00,0.0318
3345.00,0.0319
3344.00,0.0320
3343.00,0.0322
3342.00,0.0323
3341.00,0.0324
3340.00,0.0326
3339.00,0.0327
3338.00,0.0329
3337.00,0.0330
3336.00,0.0332
3335.00,0.0334
3334.00,0.0336
3333.00,0.0338
3332.00,0.0339
3331.00,0.0341
3330.00,0.0343
3329.00,0.0344
3328.00,0.0346
3327.00,0.0348
3326.00,0.0349
3325.00,0.0352
3324.00,0.0354
3323.00,0.0356
3322.00,0.0359
3321.00,0.0361
3320.00,0.0363
3319.00,0.0365
3318.00,0.0368
3317.00,0.0370
3316.00,0.0372
3315.00,0.0375
3314.00,0.0377
3313.00,0.0380
3312.00,0.0382
3311.00,0.0384
3310.00,0.0387
3309.00,0.0389
3308.00,0.0392
3307.00,0.0395
3306.00,0.0398
3305.00,0.0401
3304.00,0.0405
3303.00,0.0408
3302.00,0.0411
3301.00,0.0414
3300.00,0.0417
3299.00,0.0420
3298.00,0.0423
3297.00,0.0426
3296.00,0.0429
3295.00,0.0432
3294.00,0.0435
3293.00,0.0438
3292.00,0.0442
3291.00,0.0445
3290.00,0.0448
3289.00,0.0452
3288.00,0.0455
3287.00,0.0458
3286.00,0.0460
3285.00,0.0463
3284.00,0.0465
3283.00,0.0468
3282.00,0.0470
3281.00,0.0472
3280.00,0.0474
3279.00,0.0475
3278.00,0.0477
3277.00,0.0478
3276.00,0.0479
3275.00,0.0479
3274.00,0.0480
3273.00,0.0480
3272.00,0.0480
3271.00,0.0480
3270.00,0.0480
3269.00,0.0480
3268.00,0.0480
3267.00,0.0479
3266.00,0.0478
3265.00,0.0477
3264.00,0.0475
3263.00,0.0474
3262.00,0.0472
3261.00,0.0470
3260.00,0.0468
3259.00,0.0465
3258.00,0.0463
3257.00,0.0461
3256.00,0.0458
3255.00,0.0456
3254.00,0.0454
3253.00,0.0452
3252.00,0.0449
3251.00,0.0447
3250.00,0.0444
3249.00,0.0441
3248.00,0.0438
3247.00,0.0435
3246.00,0.0433
3245.00,0.0431
3244.00,0.0429
3243.00,0.0427
3242.00,0.0425
3241.00,0.0423
3240.00,0.0421
3239.00,0.0418
3238.00,0.0416
3237.00,0.0414
3236.00,0.0411
3235.00,0.0409
3234.00,0.0407
3233.00,0.0405
3232.00,0.0404
3231.00,0.0403
3230.00,0.0401
3229.00,0.0400
3228.00,0.0398
3227.00,0.0397
3226.00,0.0395
3225.00,0.0394
3224.00,0.0392
3223.00,0.0391
3222.00,0.0389
3221.00,0.0388
3220.00,0.0386
3219.00,0.0385
3218.00,0.0384
3217.00,0.0383
3216.00,0.0381
3215.00,0.0380
3214.00,0.0379
3213.00,0.0378
3212.00,0.0377
3211.00,0.0375
3210.00,0.0374
3209.00,0.0373
3208.00,0.0372
3207.00,0.0371
3206.00,0.0369
3205.00,0.0368
3204.00,0.0367
3203.00,0.0366
3202.00,0.0365
3201.00,0.0364
3200.00,0.0363
3199.00,0.0362
3198.00,0.0360
3197.00,0.0359
3196.00,0.0358
3195.00,0.0357
3194.00,0.0356
3193.00,0.0355
3192.00,0.0353
3191.00,0.0352
3190.00,0.0351
3189.00,0.0350
3188.00,0.0349
3187.00,0.0348
3186.00,0.0347
3185.00,0.0345
3184.00,0.0344
3183.00,0.0343
3182.00,0.0342
3181.00,0.0340
3180.00,0.0339
3179.00,0.0338
3178.00,0.0337
3177.00,0.0335
3176.00,0.0334
3175.00,0.0333
3174.00,0.0332
3173.00,0.0331
3172.00,0.0330
3171.00,0.0328
3170.00,0.0327
3169.00,0.0326
3168.00,0.0325
3167.00,0.0324
3166.00,0.0322
3165.00,0.0321
3164.00,0.0320
3163.00,0.0319
3162.00,0.0318
3161.00,0.0316
3160.00,0.0315
3159.00,0.0314
3158.00,0.0313
3157.00,0.0312
3156.00,0.0311
3155.00,0.0309
3154.00,0.0308
3153.00,0.0307
3152.00,0.0306
3151.00,0.0305
3150.00,0.0304
3149.00,0.0303
3148.00,0.0302
3147.00,0.0301
3146.00,0.0300
3145.00,0.0299
3144.00,0.0298
3143.00,0.0297
3142.00,0.0296
3141.00,0.0295
3140.00,0.0294
3139.00,0.0294
3138.00,0.0293
3137.00,0.0292
3136.00,0.0292
3135.00,0.0291
3134.00,0.0290
3133.00,0.0289
3132.00,0.0288
3131.00,0.0288
3130.00,0.0287
3129.00,0.0286
3128.00,0.0286
3127.00,0.0285
3126.00,0.0284
3125.00,0.0284
3124.00,0.0283
3123.00,0.0282
3122.00,0.0281
3121.00,0.0281
3120.00,0.0280
3119.00,0.0280
3118.00,0.0279
3117.00,0.0279
3116.00,0.0279
3115.00,0.0279
3114.00,0.0279
3113.00,0.0279
3112.00,0.0278
3111.00,0.0278
3110.00,0.0278
3109.00,0.0277
3108.00,0.0277
3107.00,0.0277
3106.00,0.0278
3105.00,0.0278
3104.00,0.0277
3103.00,0.0277
3102.00,0.0277
3101.00,0.0277
3100.00,0.0277
3099.00,0.0277
3098.00,0.0277
3097.00,0.0278
3096.00,0.0278
3095.00,0.0278
3094.00,0.0278
3093.00,0.0278
3092.00,0.0277
3091.00,0.0277
3090.00,0.0277
3089.00,0.0278
3088.00,0.0278
3087.00,0.0278
3086.00,0.0278
3085.00,0.0278
3084.00,0.0277
3083.00,0.0277
3082.00,0.0277
3081.00,0.0277
3080.00,0.0277
3079.00,0.0278
3078.00,0.0278
3077.00,0.0278
3076.00,0.0279
3075.00,0.0279
3074.00,0.0280
3073.00,0.0279
3072.00,0.0279
3071.00,0.0279
3070.00,0.0278
3069.00,0.0278
3068.00,0.0278
3067.00,0.0278
3066.00,0.0278
3065.00,0.0278
3064.00,0.0278
3063.00,0.0278
3062.00,0.0278
3061.00,0.0277
3060.00,0.0277
3059.00,0.0276
3058.00,0.0275
3057.00,0.0275
3056.00,0.0274
3055.00,0.0274
3054.00,0.0273
3053.00,0.0272
3052.00,0.0271
3051.00,0.0271
3050.00,0.0270
3049.00,0.0269
3048.00,0.0269
3047.00,0.0268
3046.00,0.0267
3045.00,0.0266
3044.00,0.0265
3043.00,0.0264
3042.00,0.0263
3041.00,0.0263
3040.00,0.0263
3039.00,0.0262
3038.00,0.0262
3037.00,0.0261
3036.00,0.0260
3035.00,0.0259
3034.00,0.0258
3033.00,0.0258
3032.00,0.0257
3031.00,0.0257
3030.00,0.0257
3029.00,0.0256
3028.00,0.0256
3027.00,0.0255
3026.00,0.0254
3025.00,0.0253
3024.00,0.0252
3023.00,0.0251
3022.00,0.0251
3021.00,0.0250
3020.00,0.0249
3019.00,0.0248
3018.00,0.0247
3017.00,0.0246
3016.00,0.0245
3015.00,0.0245
3014.00,0.0244
3013.00,0.0243
3012.00,0.0243
3011.00,0.0243
3010.00,0.0243
3009.00,0.0244
3008.00,0.0244
3007.00,0.0243
3006.00,0.0243
3005.00,0.0243
3004.00,0.0243
3003.00,0.0242
3002.00,0.0242
3001.00,0.0242
3000.00,0.0242
2999.00,0.0241
2998.00,0.0241
2997.00,0.0241
2996.00,0.0242
2995.00,0.0242
2994.00,0.0242
2993.00,0.0243
2992.00,0.0243
2991.00,0.0244
2990.00,0.0245
2989.00,0.0246
2988.00,0.0246
2987.00,0.0247
2986.00,0.0248
2985.00,0.0249
2984.00,0.0249
2983.00,0.0250
2982.00,0.0251
2981.00,0.0251
2980.00,0.0252
2979.00,0.0253
2978.00,0.0254
2977.00,0.0254
2976.00,0.0255
2975.00,0.0256
2974.00,0.0257
2973.00,0.0257
2972.00,0.0258
2971.00,0.0258
2970.00,0.0259
2969.00,0.0259
2968.00,0.0259
2967.00,0.0260
2966.00,0.0260
2965.00,0.0260
2964.00,0.0259
2963.00,0.0259
2962.00,0.0259
2961.00,0.0259
2960.00,0.0258
2959.00,0.0258
2958.00,0.0258
2957.00,0.0257
2956.00,0.0257
2955.00,0.0256
2954.00,0.0256
2953.00,0.0255
2952.00,0.0255
2951.00,0.0255
2950.00,0.0255
2949.00,0.0255
2948.00,0.0255
2947.00,0.0255
2946.00,0.0255
2945.00,0.0255
2944.00,0.0256
2943.00,0.0257
2942.00,0.0257
2941.00,0.0258
2940.00,0.0258
2939.00,0.0259
2938.00,0.0259
2937.00,0.0260
2936.00,0.0260
2935.00,0.0260
2934.00,0.0259
2933.00,0.0259
2932.00,0.0258
2931.00,0.0257
2930.00,0.0256
2929.00,0.0255
2928.00,0.0254
2927.00,0.0253
2926.00,0.0251
2925.00,0.0249
2924.00,0.0247
2923.00,0.0245
2922.00,0.0243
2921.00,0.0240
2920.00,0.0238
2919.00,0.0235
2918.00,0.0233
2917.00,0.0232
2916.00,0.0231
2915.00,0.0231
2914.00,0.0232
2913.00,0.0233
2912.00,0.0234
2911.00,0.0235
2910.00,0.0236
2909.00,0.0237
2908.00,0.0237
2907.00,0.0237
2906.00,0.0237
2905.00,0.0237
2904.00,0.0236
2903.00,0.0236
2902.00,0.0236
2901.00,0.0236
2900.00,0.0236
2899.00,0.0235
2898.00,0.0235
2897.00,0.0235
2896.00,0.0235
2895.00,0.0235
2894.00,0.0235
2893.00,0.0235
2892.00,0.0235
2891.00,0.0235
2890.00,0.0236
2889.00,0.0236
2888.00,0.0236
2887.00,0.0236
2886.00,0.0237
2885.00,0.0237
2884.00,0.0238
2883.00,0.0238
2882.00,0.0239
2881.00,0.0239
2880.00,0.0240
2879.00,0.0240
2878.00,0.0240
2877.00,0.0240
2876.00,0.0240
2875.00,0.0240
2874.00,0.0240
2873.00,0.0240
2872.00,0.0240
2871.00,0.0239
2870.00,0.0238
2869.00,0.0238
2868.00,0.0237
2867.00,0.0236
2866.00,0.0234
2865.00,0.0233
2864.00,0.0232
2863.00,0.0231
2862.00,0.0230
2861.00,0.0228
2860.00,0.0227
2859.00,0.0226
2858.00,0.0225
2857.00,0.0224
2856.00,0.0222
2855.00,0.0221
2854.00,0.0219
2853.00,0.0218
2852.00,0.0215
2851.00,0.0213
2850.00,0.0211
2849.00,0.0210
2848.00,0.0210
2847.00,0.0211
2846.00,0.0212
2845.00,0.0214
2844.00,0.0215
2843.00,0.0215
2842.00,0.0216
2841.00,0.0216
2840.00,0.0216
2839.00,0.0215
2838.00,0.0215
2837.00,0.0215
2836.00,0.0215
2835.00,0.0215
2834.00,0.0214
2833.00,0.0214
2832.00,0.0214
2831.00,0.0214
2830.00,0.0213
2829.00,0.0213
2828.00,0.0213
2827.00,0.0212
2826.00,0.0212
2825.00,0.0212
2824.00,0.0212
2823.00,0.0211
2822.00,0.0211
2821.00,0.0211
2820.00,0.0211
2819.00,0.0210
2818.00,0.0210
2817.00,0.0210
2816.00,0.0210
2815.00,0.0209
2814.00,0.0209
2813.00,0.0209
2812.00,0.0209
2811.00,0.0208
2810.00,0.0208
2809.00,0.0208
2808.00,0.0208
2807.00,0.0207
2806.00,0.0207
2805.00,0.0207
2804.00,0.0207
2803.00,0.0207
2802.00,0.0206
2801.00,0.0206
2800.00,0.0206
2799.00,0.0206
2798.00,0.0206
2797.00,0.0205
2796.00,0.0205
2795.00,0.0205
2794.00,0.0205
2793.00,0.0205
2792.00,0.0204
2791.00,0.0204
2790.00,0.0204
2789.00,0.0204
2788.00,0.0203
2787.00,0.0203
2786.00,0.0203
2785.00,0.0203
2784.00,0.0203
2783.00,0.0203
2782.00,0.0203
2781.00,0.0203
2780.00,0.0202
2779.00,0.0202
2778.00,0.0202
2777.00,0.0202
2776.00,0.0201
2775.00,0.0201
2774.00,0.0201
2773.00,0.0201
2772.00,0.0201
2771.00,0.0200
2770.00,0.0200
2769.00,0.0200
2768.00,0.0200
2767.00,0.0199
2766.00,0.0199
2765.00,0.0199
2764.00,0.0199
2763.00,0.0199
2762.00,0.0199
2761.00,0.0198
2760.00,0.0198
2759.00,0.0198
2758.00,0.0198
2757.00,0.0197
2756.00,0.0197
2755.00,0.0197
2754.00,0.0197
2753.00,0.0196
2752.00,0.0196
2751.00,0.0196
2750.00,0.0196
2749.00,0.0196
2748.00,0.0196
2747.00,0.0195
2746.00,0.0195
2745.00,0.0195
2744.00,0.0195
2743.00,0.0194
2742.00,0.0194
2741.00,0.0194
2740.00,0.0194
2739.00,0.0194
2738.00,0.0193
2737.00,0.0193
2736.00,0.0193
2735.00,0.0193
2734.00,0.0193
2733.00,0.0192
2732.00,0.0192
2731.00,0.0192
2730.00,0.0192
2729.00,0.0191
2728.00,0.0191
2727.00,0.0191
2726.00,0.0191
2725.00,0.0191
2724.00,0.0190
2723.00,0.0190
2722.00,0.0190
2721.00,0.0190
2720.00,0.0189
2719.00,0.0189
2718.00,0.0189
2717.00,0.0189
2716.00,0.0188
2715.00,0.0188
2714.00,0.0188
2713.00,0.0188
2712.00,0.0188
2711.00,0.0187
2710.00,0.0187
2709.00,0.0187
2708.00,0.0187
2707.00,0.0187
2706.00,0.0186
2705.00,0.0186
2704.00,0.0186
2703.00,0.0186
2702.00,0.0185
2701.00,0.0185
2700.00,0.0185
2699.00,0.0185
2698.00,0.0185
2697.00,0.0185
2696.00,0.0185
2695.00,0.0184
2694.00,0.0184
2693.00,0.0184
2692.00,0.0184
2691.00,0.0183
2690.00,0.0183
2689.00,0.0183
2688.00,0.0183
2687.00,0.0183
2686.00,0.0182
2685.00,0.0182
2684.00,0.0182
2683.00,0.0182
2682.00,0.0182
2681.00,0.0182
2680.00,0.0182
2679.00,0.0181
2678.00,0.0181
2677.00,0.0181
2676.00,0.0181
2675.00,0.0181
2674.00,0.0181
2673.00,0.0181
2672.00,0.0181
2671.00,0.0180
2670.00,0.0180
2669.00,0.0180
2668.00,0.0180
2667.00,0.0180
2666.00,0.0181
2665.00,0.0181
2664.00,0.0181
2663.00,0.0182
2662.00,0.0182
2661.00,0.0182
2660.00,0.0182
2659.00,0.0182
2658.00,0.0182
2657.00,0.0182
2656.00,0.0182
2655.00,0.0182
2654.00,0.0182
2653.00,0.0182
2652.00,0.0182
2651.00,0.0181
2650.00,0.0181
2649.00,0.0181
2648.00,0.0181
2647.00,0.0181
2646.00,0.0181
2645.00,0.0180
2644.00,0.0180
2643.00,0.0180
2642.00,0.0180
2641.00,0.0180
2640.00,0.0180
2639.00,0.0179
2638.00,0.0179
2637.00,0.0179
2636.00,0.0179
2635.00,0.0178
2634.00,0.0178
2633.00,0.0178
2632.00,0.0178
2631.00,0.0177
2630.00,0.0177
2629.00,0.0177
2628.00,0.0177
2627.00,0.0177
2626.00,0.0177
2625.00,0.0176
2624.00,0.0176
2623.00,0.0176
2622.00,0.0175
2621.00,0.0175
2620.00,0.0175
2619.00,0.0175
2618.00,0.0175
2617.00,0.0175
2616.00,0.0175
2615.00,0.0174
2614.00,0.0174
2613.00,0.0173
2612.00,0.0173
2611.00,0.0173
2610.00,0.0173
2609.00,0.0173
2608.00,0.0173
2607.00,0.0172
2606.00,0.0172
2605.00,0.0172
2604.00,0.0172
2603.00,0.0171
2602.00,0.0171
2601.00,0.0171
2600.00,0.0171
2599.00,0.0171
2598.00,0.0171
2597.00,0.0170
2596.00,0.0170
2595.00,0.0170
2594.00,0.0170
2593.00,0.0170
2592.00,0.0169
2591.00,0.0169
2590.00,0.0169
2589.00,0.0169
2588.00,0.0169
2587.00,0.0168
2586.00,0.0168
2585.00,0.0168
2584.00,0.0168
2583.00,0.0167
2582.00,0.0167
2581.00,0.0167
2580.00,0.0167
2579.00,0.0167
2578.00,0.0167
2577.00,0.0167
2576.00,0.0166
2575.00,0.0166
2574.00,0.0166
2573.00,0.0166
2572.00,0.0166
2571.00,0.0166
2570.00,0.0165
2569.00,0.0165
2568.00,0.0165
2567.00,0.0164
2566.00,0.0164
2565.00,0.0164
2564.00,0.0164
2563.00,0.0164
2562.00,0.0164
2561.00,0.0164
2560.00,0.0163
2559.00,0.0163
2558.00,0.0163
2557.00,0.0163
2556.00,0.0163
2555.00,0.0163
2554.00,0.0163
2553.00,0.0162
2552.00,0.0162
2551.00,0.0162
2550.00,0.0162
2549.00,0.0162
2548.00,0.0162
2547.00,0.0162
2546.00,0.0161
2545.00,0.0161
2544.00,0.0161
2543.00,0.0161
2542.00,0.0161
2541.00,0.0161
2540.00,0.0161
2539.00,0.0160
2538.00,0.0160
2537.00,0.0160
2536.00,0.0160
2535.00,0.0160
2534.00,0.0159
2533.00,0.0159
2532.00,0.0159
2531.00,0.0159
2530.00,0.0159
2529.00,0.0159
2528.00,0.0159
2527.00,0.0159
2526.00,0.0159
2525.00,0.0159
2524.00,0.0159
2523.00,0.0159
2522.00,0.0158
2521.00,0.0158
2520.00,0.0158
2519.00,0.0158
2518.00,0.0158
2517.00,0.0157
2516.00,0.0157
2515.00,0.0157
2514.00,0.0157
2513.00,0.0157
2512.00,0.0157
2511.00,0.0157
2510.00,0.0156
2509.00,0.0156
2508.00,0.0156
2507.00,0.0156
2506.00,0.0156
2505.00,0.0156
2504.00,0.0156
2503.00,0.0156
2502.00,0.0156
2501.00,0.0156
2500.00,0.0156
2499.00,0.0156
2498.00,0.0156
2497.00,0.0155
2496.00,0.0155
2495.00,0.0155
2494.00,0.0155
2493.00,0.0155
2492.00,0.0155
2491.00,0.0155
2490.00,0.0155
2489.00,0.0155
2488.00,0.0155
2487.00,0.0155
2486.00,0.0154
2485.00,0.0154
2484.00,0.0154
2483.00,0.0154
2482.00,0.0153
2481.00,0.0153
2480.00,0.0153
2479.00,0.0153
2478.00,0.0153
2477.00,0.0153
2476.00,0.0153
2475.00,0.0153
2474.00,0.0153
2473.00,0.0153
2472.00,0.0153
2471.00,0.0153
2470.00,0.0153
2469.00,0.0153
2468.00,0.0153
2467.00,0.0153
2466.00,0.0153
2465.00,0.0153
2464.00,0.0153
2463.00,0.0153
2462.00,0.0153
2461.00,0.0153
2460.00,0.0153
2459.00,0.0153
2458.00,0.0153
2457.00,0.0153
2456.00,0.0153
2455.00,0.0153
2454.00,0.0153
2453.00,0.0152
2452.00,0.0152
2451.00,0.0152
2450.00,0.0152
2449.00,0.0152
2448.00,0.0152
2447.00,0.0152
2446.00,0.0151
2445.00,0.0151
2444.00,0.0150
2443.00,0.0150
2442.00,0.0150
2441.00,0.0150
2440.00,0.0150
2439.00,0.0150
2438.00,0.0150
2437.00,0.0150
2436.00,0.0150
2435.00,0.0150
2434.00,0.0149
2433.00,0.0149
2432.00,0.0149
2431.00,0.0148
2430.00,0.0148
2429.00,0.0148
2428.00,0.0148
2427.00,0.0147
2426.00,0.0147
2425.00,0.0147
2424.00,0.0147
2423.00,0.0147
2422.00,0.0147
2421.00,0.0147
2420.00,0.0147
2419.00,0.0147
2418.00,0.0147
2417.00,0.0146
2416.00,0.0146
2415.00,0.0146
2414.00,0.0146
2413.00,0.0146
2412.00,0.0146
2411.00,0.0146
2410.00,0.0145
2409.00,0.0145
2408.00,0.0145
2407.00,0.0144
2406.00,0.0144
2405.00,0.0144
2404.00,0.0144
2403.00,0.0144
2402.00,0.0144
2401.00,0.0143
2400.00,0.0143
2399.00,0.0143
2398.00,0.0143
2397.00,0.0143
2396.00,0.0142
2395.00,0.0142
2394.00,0.0142
2393.00,0.0142
2392.00,0.0142
2391.00,0.0142
2390.00,0.0142
2389.00,0.0142
2388.00,0.0141
2387.00,0.0141
2386.00,0.0140
2385.00,0.0140
2384.00,0.0139
2383.00,0.0139
2382.00,0.0138
2381.00,0.0137
2380.00,0.0137
2379.00,0.0137
2378.00,0.0137
2377.00,0.0137
2376.00,0.0137
2375.00,0.0137
2374.00,0.0137
2373.00,0.0137
2372.00,0.0137
2371.00,0.0136
2370.00,0.0135
2369.00,0.0135
2368.00,0.0135
2367.00,0.0135
2366.00,0.0135
2365.00,0.0136
2364.00,0.0136
2363.00,0.0136
2362.00,0.0136
2361.00,0.0137
2360.00,0.0137
2359.00,0.0137
2358.00,0.0136
2357.00,0.0136
2356.00,0.0137
2355.00,0.0137
2354.00,0.0137
2353.00,0.0136
2352.00,0.0136
2351.00,0.0136
2350.00,0.0136
2349.00,0.0137
2348.00,0.0138
2347.00,0.0139
2346.00,0.0139
2345.00,0.0139
2344.00,0.0139
2343.00,0.0139
2342.00,0.0139
2341.00,0.0139
2340.00,0.0139
2339.00,0.0140
2338.00,0.0139
2337.00,0.0139
2336.00,0.0139
2335.00,0.0139
2334.00,0.0139
2333.00,0.0139
2332.00,0.0139
2331.00,0.0138
2330.00,0.0139
2329.00,0.0140
2328.00,0.0143
2327.00,0.0147
2326.00,0.0149
2325.00,0.0151
2324.00,0.0150
2323.00,0.0147
2322.00,0.0145
2321.00,0.0144
2320.00,0.0143
2319.00,0.0142
2318.00,0.0142
2317.00,0.0142
2316.00,0.0141
2315.00,0.0141
2314.00,0.0140
2313.00,0.0140
2312.00,0.0139
2311.00,0.0139
2310.00,0.0138
2309.00,0.0138
2308.00,0.0138
2307.00,0.0138
2306.00,0.0138
2305.00,0.0139
2304.00,0.0139
2303.00,0.0139
2302.00,0.0140
2301.00,0.0140
2300.00,0.0140
2299.00,0.0140
2298.00,0.0141
2297.00,0.0141
2296.00,0.0142
2295.00,0.0143
2294.00,0.0143
2293.00,0.0144
2292.00,0.0145
2291.00,0.0146
2290.00,0.0146
2289.00,0.0147
2288.00,0.0147
2287.00,0.0147
2286.00,0.0147
2285.00,0.0146
2284.00,0.0145
2283.00,0.0145
2282.00,0.0144
2281.00,0.0143
2280.00,0.0143
2279.00,0.0143
2278.00,0.0142
2277.00,0.0142
2276.00,0.0142
2275.00,0.0141
2274.00,0.0141
2273.00,0.0141
2272.00,0.0141
2271.00,0.0140
2270.00,0.0140
2269.00,0.0139
2268.00,0.0139
2267.00,0.0138
2266.00,0.0138
2265.00,0.0137
2264.00,0.0137
2263.00,0.0138
2262.00,0.0138
2261.00,0.0138
2260.00,0.0139
2259.00,0.0139
2258.00,0.0138
2257.00,0.0137
2256.00,0.0136
2255.00,0.0136
2254.00,0.0136
2253.00,0.0136
2252.00,0.0136
2251.00,0.0136
2250.00,0.0135
2249.00,0.0136
2248.00,0.0136
2247.00,0.0136
2246.00,0.0136
2245.00,0.0136
2244.00,0.0136
2243.00,0.0136
2242.00,0.0136
2241.00,0.0136
2240.00,0.0136
2239.00,0.0136
2238.00,0.0135
2237.00,0.0135
2236.00,0.0134
2235.00,0.0134
2234.00,0.0134
2233.00,0.0134
2232.00,0.0135
2231.00,0.0135
2230.00,0.0134
2229.00,0.0134
2228.00,0.0134
2227.00,0.0134
2226.00,0.0134
2225.00,0.0134
2224.00,0.0134
2223.00,0.0133
2222.00,0.0132
2221.00,0.0132
2220.00,0.0132
2219.00,0.0133
2218.00,0.0133
2217.00,0.0133
2216.00,0.0133
2215.00,0.0133
2214.00,0.0133
2213.00,0.0133
2212.00,0.0133
2211.00,0.0132
2210.00,0.0132
2209.00,0.0132
2208.00,0.0132
2207.00,0.0132
2206.00,0.0132
2205.00,0.0132
2204.00,0.0132
2203.00,0.0131
2202.00,0.0131
2201.00,0.0132
2200.00,0.0132
2199.00,0.0132
2198.00,0.0132
2197.00,0.0132
2196.00,0.0132
2195.00,0.0132
2194.00,0.0131
2193.00,0.0131
2192.00,0.0132
2191.00,0.0132
2190.00,0.0132
2189.00,0.0132
2188.00,0.0133
2187.00,0.0133
2186.00,0.0132
2185.00,0.0131
2184.00,0.0130
2183.00,0.0128
2182.00,0.0126
2181.00,0.0126
2180.00,0.0127
2179.00,0.0128
2178.00,0.0127
2177.00,0.0127
2176.00,0.0126
2175.00,0.0126
2174.00,0.0127
2173.00,0.0128
2172.00,0.0131
2171.00,0.0133
2170.00,0.0135
2169.00,0.0137
2168.00,0.0138
2167.00,0.0138
2166.00,0.0137
2165.00,0.0138
2164.00,0.0140
2163.00,0.0140
2162.00,0.0136
2161.00,0.0126
2160.00,0.0114
2159.00,0.0102
2158.00,0.0096
2157.00,0.0096
2156.00,0.0098
2155.00,0.0101
2154.00,0.0103
2153.00,0.0105
2152.00,0.0107
2151.00,0.0108
2150.00,0.0109
2149.00,0.0109
2148.00,0.0109
2147.00,0.0108
2146.00,0.0108
2145.00,0.0108
2144.00,0.0109
2143.00,0.0110
2142.00,0.0110
2141.00,0.0110
2140.00,0.0110
2139.00,0.0110
2138.00,0.0109
2137.00,0.0107
2136.00,0.0105
2135.00,0.0104
2134.00,0.0104
2133.00,0.0105
2132.00,0.0107
2131.00,0.0108
2130.00,0.0110
2129.00,0.0111
2128.00,0.0112
2127.00,0.0113
2126.00,0.0114
2125.00,0.0115
2124.00,0.0116
2123.00,0.0117
2122.00,0.0117
2121.00,0.0117
2120.00,0.0118
2119.00,0.0118
2118.00,0.0119
2117.00,0.0121
2116.00,0.0122
2115.00,0.0122
2114.00,0.0123
2113.00,0.0123
2112.00,0.0123
2111.00,0.0122
2110.00,0.0122
2109.00,0.0122
2108.00,0.0122
2107.00,0.0121
2106.00,0.0121
2105.00,0.0120
2104.00,0.0120
2103.00,0.0121
2102.00,0.0121
2101.00,0.0120
2100.00,0.0120
2099.00,0.0120
2098.00,0.0119
2097.00,0.0118
2096.00,0.0117
2095.00,0.0116
2094.00,0.0116
2093.00,0.0117
2092.00,0.0118
2091.00,0.0119
2090.00,0.0119
2089.00,0.0119
2088.00,0.0120
2087.00,0.0120
2086.00,0.0120
2085.00,0.0120
2084.00,0.0121
2083.00,0.0121
2082.00,0.0121
2081.00,0.0122
2080.00,0.0122
2079.00,0.0121
2078.00,0.0121
2077.00,0.0120
2076.00,0.0120
2075.00,0.0120
2074.00,0.0120
2073.00,0.0119
2072.00,0.0119
2071.00,0.0118
2070.00,0.0118
2069.00,0.0117
2068.00,0.0117
2067.00,0.0117
2066.00,0.0117
2065.00,0.0117
2064.00,0.0117
2063.00,0.0118
2062.00,0.0117
2061.00,0.0117
2060.00,0.0117
2059.00,0.0117
2058.00,0.0117
2057.00,0.0117
2056.00,0.0117
2055.00,0.0118
2054.00,0.0120
2053.00,0.0123
2052.00,0.0127
2051.00,0.0127
2050.00,0.0124
2049.00,0.0121
2048.00,0.0119
2047.00,0.0118
2046.00,0.0117
2045.00,0.0117
2044.00,0.0117
2043.00,0.0116
2042.00,0.0115
2041.00,0.0115
2040.00,0.0115
2039.00,0.0116
2038.00,0.0117
2037.00,0.0117
2036.00,0.0116
2035.00,0.0114
2034.00,0.0112
2033.00,0.0110
2032.00,0.0109
2031.00,0.0108
2030.00,0.0107
2029.00,0.0106
2028.00,0.0106
2027.00,0.0106
2026.00,0.0106
2025.00,0.0106
2024.00,0.0106
2023.00,0.0105
2022.00,0.0104
2021.00,0.0104
2020.00,0.0105
2019.00,0.0105
2018.00,0.0105
2017.00,0.0105
2016.00,0.0105
2015.00,0.0105
2014.00,0.0105
2013.00,0.0105
2012.00,0.0107
2011.00,0.0108
2010.00,0.0107
2009.00,0.0106
2008.00,0.0104
2007.00,0.0101
2006.00,0.0099
2005.00,0.0099
2004.00,0.0101
2003.00,0.0102
2002.00,0.0102
2001.00,0.0103
2000.00,0.0103
1999.00,0.0104
1998.00,0.0104
1997.00,0.0104
1996.00,0.0105
1995.00,0.0106
1994.00,0.0106
1993.00,0.0106
1992.00,0.0106
1991.00,0.0106
1990.00,0.0107
1989.00,0.0108
1988.00,0.0109
1987.00,0.0110
1986.00,0.0110
1985.00,0.0111
1984.00,0.0112
1983.00,0.0114
1982.00,0.0116
1981.00,0.0117
1980.00,0.0114
1979.00,0.0109
1978.00,0.0102
1977.00,0.0098
1976.00,0.0097
1975.00,0.0096
1974.00,0.0096
1973.00,0.0095
1972.00,0.0096
1971.00,0.0096
1970.00,0.0096
1969.00,0.0096
1968.00,0.0096
1967.00,0.0096
1966.00,0.0096
1965.00,0.0096
1964.00,0.0095
1963.00,0.0094
1962.00,0.0093
1961.00,0.0092
1960.00,0.0092
1959.00,0.0092
1958.00,0.0092
1957.00,0.0093
1956.00,0.0094
1955.00,0.0094
1954.00,0.0093
1953.00,0.0093
1952.00,0.0093
1951.00,0.0093
1950.00,0.0094
1949.00,0.0094
1948.00,0.0094
1947.00,0.0094
1946.00,0.0094
1945.00,0.0094
1944.00,0.0094
1943.00,0.0095
1942.00,0.0095
1941.00,0.0095
1940.00,0.0095
1939.00,0.0095
1938.00,0.0094
1937.00,0.0094
1936.00,0.0094
1935.00,0.0093
1934.00,0.0093
1933.00,0.0093
1932.00,0.0093
1931.00,0.0093
1930.00,0.0093
1929.00,0.0093
1928.00,0.0093
1927.00,0.0093
1926.00,0.0093
1925.00,0.0093
1924.00,0.0094
1923.00,0.0094
1922.00,0.0095
1921.00,0.0095
1920.00,0.0095
1919.00,0.0095
1918.00,0.0094
1917.00,0.0095
1916.00,0.0095
1915.00,0.0095
1914.00,0.0094
1913.00,0.0094
1912.00,0.0094
1911.00,0.0094
1910.00,0.0094
1909.00,0.0094
1908.00,0.0094
1907.00,0.0094
1906.00,0.0094
1905.00,0.0094
1904.00,0.0094
1903.00,0.0094
1902.00,0.0094
1901.00,0.0094
1900.00,0.0094
1899.00,0.0093
1898.00,0.0093
1897.00,0.0093
1896.00,0.0093
1895.00,0.0093
1894.00,0.0093
1893.00,0.0093
1892.00,0.0092
1891.00,0.0092
1890.00,0.0092
1889.00,0.0092
1888.00,0.0092
1887.00,0.0092
1886.00,0.0092
1885.00,0.0091
1884.00,0.0091
1883.00,0.0091
1882.00,0.0091
1881.00,0.0091
1880.00,0.0091
1879.00,0.0091
1878.00,0.0091
1877.00,0.0091
1876.00,0.0091
1875.00,0.0091
1874.00,0.0091
1873.00,0.0090
1872.00,0.0089
1871.00,0.0089
1870.00,0.0088
1869.00,0.0089
1868.00,0.0090
1867.00,0.0090
1866.00,0.0090
1865.00,0.0090
1864.00,0.0089
1863.00,0.0089
1862.00,0.0089
1861.00,0.0089
1860.00,0.0089
1859.00,0.0089
1858.00,0.0089
1857.00,0.0089
1856.00,0.0089
1855.00,0.0088
1854.00,0.0088
1853.00,0.0088
1852.00,0.0088
1851.00,0.0088
1850.00,0.0087
1849.00,0.0087
1848.00,0.0086
1847.00,0.0086
1846.00,0.0085
1845.00,0.0086
1844.00,0.0086
1843.00,0.0087
1842.00,0.0087
1841.00,0.0086
1840.00,0.0086
1839.00,0.0086
1838.00,0.0085
1837.00,0.0086
1836.00,0.0086
1835.00,0.0086
1834.00,0.0085
1833.00,0.0085
1832.00,0.0084
1831.00,0.0084
1830.00,0.0084
1829.00,0.0084
1828.00,0.0084
1827.00,0.0084
1826.00,0.0084
1825.00,0.0084
1824.00,0.0085
1823.00,0.0085
1822.00,0.0085
1821.00,0.0084
1820.00,0.0083
1819.00,0.0082
1818.00,0.0081
1817.00,0.0081
1816.00,0.0082
1815.00,0.0082
1814.00,0.0082
1813.00,0.0082
1812.00,0.0083
1811.00,0.0083
1810.00,0.0083
1809.00,0.0083
1808.00,0.0084
1807.00,0.0083
1806.00,0.0083
1805.00,0.0083
1804.00,0.0082
1803.00,0.0082
1802.00,0.0082
1801.00,0.0082
1800.00,0.0083
1799.00,0.0083
1798.00,0.0083
1797.00,0.0083
1796.00,0.0083
1795.00,0.0083
1794.00,0.0082
1793.00,0.0082
1792.00,0.0083
1791.00,0.0083
1790.00,0.0083
1789.00,0.0083
1788.00,0.0083
1787.00,0.0083
1786.00,0.0083
1785.00,0.0083
1784.00,0.0083
1783.00,0.0083
1782.00,0.0082
1781.00,0.0082
1780.00,0.0083
1779.00,0.0083
1778.00,0.0082
1777.00,0.0082
1776.00,0.0082
1775.00,0.0082
1774.00,0.0082
1773.00,0.0082
1772.00,0.0083
1771.00,0.0083
1770.00,0.0083
1769.00,0.0083
1768.00,0.0084
1767.00,0.0084
1766.00,0.0083
1765.00,0.0083
1764.00,0.0083
1763.00,0.0083
1762.00,0.0083
1761.00,0.0083
1760.00,0.0084
1759.00,0.0084
1758.00,0.0084
1757.00,0.0084
1756.00,0.0085
1755.00,0.0085
1754.00,0.0085
1753.00,0.0085
1752.00,0.0086
1751.00,0.0086
1750.00,0.0086
1749.00,0.0086
1748.00,0.0086
1747.00,0.0087
1746.00,0.0087
1745.00,0.0087
1744.00,0.0088
1743.00,0.0088
1742.00,0.0089
1741.00,0.0089
1740.00,0.0091
1739.00,0.0092
1738.00,0.0092
1737.00,0.0093
1736.00,0.0094
1735.00,0.0097
1734.00,0.0099
1733.00,0.0100
1732.00,0.0100
1731.00,0.0100
1730.00,0.0100
1729.00,0.0101
1728.00,0.0103
1727.00,0.0104
1726.00,0.0104
1725.00,0.0105
1724.00,0.0107
1723.00,0.0109
1722.00,0.0109
1721.00,0.0110
1720.00,0.0111
1719.00,0.0114
1718.00,0.0117
1717.00,0.0120
1716.00,0.0122
1715.00,0.0124
1714.00,0.0126
1713.00,0.0128
1712.00,0.0132
1711.00,0.0135
1710.00,0.0138
1709.00,0.0142
1708.00,0.0147
1707.00,0.0153
1706.00,0.0162
1705.00,0.0172
1704.00,0.0182
1703.00,0.0192
1702.00,0.0204
1701.00,0.0226
1700.00,0.0256
1699.00,0.0282
1698.00,0.0299
1697.00,0.0313
1696.00,0.0329
1695.00,0.0341
1694.00,0.0348
1693.00,0.0351
1692.00,0.0355
1691.00,0.0359
1690.00,0.0365
1689.00,0.0372
1688.00,0.0379
1687.00,0.0386
1686.00,0.0393
1685.00,0.0404
1684.00,0.0419
1683.00,0.0433
1682.00,0.0443
1681.00,0.0452
1680.00,0.0463
1679.00,0.0473
1678.00,0.0482
1677.00,0.0492
1676.00,0.0505
1675.00,0.0521
1674.00,0.0534
1673.00,0.0545
1672.00,0.0555
1671.00,0.0567
1670.00,0.0581
1669.00,0.0598
1668.00,0.0613
1667.00,0.0625
1666.00,0.0634
1665.00,0.0643
1664.00,0.0654
1663.00,0.0668
1662.00,0.0682
1661.00,0.0695
1660.00,0.0706
1659.00,0.0716
1658.00,0.0724
1657.00,0.0732
1656.00,0.0739
1655.00,0.0746
1654.00,0.0759
1653.00,0.0779
1652.00,0.0794
1651.00,0.0800
1650.00,0.0800
1649.00,0.0802
1648.00,0.0809
1647.00,0.0820
1646.00,0.0832
1645.00,0.0840
1644.00,0.0846
1643.00,0.0851
1642.00,0.0856
1641.00,0.0861
1640.00,0.0866
1639.00,0.0872
1638.00,0.0876
1637.00,0.0883
1636.00,0.0893
1635.00,0.0905
1634.00,0.0914
1633.00,0.0919
1632.00,0.0923
1631.00,0.0928
1630.00,0.0933
1629.00,0.0938
1628.00,0.0945
1627.00,0.0952
1626.00,0.0957
1625.00,0.0961
1624.00,0.0967
1623.00,0.0973
1622.00,0.0977
1621.00,0.0979
1620.00,0.0980
1619.00,0.0979
1618.00,0.0978
1617.00,0.0975
1616.00,0.0970
1615.00,0.0964
1614.00,0.0956
1613.00,0.0946
1612.00,0.0936
1611.00,0.0925
1610.00,0.0912
1609.00,0.0898
1608.00,0.0884
1607.00,0.0868
1606.00,0.0852
1605.00,0.0836
1604.00,0.0818
1603.00,0.0800
1602.00,0.0781
1601.00,0.0762
1600.00,0.0744
1599.00,0.0726
1598.00,0.0708
1597.00,0.0691
1596.00,0.0673
1595.00,0.0657
1594.00,0.0641
1593.00,0.0626
1592.00,0.0611
1591.00,0.0597
1590.00,0.0584
1589.00,0.0571
1588.00,0.0558
1587.00,0.0547
1586.00,0.0536
1585.00,0.0527
1584.00,0.0518
1583.00,0.0509
1582.00,0.0502
1581.00,0.0496
1580.00,0.0491
1579.00,0.0487
1578.00,0.0485
1577.00,0.0484
1576.00,0.0484
1575.00,0.0484
1574.00,0.0483
1573.00,0.0483
1572.00,0.0483
1571.00,0.0485
1570.00,0.0490
1569.00,0.0497
1568.00,0.0503
1567.00,0.0509
1566.00,0.0515
1565.00,0.0522
1564.00,0.0530
1563.00,0.0536
1562.00,0.0542
1561.00,0.0547
1560.00,0.0556
1559.00,0.0574
1558.00,0.0593
1557.00,0.0604
1556.00,0.0611
1555.00,0.0619
1554.00,0.0628
1553.00,0.0638
1552.00,0.0646
1551.00,0.0654
1550.00,0.0664
1549.00,0.0674
1548.00,0.0682
1547.00,0.0689
1546.00,0.0695
1545.00,0.0703
1544.00,0.0711
1543.00,0.0719
1542.00,0.0727
1541.00,0.0738
1540.00,0.0752
1539.00,0.0765
1538.00,0.0773
1537.00,0.0776
1536.00,0.0779
1535.00,0.0783
1534.00,0.0791
1533.00,0.0803
1532.00,0.0813
1531.00,0.0820
1530.00,0.0826
1529.00,0.0833
1528.00,0.0840
1527.00,0.0848
1526.00,0.0857
1525.00,0.0865
1524.00,0.0872
1523.00,0.0878
1522.00,0.0888
1521.00,0.0899
1520.00,0.0906
1519.00,0.0910
1518.00,0.0914
1517.00,0.0919
1516.00,0.0923
1515.00,0.0924
1514.00,0.0923
1513.00,0.0920
1512.00,0.0915
1511.00,0.0908
1510.00,0.0901
1509.00,0.0893
1508.00,0.0883
1507.00,0.0872
1506.00,0.0860
1505.00,0.0849
1504.00,0.0837
1503.00,0.0823
1502.00,0.0810
1501.00,0.0795
1500.00,0.0779
1499.00,0.0764
1498.00,0.0748
1497.00,0.0731
1496.00,0.0713
1495.00,0.0696
1494.00,0.0680
1493.00,0.0664
1492.00,0.0648
1491.00,0.0630
1490.00,0.0613
1489.00,0.0596
1488.00,0.0581
1487.00,0.0568
1486.00,0.0556
1485.00,0.0544
1484.00,0.0533
1483.00,0.0522
1482.00,0.0513
1481.00,0.0504
1480.00,0.0496
1479.00,0.0489
1478.00,0.0483
1477.00,0.0478
1476.00,0.0474
1475.00,0.0471
1474.00,0.0469
1473.00,0.0468
1472.00,0.0469
1471.00,0.0469
1470.00,0.0468
1469.00,0.0467
1468.00,0.0466
1467.00,0.0465
1466.00,0.0464
1465.00,0.0465
1464.00,0.0467
1463.00,0.0469
1462.00,0.0470
1461.00,0.0471
1460.00,0.0473
1459.00,0.0477
1458.00,0.0484
1457.00,0.0494
1456.00,0.0503
1455.00,0.0508
1454.00,0.0510
1453.00,0.0512
1452.00,0.0513
1451.00,0.0514
1450.00,0.0513
1449.00,0.0513
1448.00,0.0511
1447.00,0.0510
1446.00,0.0507
1445.00,0.0504
1444.00,0.0499
1443.00,0.0494
1442.00,0.0489
1441.00,0.0483
1440.00,0.0477
1439.00,0.0472
1438.00,0.0466
1437.00,0.0460
1436.00,0.0456
1435.00,0.0452
1434.00,0.0448
1433.00,0.0444
1432.00,0.0440
1431.00,0.0437
1430.00,0.0434
1429.00,0.0433
1428.00,0.0432
1427.00,0.0431
1426.00,0.0430
1425.00,0.0430
1424.00,0.0431
1423.00,0.0432
1422.00,0.0432
1421.00,0.0433
1420.00,0.0435
1419.00,0.0438
1418.00,0.0441
1417.00,0.0444
1416.00,0.0446
1415.00,0.0448
1414.00,0.0450
1413.00,0.0452
1412.00,0.0454
1411.00,0.0457
1410.00,0.0459
1409.00,0.0460
1408.00,0.0461
1407.00,0.0462
1406.00,0.0463
1405.00,0.0464
1404.00,0.0464
1403.00,0.0465
1402.00,0.0464
1401.00,0.0463
1400.00,0.0462
1399.00,0.0461
1398.00,0.0460
1397.00,0.0459
1396.00,0.0459
1395.00,0.0458
1394.00,0.0458
1393.00,0.0458
1392.00,0.0458
1391.00,0.0457
1390.00,0.0456
1389.00,0.0455
1388.00,0.0455
1387.00,0.0454
1386.00,0.0453
1385.00,0.0452
1384.00,0.0450
1383.00,0.0449
1382.00,0.0447
1381.00,0.0445
1380.00,0.0443
1379.00,0.0442
1378.00,0.0441
1377.00,0.0439
1376.00,0.0437
1375.00,0.0437
1374.00,0.0436
1373.00,0.0436
1372.00,0.0436
1371.00,0.0435
1370.00,0.0433
1369.00,0.0432
1368.00,0.0429
1367.00,0.0427
1366.00,0.0424
1365.00,0.0421
1364.00,0.0418
1363.00,0.0415
1362.00,0.0413
1361.00,0.0411
1360.00,0.0409
1359.00,0.0407
1358.00,0.0405
1357.00,0.0404
1356.00,0.0402
1355.00,0.0401
1354.00,0.0399
1353.00,0.0398
1352.00,0.0397
1351.00,0.0396
1350.00,0.0396
1349.00,0.0395
1348.00,0.0395
1347.00,0.0395
1346.00,0.0395
1345.00,0.0395
1344.00,0.0395
1343.00,0.0394
1342.00,0.0394
1341.00,0.0394
1340.00,0.0394
1339.00,0.0394
1338.00,0.0394
1337.00,0.0394
1336.00,0.0394
1335.00,0.0394
1334.00,0.0393
1333.00,0.0393
1332.00,0.0392
1331.00,0.0392
1330.00,0.0391
1329.00,0.0390
1328.00,0.0390
1327.00,0.0389
1326.00,0.0389
1325.00,0.0388
1324.00,0.0388
1323.00,0.0387
1322.00,0.0387
1321.00,0.0386
1320.00,0.0386
1319.00,0.0386
1318.00,0.0385
1317.00,0.0385
1316.00,0.0385
1315.00,0.0384
1314.00,0.0384
1313.00,0.0383
1312.00,0.0383
1311.00,0.0383
1310.00,0.0382
1309.00,0.0381
1308.00,0.0381
1307.00,0.0380
1306.00,0.0380
1305.00,0.0379
1304.00,0.0378
1303.00,0.0377
1302.00,0.0377
1301.00,0.0376
1300.00,0.0375
1299.00,0.0374
1298.00,0.0374
1297.00,0.0373
1296.00,0.0372
1295.00,0.0372
1294.00,0.0372
1293.00,0.0372
1292.00,0.0372
1291.00,0.0372
1290.00,0.0371
1289.00,0.0371
1288.00,0.0371
1287.00,0.0371
1286.00,0.0371
1285.00,0.0371
1284.00,0.0370
1283.00,0.0370
1282.00,0.0369
1281.00,0.0368
1280.00,0.0368
1279.00,0.0367
1278.00,0.0366
1277.00,0.0366
1276.00,0.0365
1275.00,0.0365
1274.00,0.0364
1273.00,0.0364
1272.00,0.0364
1271.00,0.0364
1270.00,0.0365
1269.00,0.0365
1268.00,0.0366
1267.00,0.0367
1266.00,0.0368
1265.00,0.0370
1264.00,0.0372
1263.00,0.0374
1262.00,0.0376
1261.00,0.0378
1260.00,0.0381
1259.00,0.0385
1258.00,0.0388
1257.00,0.0392
1256.00,0.0395
1255.00,0.0399
1254.00,0.0403
1253.00,0.0406
1252.00,0.0410
1251.00,0.0413
1250.00,0.0416
1249.00,0.0419
1248.00,0.0422
1247.00,0.0425
1246.00,0.0427
1245.00,0.0429
1244.00,0.0431
1243.00,0.0433
1242.00,0.0435
1241.00,0.0436
1240.00,0.0437
1239.00,0.0438
1238.00,0.0439
1237.00,0.0439
1236.00,0.0440
1235.00,0.0440
1234.00,0.0440
1233.00,0.0439
1232.00,0.0439
1231.00,0.0438
1230.00,0.0438
1229.00,0.0437
1228.00,0.0435
1227.00,0.0434
1226.00,0.0432
1225.00,0.0430
1224.00,0.0429
1223.00,0.0426
1222.00,0.0424
1221.00,0.0422
1220.00,0.0419
1219.00,0.0417
1218.00,0.0414
1217.00,0.0411
1216.00,0.0408
1215.00,0.0405
1214.00,0.0401
1213.00,0.0398
1212.00,0.0394
1211.00,0.0390
1210.00,0.0386
1209.00,0.0382
1208.00,0.0378
1207.00,0.0374
1206.00,0.0370
1205.00,0.0365
1204.00,0.0361
1203.00,0.0357
1202.00,0.0353
1201.00,0.0349
1200.00,0.0346
1199.00,0.0342
1198.00,0.0339
1197.00,0.0336
1196.00,0.0333
1195.00,0.0330
1194.00,0.0328
1193.00,0.0326
1192.00,0.0324
1191.00,0.0322
1190.00,0.0320
1189.00,0.0319
1188.00,0.0318
1187.00,0.0316
1186.00,0.0316
1185.00,0.0315
1184.00,0.0314
1183.00,0.0314
1182.00,0.0314
1181.00,0.0314
1180.00,0.0315
1179.00,0.0316
1178.00,0.0317
1177.00,0.0319
1176.00,0.0322
1175.00,0.0324
1174.00,0.0327
1173.00,0.0330
1172.00,0.0332
1171.00,0.0335
1170.00,0.0338
1169.00,0.0340
1168.00,0.0343
1167.00,0.0345
1166.00,0.0348
1165.00,0.0350
1164.00,0.0352
1163.00,0.0354
1162.00,0.0355
1161.00,0.0356
1160.00,0.0356
1159.00,0.0356
1158.00,0.0356
1157.00,0.0355
1156.00,0.0354
1155.00,0.0353
1154.00,0.0351
1153.00,0.0349
1152.00,0.0346
1151.00,0.0344
1150.00,0.0341
1149.00,0.0338
1148.00,0.0336
1147.00,0.0333
1146.00,0.0330
1145.00,0.0327
1144.00,0.0325
1143.00,0.0323
1142.00,0.0321
1141.00,0.0319
1140.00,0.0318
1139.00,0.0317
1138.00,0.0315
1137.00,0.0314
1136.00,0.0314
1135.00,0.0313
1134.00,0.0313
1133.00,0.0312
1132.00,0.0312
1131.00,0.0312
1130.00,0.0311
1129.00,0.0311
1128.00,0.0310
1127.00,0.0310
1126.00,0.0309
1125.00,0.0309
1124.00,0.0308
1123.00,0.0307
1122.00,0.0307
1121.00,0.0306
1120.00,0.0305
1119.00,0.0305
1118.00,0.0304
1117.00,0.0304
1116.00,0.0304
1115.00,0.0303
1114.00,0.0303
1113.00,0.0302
1112.00,0.0302
1111.00,0.0302
1110.00,0.0302
1109.00,0.0303
1108.00,0.0303
1107.00,0.0304
1106.00,0.0305
1105.00,0.0305
1104.00,0.0306
1103.00,0.0307
1102.00,0.0308
1101.00,0.0309
1100.00,0.0310
1099.00,0.0311
1098.00,0.0313
1097.00,0.0314
1096.00,0.0316
1095.00,0.0319
1094.00,0.0322
1093.00,0.0325
1092.00,0.0329
1091.00,0.0333
1090.00,0.0337
1089.00,0.0342
1088.00,0.0347
1087.00,0.0353
1086.00,0.0358
1085.00,0.0364
1084.00,0.0370
1083.00,0.0376
1082.00,0.0382
1081.00,0.0388
1080.00,0.0394
1079.00,0.0400
1078.00,0.0406
1077.00,0.0411
1076.00,0.0416
1075.00,0.0420
1074.00,0.0424
1073.00,0.0428
1072.00,0.0431
1071.00,0.0434
1070.00,0.0436
1069.00,0.0438
1068.00,0.0440
1067.00,0.0441
1066.00,0.0441
1065.00,0.0442
1064.00,0.0442
1063.00,0.0442
1062.00,0.0441
1061.00,0.0440
1060.00,0.0438
1059.00,0.0437
1058.00,0.0435
1057.00,0.0432
1056.00,0.0430
1055.00,0.0428
1054.00,0.0426
1053.00,0.0423
1052.00,0.0421
1051.00,0.0418
1050.00,0.0416
1049.00,0.0413
1048.00,0.0411
1047.00,0.0408
1046.00,0.0405
1045.00,0.0402
1044.00,0.0399
1043.00,0.0395
1042.00,0.0391
1041.00,0.0388
1040.00,0.0384
1039.00,0.0380
1038.00,0.0376
1037.00,0.0372
1036.00,0.0369
1035.00,0.0366
1034.00,0.0362
1033.00,0.0359
1032.00,0.0356
1031.00,0.0353
1030.00,0.0349
1029.00,0.0345
1028.00,0.0341
1027.00,0.0337
1026.00,0.0332
1025.00,0.0328
1024.00,0.0324
1023.00,0.0320
1022.00,0.0316
1021.00,0.0312
1020.00,0.0309
1019.00,0.0305
1018.00,0.0302
1017.00,0.0298
1016.00,0.0295
1015.00,0.0292
1014.00,0.0290
1013.00,0.0287
1012.00,0.0285
1011.00,0.0282
1010.00,0.0280
1009.00,0.0278
1008.00,0.0276
1007.00,0.0274
1006.00,0.0272
1005.00,0.0271
1004.00,0.0269
1003.00,0.0268
1002.00,0.0266
1001.00,0.0265
1000.00,0.0264
999.00,0.0262
998.00,0.0261
997.00,0.0260
996.00,0.0259
995.00,0.0259
994.00,0.0257
993.00,0.0256
992.00,0.0255
991.00,0.0254
990.00,0.0253
989.00,0.0252
988.00,0.0251
987.00,0.0250
986.00,0.0249
985.00,0.0248
984.00,0.0247
983.00,0.0246
982.00,0.0246
981.00,0.0245
980.00,0.0245
979.00,0.0245
978.00,0.0245
977.00,0.0245
976.00,0.0245
975.00,0.0245
974.00,0.0245
973.00,0.0246
972.00,0.0246
971.00,0.0247
970.00,0.0248
969.00,0.0249
968.00,0.0251
967.00,0.0252
966.00,0.0254
965.00,0.0256
964.00,0.0258
963.00,0.0259
962.00,0.0260
961.00,0.0260
960.00,0.0260
959.00,0.0259
958.00,0.0258
957.00,0.0257
956.00,0.0256
955.00,0.0254
954.00,0.0253
953.00,0.0252
952.00,0.0250
951.00,0.0249
950.00,0.0248
949.00,0.0247
948.00,0.0247
947.00,0.0246
946.00,0.0245
945.00,0.0245
944.00,0.0244
943.00,0.0244
942.00,0.0243
941.00,0.0243
940.00,0.0242
939.00,0.0242
938.00,0.0242
937.00,0.0241
936.00,0.0241
935.00,0.0241
934.00,0.0240
933.00,0.0240
932.00,0.0240
931.00,0.0239
930.00,0.0239
929.00,0.0238
928.00,0.0238
927.00,0.0237
926.00,0.0236
925.00,0.0235
924.00,0.0234
923.00,0.0232
922.00,0.0231
921.00,0.0230
920.00,0.0229
919.00,0.0228
918.00,0.0227
917.00,0.0226
916.00,0.0226
915.00,0.0225
914.00,0.0225
913.00,0.0225
912.00,0.0225
911.00,0.0225
910.00,0.0225
909.00,0.0225
908.00,0.0226
907.00,0.0226
906.00,0.0227
905.00,0.0228
904.00,0.0229
903.00,0.0229
902.00,0.0229
901.00,0.0230
900.00,0.0229
899.00,0.0229
898.00,0.0228
897.00,0.0227
896.00,0.0227
895.00,0.0226
894.00,0.0225
893.00,0.0224
892.00,0.0223
891.00,0.0222
890.00,0.0221
889.00,0.0220
888.00,0.0219
887.00,0.0218
886.00,0.0218
885.00,0.0218
884.00,0.0217
883.00,0.0217
882.00,0.0217
881.00,0.0216
880.00,0.0216
879.00,0.0216
878.00,0.0216
877.00,0.0216
876.00,0.0216
875.00,0.0216
874.00,0.0216
873.00,0.0216
872.00,0.0216
871.00,0.0216
870.00,0.0216
869.00,0.0216
868.00,0.0216
867.00,0.0216
866.00,0.0215
865.00,0.0215
864.00,0.0215
863.00,0.0215
862.00,0.0214
861.00,0.0214
860.00,0.0214
859.00,0.0214
858.00,0.0214
857.00,0.0215
856.00,0.0215
855.00,0.0216
854.00,0.0216
853.00,0.0217
852.00,0.0217
851.00,0.0218
850.00,0.0218
849.00,0.0218
848.00,0.0219
847.00,0.0219
846.00,0.0219
845.00,0.0220
844.00,0.0221
843.00,0.0221
842.00,0.0223
841.00,0.0224
840.00,0.0225
839.00,0.0227
838.00,0.0228
837.00,0.0230
836.00,0.0232
835.00,0.0234
834.00,0.0237
833.00,0.0239
832.00,0.0241
831.00,0.0244
830.00,0.0246
829.00,0.0248
828.00,0.0249
827.00,0.0251
826.00,0.0252
825.00,0.0253
824.00,0.0254
823.00,0.0255
822.00,0.0256
821.00,0.0258
820.00,0.0259
819.00,0.0260
818.00,0.0262
817.00,0.0263
816.00,0.0265
815.00,0.0267
814.00,0.0270
813.00,0.0272
812.00,0.0273
811.00,0.0274
810.00,0.0276
809.00,0.0277
808.00,0.0278
807.00,0.0279
806.00,0.0280
805.00,0.0281
804.00,0.0282
803.00,0.0283
802.00,0.0284
801.00,0.0285
800.00,0.0287
799.00,0.0289
798.00,0.0291
797.00,0.0292
796.00,0.0295
795.00,0.0297
794.00,0.0299
793.00,0.0301
792.00,0.0304
791.00,0.0307
790.00,0.0309
789.00,0.0312
788.00,0.0315
787.00,0.0318
786.00,0.0321
785.00,0.0324
784.00,0.0328
783.00,0.0331
782.00,0.0333
781.00,0.0336
780.00,0.0339
779.00,0.0342
778.00,0.0345
777.00,0.0348
776.00,0.0351
775.00,0.0353
774.00,0.0356
773.00,0.0358
772.00,0.0360
771.00,0.0362
770.00,0.0364
769.00,0.0365
768.00,0.0366
767.00,0.0368
766.00,0.0369
765.00,0.0370
764.00,0.0371
763.00,0.0372
762.00,0.0372
761.00,0.0374
760.00,0.0375
759.00,0.0376
758.00,0.0378
757.00,0.0379
756.00,0.0381
755.00,0.0383
754.00,0.0385
753.00,0.0387
752.00,0.0389
751.00,0.0391
750.00,0.0393
749.00,0.0395
748.00,0.0396
747.00,0.0398
746.00,0.0399
745.00,0.0401
744.00,0.0402
743.00,0.0403
742.00,0.0404
741.00,0.0405
740.00,0.0406
739.00,0.0408
738.00,0.0410
737.00,0.0412
736.00,0.0414
735.00,0.0417
734.00,0.0420
733.00,0.0424
732.00,0.0427
731.00,0.0432
730.00,0.0436
729.00,0.0441
728.00,0.0447
727.00,0.0453
726.00,0.0459
725.00,0.0466
724.00,0.0472
723.00,0.0479
722.00,0.0486
721.00,0.0493
720.00,0.0500
719.00,0.0508
718.00,0.0516
717.00,0.0523
716.00,0.0531
715.00,0.0538
714.00,0.0546
713.00,0.0553
712.00,0.0560
711.00,0.0567
710.00,0.0574
709.00,0.0581
708.00,0.0588
707.00,0.0594
706.00,0.0601
705.00,0.0608
704.00,0.0615
703.00,0.0621
702.00,0.0626
701.00,0.0630
700.00,0.0633
699.00,0.0635
698.00,0.0637
697.00,0.0638
696.00,0.0638
695.00,0.0638
694.00,0.0638
693.00,0.0638
692.00,0.0638
691.00,0.0638
690.00,0.0639
689.00,0.0639
688.00,0.0640
687.00,0.0640
686.00,0.0641
685.00,0.0641
684.00,0.0642
683.00,0.0642
682.00,0.0643
681.00,0.0643
680.00,0.0643
679.00,0.0643
678.00,0.0644
677.00,0.0644
676.00,0.0644
675.00,0.0645
674.00,0.0645
673.00,0.0645
672.00,0.0644
671.00,0.0644
670.00,0.0644
669.00,0.0644
668.00,0.0646
667.00,0.0649
666.00,0.0649
665.00,0.0649
664.00,0.0650
663.00,0.0651
662.00,0.0652
661.00,0.0652
660.00,0.0653
659.00,0.0654
658.00,0.0655
657.00,0.0656
656.00,0.0658
655.00,0.0660
654.00,0.0661
653.00,0.0662
652.00,0.0664
651.00,0.0666
650.00,0.0668
649.00,0.0670
648.00,0.0672
647.00,0.0674
646.00,0.0677
645.00,0.0679
644.00,0.0682
643.00,0.0684
642.00,0.0686
641.00,0.0689
640.00,0.0691
639.00,0.0694
638.00,0.0696
637.00,0.0698
636.00,0.0701
635.00,0.0703
634.00,0.0706
633.00,0.0708
632.00,0.0710
631.00,0.0712
630.00,0.0714
629.00,0.0715
628.00,0.0717
627.00,0.0718
626.00,0.0719
625.00,0.0719
624.00,0.0719
623.00,0.0719
622.00,0.0719
621.00,0.0718
620.00,0.0717
619.00,0.0716
618.00,0.0715
617.00,0.0713
616.00,0.0711
615.00,0.0709
614.00,0.0707
613.00,0.0705
612.00,0.0703
611.00,0.0700
610.00,0.0698
609.00,0.0697
608.00,0.0696
607.00,0.0695
606.00,0.0693
605.00,0.0692
604.00,0.0691
603.00,0.0690
602.00,0.0688
601.00,0.0688
600.00,0.0688
599.00,0.0688
598.00,0.0687
597.00,0.0687
596.00,0.0687
595.00,0.0687
594.00,0.0686
593.00,0.0686
592.00,0.0686
591.00,0.0687
590.00,0.0687
589.00,0.0687
588.00,0.0687
587.00,0.0688
586.00,0.0688
585.00,0.0689
584.00,0.0689
583.00,0.0690
582.00,0.0690
581.00,0.0691
580.00,0.0692
579.00,0.0693
578.00,0.0693
577.00,0.0694
576.00,0.0695
575.00,0.0696
574.00,0.0696
573.00,0.0696
572.00,0.0697
571.00,0.0698
570.00,0.0699
569.00,0.0700
568.00,0.0701
567.00,0.0702
566.00,0.0702
565.00,0.0703
564.00,0.0704
563.00,0.0705
562.00,0.0706
561.00,0.0706
560.00,0.0707
559.00,0.0707
558.00,0.0707
557.00,0.0707
556.00,0.0707
555.00,0.0708
554.00,0.0709
553.00,0.0709
552.00,0.0709
551.00,0.0709
550.00,0.0709
549.00,0.0708
548.00,0.0709
547.00,0.0709
546.00,0.0709
545.00,0.0709
544.00,0.0709
543.00,0.0710
542.00,0.0709
541.00,0.0709
540.00,0.0709
539.00,0.0709
538.00,0.0710
537.00,0.0710
536.00,0.0711
535.00,0.0712
534.00,0.0711
533.00,0.0711
532.00,0.0711
531.00,0.0711
530.00,0.0711
529.00,0.0710
528.00,0.0711
527.00,0.0711
526.00,0.0711
525.00,0.0712
524.00,0.0713
523.00,0.0714
522.00,0.0714
521.00,0.0714
520.00,0.0715
519.00,0.0715
518.00,0.0714
517.00,0.0714
516.00,0.0714
515.00,0.0713
514.00,0.0712
513.00,0.0710
512.00,0.0708
511.00,0.0707
510.00,0.0706
509.00,0.0706
508.00,0.0707
507.00,0.0708
506.00,0.0708
505.00,0.0707
504.00,0.0707
503.00,0.0707
502.00,0.0706
501.00,0.0706
500.00,0.0707
499.00,0.0707
498.00,0.0705
497.00,0.0703
496.00,0.0701
495.00,0.0700
494.00,0.0698
493.00,0.0697
492.00,0.0697
491.00,0.0697
490.00,0.0696
489.00,0.0696
488.00,0.0696
487.00,0.0696
486.00,0.0696
485.00,0.0695
484.00,0.0695
483.00,0.0694
482.00,0.0693
481.00,0.0691
480.00,0.0691
479.00,0.0692
478.00,0.0692
477.00,0.0693
476.00,0.0694
475.00,0.0695
474.00,0.0694
473.00,0.0693
472.00,0.0693
471.00,0.0692
470.00,0.0692
469.00,0.0693
468.00,0.0696
467.00,0.0698
466.00,0.0698
465.00,0.0698
464.00,0.0698
463.00,0.0697
462.00,0.0697
461.00,0.0697
460.00,0.0698
459.00,0.0698
458.00,0.0696
457.00,0.0693
456.00,0.0693
455.00,0.0692
454.00,0.0690
453.00,0.0689
452.00,0.0689
451.00,0.0689
450.00,0.0689
449.00,0.0687
448.00,0.0687
447.00,0.0685
446.00,0.0683
445.00,0.0681
444.00,0.0679
443.00,0.0677
442.00,0.0674
441.00,0.0670
440.00,0.0667
439.00,0.0664
438.00,0.0661
437.00,0.0657
436.00,0.0653
435.00,0.0649
434.00,0.0644
433.00,0.0640
432.00,0.0637
431.00,0.0635
430.00,0.0632
429.00,0.0630
428.00,0.0629
427.00,0.0628
426.00,0.0624
425.00,0.0621
424.00,0.0618
423.00,0.0616
422.00,0.0611
421.00,0.0607
420.00,0.0604
419.00,0.0601
418.00,0.0599
417.00,0.0597
416.00,0.0596
415.00,0.0594
414.00,0.0591
413.00,0.0590
412.00,0.0590
411.00,0.0590
410.00,0.0587
409.00,0.0584
408.00,0.0582
407.00,0.0581
406.00,0.0577
405.00,0.0573
404.00,0.0569
403.00,0.0566
402.00,0.0562
401.00,0.0561
400.00,0.0566
