Created as New Dataset,Sample 349 By YargerLab Date Monday, August 19 2024
cm-1,A
4000.00,0.0575
3999.00,0.0575
3998.00,0.0576
3997.00,0.0577
3996.00,0.0578
3995.00,0.0580
3994.00,0.0583
3993.00,0.0586
3992.00,0.0589
3991.00,0.0592
3990.00,0.0595
3989.00,0.0596
3988.00,0.0597
3987.00,0.0597
3986.00,0.0596
3985.00,0.0594
3984.00,0.0592
3983.00,0.0590
3982.00,0.0588
3981.00,0.0586
3980.00,0.0585
3979.00,0.0584
3978.00,0.0583
3977.00,0.0582
3976.00,0.0581
3975.00,0.0580
3974.00,0.0578
3973.00,0.0577
3972.00,0.0576
3971.00,0.0575
3970.00,0.0575
3969.00,0.0574
3968.00,0.0574
3967.00,0.0574
3966.00,0.0574
3965.00,0.0574
3964.00,0.0574
3963.00,0.0574
3962.00,0.0575
3961.00,0.0575
3960.00,0.0576
3959.00,0.0578
3958.00,0.0578
3957.00,0.0579
3956.00,0.0578
3955.00,0.0578
3954.00,0.0577
3953.00,0.0577
3952.00,0.0576
3951.00,0.0576
3950.00,0.0576
3949.00,0.0575
3948.00,0.0575
3947.00,0.0575
3946.00,0.0575
3945.00,0.0575
3944.00,0.0576
3943.00,0.0576
3942.00,0.0577
3941.00,0.0577
3940.00,0.0578
3939.00,0.0578
3938.00,0.0577
3937.00,0.0576
3936.00,0.0575
3935.00,0.0575
3934.00,0.0574
3933.00,0.0574
3932.00,0.0573
3931.00,0.0572
3930.00,0.0571
3929.00,0.0570
3928.00,0.0570
3927.00,0.0569
3926.00,0.0569
3925.00,0.0568
3924.00,0.0568
3923.00,0.0567
3922.00,0.0567
3921.00,0.0568
3920.00,0.0568
3919.00,0.0568
3918.00,0.0568
3917.00,0.0567
3916.00,0.0567
3915.00,0.0567
3914.00,0.0567
3913.00,0.0567
3912.00,0.0567
3911.00,0.0566
3910.00,0.0566
3909.00,0.0566
3908.00,0.0566
3907.00,0.0566
3906.00,0.0566
3905.00,0.0566
3904.00,0.0567
3903.00,0.0567
3902.00,0.0569
3901.00,0.0570
3900.00,0.0571
3899.00,0.0571
3898.00,0.0571
3897.00,0.0571
3896.00,0.0571
3895.00,0.0571
3894.00,0.0571
3893.00,0.0572
3892.00,0.0571
3891.00,0.0570
3890.00,0.0569
3889.00,0.0569
3888.00,0.0570
3887.00,0.0571
3886.00,0.0570
3885.00,0.0569
3884.00,0.0569
3883.00,0.0569
3882.00,0.0570
3881.00,0.0570
3880.00,0.0569
3879.00,0.0569
3878.00,0.0569
3877.00,0.0569
3876.00,0.0569
3875.00,0.0568
3874.00,0.0566
3873.00,0.0566
3872.00,0.0567
3871.00,0.0567
3870.00,0.0567
3869.00,0.0566
3868.00,0.0567
3867.00,0.0567
3866.00,0.0568
3865.00,0.0568
3864.00,0.0567
3863.00,0.0567
3862.00,0.0567
3861.00,0.0568
3860.00,0.0568
3859.00,0.0569
3858.00,0.0569
3857.00,0.0570
3856.00,0.0572
3855.00,0.0575
3854.00,0.0578
3853.00,0.0580
3852.00,0.0581
3851.00,0.0583
3850.00,0.0584
3849.00,0.0585
3848.00,0.0584
3847.00,0.0584
3846.00,0.0583
3845.00,0.0581
3844.00,0.0579
3843.00,0.0577
3842.00,0.0576
3841.00,0.0575
3840.00,0.0574
3839.00,0.0573
3838.00,0.0572
3837.00,0.0571
3836.00,0.0571
3835.00,0.0572
3834.00,0.0573
3833.00,0.0573
3832.00,0.0573
3831.00,0.0573
3830.00,0.0573
3829.00,0.0573
3828.00,0.0573
3827.00,0.0571
3826.00,0.0570
3825.00,0.0569
3824.00,0.0569
3823.00,0.0569
3822.00,0.0569
3821.00,0.0568
3820.00,0.0567
3819.00,0.0568
3818.00,0.0569
3817.00,0.0569
3816.00,0.0569
3815.00,0.0568
3814.00,0.0568
3813.00,0.0568
3812.00,0.0568
3811.00,0.0568
3810.00,0.0568
3809.00,0.0569
3808.00,0.0569
3807.00,0.0570
3806.00,0.0570
3805.00,0.0572
3804.00,0.0574
3803.00,0.0576
3802.00,0.0575
3801.00,0.0574
3800.00,0.0573
3799.00,0.0573
3798.00,0.0573
3797.00,0.0573
3796.00,0.0572
3795.00,0.0571
3794.00,0.0570
3793.00,0.0570
3792.00,0.0569
3791.00,0.0568
3790.00,0.0567
3789.00,0.0567
3788.00,0.0566
3787.00,0.0566
3786.00,0.0566
3785.00,0.0566
3784.00,0.0566
3783.00,0.0566
3782.00,0.0567
3781.00,0.0567
3780.00,0.0567
3779.00,0.0566
3778.00,0.0566
3777.00,0.0566
3776.00,0.0566
3775.00,0.0565
3774.00,0.0565
3773.00,0.0564
3772.00,0.0564
3771.00,0.0564
3770.00,0.0564
3769.00,0.0563
3768.00,0.0563
3767.00,0.0564
3766.00,0.0563
3765.00,0.0563
3764.00,0.0562
3763.00,0.0562
3762.00,0.0562
3761.00,0.0562
3760.00,0.0561
3759.00,0.0561
3758.00,0.0560
3757.00,0.0560
3756.00,0.0560
3755.00,0.0560
3754.00,0.0559
3753.00,0.0559
3752.00,0.0560
3751.00,0.0560
3750.00,0.0560
3749.00,0.0560
3748.00,0.0561
3747.00,0.0562
3746.00,0.0563
3745.00,0.0563
3744.00,0.0561
3743.00,0.0560
3742.00,0.0561
3741.00,0.0561
3740.00,0.0561
3739.00,0.0560
3738.00,0.0560
3737.00,0.0560
3736.00,0.0560
3735.00,0.0561
3734.00,0.0562
3733.00,0.0562
3732.00,0.0563
3731.00,0.0563
3730.00,0.0563
3729.00,0.0563
3728.00,0.0564
3727.00,0.0564
3726.00,0.0564
3725.00,0.0565
3724.00,0.0565
3723.00,0.0565
3722.00,0.0564
3721.00,0.0564
3720.00,0.0563
3719.00,0.0562
3718.00,0.0561
3717.00,0.0560
3716.00,0.0560
3715.00,0.0560
3714.00,0.0560
3713.00,0.0560
3712.00,0.0561
3711.00,0.0561
3710.00,0.0562
3709.00,0.0562
3708.00,0.0562
3707.00,0.0562
3706.00,0.0561
3705.00,0.0561
3704.00,0.0560
3703.00,0.0559
3702.00,0.0558
3701.00,0.0558
3700.00,0.0557
3699.00,0.0557
3698.00,0.0557
3697.00,0.0557
3696.00,0.0556
3695.00,0.0556
3694.00,0.0555
3693.00,0.0555
3692.00,0.0555
3691.00,0.0555
3690.00,0.0556
3689.00,0.0557
3688.00,0.0557
3687.00,0.0558
3686.00,0.0558
3685.00,0.0559
3684.00,0.0559
3683.00,0.0558
3682.00,0.0558
3681.00,0.0558
3680.00,0.0557
3679.00,0.0557
3678.00,0.0558
3677.00,0.0559
3676.00,0.0561
3675.00,0.0561
3674.00,0.0562
3673.00,0.0564
3672.00,0.0565
3671.00,0.0565
3670.00,0.0565
3669.00,0.0564
3668.00,0.0564
3667.00,0.0565
3666.00,0.0565
3665.00,0.0565
3664.00,0.0564
3663.00,0.0564
3662.00,0.0563
3661.00,0.0563
3660.00,0.0563
3659.00,0.0564
3658.00,0.0565
3657.00,0.0566
3656.00,0.0566
3655.00,0.0566
3654.00,0.0566
3653.00,0.0566
3652.00,0.0566
3651.00,0.0566
3650.00,0.0566
3649.00,0.0566
3648.00,0.0565
3647.00,0.0565
3646.00,0.0564
3645.00,0.0564
3644.00,0.0563
3643.00,0.0562
3642.00,0.0562
3641.00,0.0561
3640.00,0.0560
3639.00,0.0560
3638.00,0.0559
3637.00,0.0559
3636.00,0.0559
3635.00,0.0559
3634.00,0.0558
3633.00,0.0558
3632.00,0.0558
3631.00,0.0559
3630.00,0.0561
3629.00,0.0562
3628.00,0.0564
3627.00,0.0565
3626.00,0.0566
3625.00,0.0566
3624.00,0.0566
3623.00,0.0565
3622.00,0.0564
3621.00,0.0563
3620.00,0.0562
3619.00,0.0561
3618.00,0.0561
3617.00,0.0561
3616.00,0.0561
3615.00,0.0561
3614.00,0.0561
3613.00,0.0561
3612.00,0.0562
3611.00,0.0562
3610.00,0.0563
3609.00,0.0563
3608.00,0.0563
3607.00,0.0563
3606.00,0.0562
3605.00,0.0562
3604.00,0.0562
3603.00,0.0562
3602.00,0.0562
3601.00,0.0562
3600.00,0.0562
3599.00,0.0563
3598.00,0.0563
3597.00,0.0564
3596.00,0.0564
3595.00,0.0565
3594.00,0.0565
3593.00,0.0564
3592.00,0.0564
3591.00,0.0564
3590.00,0.0565
3589.00,0.0565
3588.00,0.0566
3587.00,0.0566
3586.00,0.0566
3585.00,0.0566
3584.00,0.0566
3583.00,0.0567
3582.00,0.0567
3581.00,0.0568
3580.00,0.0569
3579.00,0.0569
3578.00,0.0570
3577.00,0.0571
3576.00,0.0571
3575.00,0.0572
3574.00,0.0572
3573.00,0.0572
3572.00,0.0572
3571.00,0.0572
3570.00,0.0572
3569.00,0.0573
3568.00,0.0574
3567.00,0.0575
3566.00,0.0576
3565.00,0.0577
3564.00,0.0578
3563.00,0.0578
3562.00,0.0578
3561.00,0.0578
3560.00,0.0578
3559.00,0.0578
3558.00,0.0577
3557.00,0.0577
3556.00,0.0576
3555.00,0.0576
3554.00,0.0576
3553.00,0.0575
3552.00,0.0575
3551.00,0.0575
3550.00,0.0575
3549.00,0.0576
3548.00,0.0576
3547.00,0.0576
3546.00,0.0577
3545.00,0.0577
3544.00,0.0577
3543.00,0.0577
3542.00,0.0578
3541.00,0.0578
3540.00,0.0578
3539.00,0.0579
3538.00,0.0579
3537.00,0.0579
3536.00,0.0579
3535.00,0.0579
3534.00,0.0579
3533.00,0.0580
3532.00,0.0580
3531.00,0.0580
3530.00,0.0581
3529.00,0.0581
3528.00,0.0581
3527.00,0.0581
3526.00,0.0581
3525.00,0.0582
3524.00,0.0582
3523.00,0.0582
3522.00,0.0582
3521.00,0.0582
3520.00,0.0582
3519.00,0.0583
3518.00,0.0583
3517.00,0.0583
3516.00,0.0583
3515.00,0.0584
3514.00,0.0584
3513.00,0.0584
3512.00,0.0584
3511.00,0.0585
3510.00,0.0585
3509.00,0.0585
3508.00,0.0584
3507.00,0.0585
3506.00,0.0585
3505.00,0.0585
3504.00,0.0585
3503.00,0.0586
3502.00,0.0586
3501.00,0.0586
3500.00,0.0586
3499.00,0.0586
3498.00,0.0586
3497.00,0.0586
3496.00,0.0587
3495.00,0.0587
3494.00,0.0587
3493.00,0.0588
3492.00,0.0588
3491.00,0.0588
3490.00,0.0589
3489.00,0.0589
3488.00,0.0589
3487.00,0.0589
3486.00,0.0590
3485.00,0.0590
3484.00,0.0590
3483.00,0.0591
3482.00,0.0591
3481.00,0.0591
3480.00,0.0591
3479.00,0.0592
3478.00,0.0592
3477.00,0.0593
3476.00,0.0593
3475.00,0.0593
3474.00,0.0594
3473.00,0.0594
3472.00,0.0594
3471.00,0.0594
3470.00,0.0593
3469.00,0.0594
3468.00,0.0594
3467.00,0.0594
3466.00,0.0594
3465.00,0.0595
3464.00,0.0595
3463.00,0.0596
3462.00,0.0596
3461.00,0.0596
3460.00,0.0597
3459.00,0.0597
3458.00,0.0598
3457.00,0.0598
3456.00,0.0598
3455.00,0.0598
3454.00,0.0599
3453.00,0.0599
3452.00,0.0599
3451.00,0.0599
3450.00,0.0599
3449.00,0.0600
3448.00,0.0600
3447.00,0.0600
3446.00,0.0601
3445.00,0.0601
3444.00,0.0601
3443.00,0.0602
3442.00,0.0602
3441.00,0.0603
3440.00,0.0603
3439.00,0.0603
3438.00,0.0603
3437.00,0.0603
3436.00,0.0603
3435.00,0.0603
3434.00,0.0603
3433.00,0.0604
3432.00,0.0604
3431.00,0.0604
3430.00,0.0604
3429.00,0.0605
3428.00,0.0605
3427.00,0.0606
3426.00,0.0606
3425.00,0.0607
3424.00,0.0607
3423.00,0.0608
3422.00,0.0608
3421.00,0.0609
3420.00,0.0609
3419.00,0.0610
3418.00,0.0611
3417.00,0.0611
3416.00,0.0611
3415.00,0.0611
3414.00,0.0610
3413.00,0.0610
3412.00,0.0610
3411.00,0.0611
3410.00,0.0611
3409.00,0.0611
3408.00,0.0611
3407.00,0.0612
3406.00,0.0612
3405.00,0.0612
3404.00,0.0612
3403.00,0.0611
3402.00,0.0611
3401.00,0.0611
3400.00,0.0611
3399.00,0.0612
3398.00,0.0613
3397.00,0.0614
3396.00,0.0614
3395.00,0.0614
3394.00,0.0614
3393.00,0.0613
3392.00,0.0613
3391.00,0.0614
3390.00,0.0615
3389.00,0.0616
3388.00,0.0617
3387.00,0.0618
3386.00,0.0618
3385.00,0.0619
3384.00,0.0619
3383.00,0.0619
3382.00,0.0619
3381.00,0.0619
3380.00,0.0619
3379.00,0.0619
3378.00,0.0620
3377.00,0.0620
3376.00,0.0621
3375.00,0.0621
3374.00,0.0621
3373.00,0.0620
3372.00,0.0620
3371.00,0.0619
3370.00,0.0618
3369.00,0.0618
3368.00,0.0619
3367.00,0.0620
3366.00,0.0622
3365.00,0.0624
3364.00,0.0625
3363.00,0.0625
3362.00,0.0625
3361.00,0.0625
3360.00,0.0626
3359.00,0.0627
3358.00,0.0627
3357.00,0.0628
3356.00,0.0628
3355.00,0.0628
3354.00,0.0628
3353.00,0.0627
3352.00,0.0627
3351.00,0.0627
3350.00,0.0628
3349.00,0.0629
3348.00,0.0630
3347.00,0.0631
3346.00,0.0631
3345.00,0.0631
3344.00,0.0631
3343.00,0.0631
3342.00,0.0631
3341.00,0.0631
3340.00,0.0631
3339.00,0.0632
3338.00,0.0633
3337.00,0.0634
3336.00,0.0635
3335.00,0.0636
3334.00,0.0637
3333.00,0.0638
3332.00,0.0639
3331.00,0.0639
3330.00,0.0639
3329.00,0.0640
3328.00,0.0640
3327.00,0.0640
3326.00,0.0640
3325.00,0.0641
3324.00,0.0641
3323.00,0.0642
3322.00,0.0643
3321.00,0.0644
3320.00,0.0645
3319.00,0.0645
3318.00,0.0645
3317.00,0.0646
3316.00,0.0646
3315.00,0.0646
3314.00,0.0647
3313.00,0.0647
3312.00,0.0646
3311.00,0.0646
3310.00,0.0646
3309.00,0.0645
3308.00,0.0645
3307.00,0.0646
3306.00,0.0646
3305.00,0.0647
3304.00,0.0648
3303.00,0.0649
3302.00,0.0650
3301.00,0.0650
3300.00,0.0651
3299.00,0.0651
3298.00,0.0651
3297.00,0.0651
3296.00,0.0652
3295.00,0.0652
3294.00,0.0653
3293.00,0.0653
3292.00,0.0654
3291.00,0.0655
3290.00,0.0656
3289.00,0.0656
3288.00,0.0657
3287.00,0.0657
3286.00,0.0658
3285.00,0.0658
3284.00,0.0658
3283.00,0.0659
3282.00,0.0659
3281.00,0.0659
3280.00,0.0659
3279.00,0.0659
3278.00,0.0660
3277.00,0.0660
3276.00,0.0660
3275.00,0.0661
3274.00,0.0661
3273.00,0.0662
3272.00,0.0662
3271.00,0.0663
3270.00,0.0664
3269.00,0.0665
3268.00,0.0666
3267.00,0.0667
3266.00,0.0668
3265.00,0.0669
3264.00,0.0670
3263.00,0.0670
3262.00,0.0671
3261.00,0.0671
3260.00,0.0672
3259.00,0.0672
3258.00,0.0673
3257.00,0.0673
3256.00,0.0674
3255.00,0.0675
3254.00,0.0676
3253.00,0.0677
3252.00,0.0678
3251.00,0.0679
3250.00,0.0680
3249.00,0.0681
3248.00,0.0682
3247.00,0.0683
3246.00,0.0684
3245.00,0.0685
3244.00,0.0686
3243.00,0.0687
3242.00,0.0688
3241.00,0.0689
3240.00,0.0690
3239.00,0.0691
3238.00,0.0691
3237.00,0.0692
3236.00,0.0692
3235.00,0.0692
3234.00,0.0693
3233.00,0.0694
3232.00,0.0695
3231.00,0.0696
3230.00,0.0697
3229.00,0.0698
3228.00,0.0699
3227.00,0.0699
3226.00,0.0700
3225.00,0.0702
3224.00,0.0703
3223.00,0.0705
3222.00,0.0707
3221.00,0.0710
3220.00,0.0713
3219.00,0.0716
3218.00,0.0718
3217.00,0.0719
3216.00,0.0719
3215.00,0.0719
3214.00,0.0719
3213.00,0.0719
3212.00,0.0719
3211.00,0.0719
3210.00,0.0720
3209.00,0.0720
3208.00,0.0721
3207.00,0.0722
3206.00,0.0722
3205.00,0.0723
3204.00,0.0724
3203.00,0.0724
3202.00,0.0725
3201.00,0.0726
3200.00,0.0726
3199.00,0.0727
3198.00,0.0728
3197.00,0.0729
3196.00,0.0729
3195.00,0.0730
3194.00,0.0731
3193.00,0.0732
3192.00,0.0733
3191.00,0.0735
3190.00,0.0737
3189.00,0.0740
3188.00,0.0742
3187.00,0.0744
3186.00,0.0745
3185.00,0.0746
3184.00,0.0746
3183.00,0.0746
3182.00,0.0747
3181.00,0.0747
3180.00,0.0748
3179.00,0.0749
3178.00,0.0750
3177.00,0.0751
3176.00,0.0752
3175.00,0.0754
3174.00,0.0756
3173.00,0.0758
3172.00,0.0761
3171.00,0.0764
3170.00,0.0767
3169.00,0.0769
3168.00,0.0771
3167.00,0.0771
3166.00,0.0771
3165.00,0.0771
3164.00,0.0770
3163.00,0.0770
3162.00,0.0770
3161.00,0.0771
3160.00,0.0772
3159.00,0.0772
3158.00,0.0773
3157.00,0.0774
3156.00,0.0774
3155.00,0.0775
3154.00,0.0776
3153.00,0.0777
3152.00,0.0778
3151.00,0.0780
3150.00,0.0782
3149.00,0.0783
3148.00,0.0785
3147.00,0.0786
3146.00,0.0788
3145.00,0.0789
3144.00,0.0790
3143.00,0.0791
3142.00,0.0792
3141.00,0.0793
3140.00,0.0795
3139.00,0.0796
3138.00,0.0798
3137.00,0.0800
3136.00,0.0802
3135.00,0.0804
3134.00,0.0806
3133.00,0.0807
3132.00,0.0809
3131.00,0.0811
3130.00,0.0813
3129.00,0.0815
3128.00,0.0817
3127.00,0.0819
3126.00,0.0820
3125.00,0.0822
3124.00,0.0823
3123.00,0.0825
3122.00,0.0826
3121.00,0.0827
3120.00,0.0829
3119.00,0.0831
3118.00,0.0833
3117.00,0.0834
3116.00,0.0837
3115.00,0.0839
3114.00,0.0841
3113.00,0.0843
3112.00,0.0845
3111.00,0.0846
3110.00,0.0848
3109.00,0.0850
3108.00,0.0851
3107.00,0.0853
3106.00,0.0855
3105.00,0.0858
3104.00,0.0861
3103.00,0.0865
3102.00,0.0870
3101.00,0.0877
3100.00,0.0886
3099.00,0.0896
3098.00,0.0907
3097.00,0.0917
3096.00,0.0924
3095.00,0.0928
3094.00,0.0929
3093.00,0.0931
3092.00,0.0934
3091.00,0.0940
3090.00,0.0951
3089.00,0.0965
3088.00,0.0979
3087.00,0.0989
3086.00,0.0996
3085.00,0.1000
3084.00,0.1001
3083.00,0.1002
3082.00,0.1002
3081.00,0.1001
3080.00,0.1003
3079.00,0.1007
3078.00,0.1018
3077.00,0.1036
3076.00,0.1059
3075.00,0.1085
3074.00,0.1109
3073.00,0.1128
3072.00,0.1141
3071.00,0.1150
3070.00,0.1156
3069.00,0.1161
3068.00,0.1167
3067.00,0.1179
3066.00,0.1202
3065.00,0.1240
3064.00,0.1286
3063.00,0.1326
3062.00,0.1349
3061.00,0.1350
3060.00,0.1337
3059.00,0.1319
3058.00,0.1305
3057.00,0.1299
3056.00,0.1301
3055.00,0.1310
3054.00,0.1325
3053.00,0.1347
3052.00,0.1375
3051.00,0.1406
3050.00,0.1432
3049.00,0.1442
3048.00,0.1432
3047.00,0.1402
3046.00,0.1361
3045.00,0.1320
3044.00,0.1285
3043.00,0.1259
3042.00,0.1242
3041.00,0.1229
3040.00,0.1217
3039.00,0.1204
3038.00,0.1190
3037.00,0.1177
3036.00,0.1170
3035.00,0.1172
3034.00,0.1185
3033.00,0.1207
3032.00,0.1234
3031.00,0.1259
3030.00,0.1279
3029.00,0.1289
3028.00,0.1292
3027.00,0.1287
3026.00,0.1278
3025.00,0.1267
3024.00,0.1256
3023.00,0.1247
3022.00,0.1238
3021.00,0.1231
3020.00,0.1223
3019.00,0.1216
3018.00,0.1208
3017.00,0.1202
3016.00,0.1196
3015.00,0.1192
3014.00,0.1190
3013.00,0.1188
3012.00,0.1188
3011.00,0.1189
3010.00,0.1192
3009.00,0.1197
3008.00,0.1207
3007.00,0.1222
3006.00,0.1240
3005.00,0.1259
3004.00,0.1275
3003.00,0.1283
3002.00,0.1282
3001.00,0.1274
3000.00,0.1263
2999.00,0.1250
2998.00,0.1238
2997.00,0.1228
2996.00,0.1220
2995.00,0.1212
2994.00,0.1206
2993.00,0.1200
2992.00,0.1194
2991.00,0.1189
2990.00,0.1185
2989.00,0.1181
2988.00,0.1178
2987.00,0.1177
2986.00,0.1176
2985.00,0.1177
2984.00,0.1178
2983.00,0.1180
2982.00,0.1180
2981.00,0.1179
2980.00,0.1178
2979.00,0.1175
2978.00,0.1173
2977.00,0.1170
2976.00,0.1168
2975.00,0.1167
2974.00,0.1166
2973.00,0.1166
2972.00,0.1167
2971.00,0.1169
2970.00,0.1172
2969.00,0.1175
2968.00,0.1177
2967.00,0.1180
2966.00,0.1183
2965.00,0.1185
2964.00,0.1186
2963.00,0.1185
2962.00,0.1182
2961.00,0.1179
2960.00,0.1175
2959.00,0.1172
2958.00,0.1170
2957.00,0.1169
2956.00,0.1170
2955.00,0.1171
2954.00,0.1173
2953.00,0.1173
2952.00,0.1174
2951.00,0.1174
2950.00,0.1174
2949.00,0.1176
2948.00,0.1179
2947.00,0.1181
2946.00,0.1181
2945.00,0.1178
2944.00,0.1172
2943.00,0.1166
2942.00,0.1159
2941.00,0.1152
2940.00,0.1146
2939.00,0.1141
2938.00,0.1137
2937.00,0.1134
2936.00,0.1131
2935.00,0.1128
2934.00,0.1125
2933.00,0.1121
2932.00,0.1117
2931.00,0.1113
2930.00,0.1109
2929.00,0.1106
2928.00,0.1104
2927.00,0.1102
2926.00,0.1101
2925.00,0.1099
2924.00,0.1098
2923.00,0.1095
2922.00,0.1092
2921.00,0.1089
2920.00,0.1085
2919.00,0.1082
2918.00,0.1080
2917.00,0.1079
2916.00,0.1081
2915.00,0.1084
2914.00,0.1090
2913.00,0.1097
2912.00,0.1103
2911.00,0.1110
2910.00,0.1115
2909.00,0.1120
2908.00,0.1124
2907.00,0.1127
2906.00,0.1131
2905.00,0.1134
2904.00,0.1137
2903.00,0.1141
2902.00,0.1145
2901.00,0.1150
2900.00,0.1154
2899.00,0.1159
2898.00,0.1163
2897.00,0.1167
2896.00,0.1171
2895.00,0.1174
2894.00,0.1178
2893.00,0.1181
2892.00,0.1185
2891.00,0.1188
2890.00,0.1192
2889.00,0.1195
2888.00,0.1198
2887.00,0.1201
2886.00,0.1203
2885.00,0.1206
2884.00,0.1207
2883.00,0.1208
2882.00,0.1209
2881.00,0.1209
2880.00,0.1210
2879.00,0.1210
2878.00,0.1210
2877.00,0.1211
2876.00,0.1211
2875.00,0.1211
2874.00,0.1211
2873.00,0.1210
2872.00,0.1209
2871.00,0.1207
2870.00,0.1205
2869.00,0.1203
2868.00,0.1200
2867.00,0.1197
2866.00,0.1193
2865.00,0.1189
2864.00,0.1186
2863.00,0.1183
2862.00,0.1181
2861.00,0.1179
2860.00,0.1179
2859.00,0.1180
2858.00,0.1182
2857.00,0.1184
2856.00,0.1187
2855.00,0.1191
2854.00,0.1194
2853.00,0.1197
2852.00,0.1200
2851.00,0.1203
2850.00,0.1207
2849.00,0.1213
2848.00,0.1221
2847.00,0.1230
2846.00,0.1239
2845.00,0.1248
2844.00,0.1255
2843.00,0.1260
2842.00,0.1265
2841.00,0.1268
2840.00,0.1271
2839.00,0.1274
2838.00,0.1278
2837.00,0.1282
2836.00,0.1286
2835.00,0.1289
2834.00,0.1291
2833.00,0.1291
2832.00,0.1291
2831.00,0.1290
2830.00,0.1288
2829.00,0.1287
2828.00,0.1285
2827.00,0.1283
2826.00,0.1281
2825.00,0.1279
2824.00,0.1277
2823.00,0.1275
2822.00,0.1272
2821.00,0.1270
2820.00,0.1267
2819.00,0.1264
2818.00,0.1261
2817.00,0.1258
2816.00,0.1255
2815.00,0.1251
2814.00,0.1247
2813.00,0.1243
2812.00,0.1238
2811.00,0.1234
2810.00,0.1230
2809.00,0.1225
2808.00,0.1221
2807.00,0.1216
2806.00,0.1212
2805.00,0.1207
2804.00,0.1202
2803.00,0.1196
2802.00,0.1191
2801.00,0.1185
2800.00,0.1180
2799.00,0.1175
2798.00,0.1169
2797.00,0.1164
2796.00,0.1159
2795.00,0.1154
2794.00,0.1150
2793.00,0.1145
2792.00,0.1141
2791.00,0.1137
2790.00,0.1133
2789.00,0.1130
2788.00,0.1127
2787.00,0.1125
2786.00,0.1123
2785.00,0.1122
2784.00,0.1122
2783.00,0.1121
2782.00,0.1121
2781.00,0.1120
2780.00,0.1117
2779.00,0.1114
2778.00,0.1109
2777.00,0.1104
2776.00,0.1099
2775.00,0.1094
2774.00,0.1090
2773.00,0.1086
2772.00,0.1083
2771.00,0.1081
2770.00,0.1079
2769.00,0.1077
2768.00,0.1077
2767.00,0.1076
2766.00,0.1075
2765.00,0.1074
2764.00,0.1073
2763.00,0.1071
2762.00,0.1069
2761.00,0.1067
2760.00,0.1065
2759.00,0.1063
2758.00,0.1061
2757.00,0.1060
2756.00,0.1059
2755.00,0.1057
2754.00,0.1055
2753.00,0.1053
2752.00,0.1050
2751.00,0.1047
2750.00,0.1044
2749.00,0.1040
2748.00,0.1037
2747.00,0.1033
2746.00,0.1030
2745.00,0.1028
2744.00,0.1027
2743.00,0.1026
2742.00,0.1026
2741.00,0.1027
2740.00,0.1028
2739.00,0.1029
2738.00,0.1031
2737.00,0.1034
2736.00,0.1037
2735.00,0.1041
2734.00,0.1044
2733.00,0.1048
2732.00,0.1052
2731.00,0.1055
2730.00,0.1058
2729.00,0.1060
2728.00,0.1061
2727.00,0.1061
2726.00,0.1061
2725.00,0.1060
2724.00,0.1058
2723.00,0.1056
2722.00,0.1054
2721.00,0.1051
2720.00,0.1048
2719.00,0.1045
2718.00,0.1042
2717.00,0.1039
2716.00,0.1037
2715.00,0.1033
2714.00,0.1030
2713.00,0.1027
2712.00,0.1024
2711.00,0.1022
2710.00,0.1020
2709.00,0.1020
2708.00,0.1020
2707.00,0.1022
2706.00,0.1025
2705.00,0.1029
2704.00,0.1034
2703.00,0.1041
2702.00,0.1048
2701.00,0.1057
2700.00,0.1066
2699.00,0.1076
2698.00,0.1087
2697.00,0.1097
2696.00,0.1108
2695.00,0.1118
2694.00,0.1128
2693.00,0.1138
2692.00,0.1148
2691.00,0.1156
2690.00,0.1165
2689.00,0.1172
2688.00,0.1179
2687.00,0.1186
2686.00,0.1192
2685.00,0.1198
2684.00,0.1203
2683.00,0.1208
2682.00,0.1212
2681.00,0.1216
2680.00,0.1220
2679.00,0.1223
2678.00,0.1226
2677.00,0.1228
2676.00,0.1231
2675.00,0.1233
2674.00,0.1234
2673.00,0.1235
2672.00,0.1236
2671.00,0.1237
2670.00,0.1237
2669.00,0.1237
2668.00,0.1237
2667.00,0.1237
2666.00,0.1236
2665.00,0.1235
2664.00,0.1234
2663.00,0.1233
2662.00,0.1231
2661.00,0.1230
2660.00,0.1228
2659.00,0.1226
2658.00,0.1224
2657.00,0.1221
2656.00,0.1219
2655.00,0.1217
2654.00,0.1214
2653.00,0.1212
2652.00,0.1211
2651.00,0.1209
2650.00,0.1207
2649.00,0.1205
2648.00,0.1203
2647.00,0.1201
2646.00,0.1199
2645.00,0.1198
2644.00,0.1195
2643.00,0.1193
2642.00,0.1190
2641.00,0.1187
2640.00,0.1183
2639.00,0.1180
2638.00,0.1177
2637.00,0.1173
2636.00,0.1170
2635.00,0.1166
2634.00,0.1162
2633.00,0.1157
2632.00,0.1152
2631.00,0.1146
2630.00,0.1140
2629.00,0.1135
2628.00,0.1129
2627.00,0.1125
2626.00,0.1120
2625.00,0.1116
2624.00,0.1114
2623.00,0.1112
2622.00,0.1111
2621.00,0.1110
2620.00,0.1110
2619.00,0.1111
2618.00,0.1112
2617.00,0.1114
2616.00,0.1117
2615.00,0.1121
2614.00,0.1126
2613.00,0.1132
2612.00,0.1138
2611.00,0.1144
2610.00,0.1151
2609.00,0.1156
2608.00,0.1161
2607.00,0.1164
2606.00,0.1167
2605.00,0.1167
2604.00,0.1167
2603.00,0.1165
2602.00,0.1162
2601.00,0.1158
2600.00,0.1153
2599.00,0.1148
2598.00,0.1143
2597.00,0.1137
2596.00,0.1131
2595.00,0.1126
2594.00,0.1120
2593.00,0.1115
2592.00,0.1111
2591.00,0.1108
2590.00,0.1106
2589.00,0.1105
2588.00,0.1105
2587.00,0.1106
2586.00,0.1109
2585.00,0.1113
2584.00,0.1118
2583.00,0.1124
2582.00,0.1131
2581.00,0.1139
2580.00,0.1148
2579.00,0.1158
2578.00,0.1168
2577.00,0.1180
2576.00,0.1191
2575.00,0.1202
2574.00,0.1213
2573.00,0.1223
2572.00,0.1233
2571.00,0.1242
2570.00,0.1249
2569.00,0.1256
2568.00,0.1262
2567.00,0.1267
2566.00,0.1272
2565.00,0.1276
2564.00,0.1279
2563.00,0.1282
2562.00,0.1284
2561.00,0.1287
2560.00,0.1289
2559.00,0.1290
2558.00,0.1291
2557.00,0.1292
2556.00,0.1292
2555.00,0.1292
2554.00,0.1292
2553.00,0.1291
2552.00,0.1289
2551.00,0.1288
2550.00,0.1285
2549.00,0.1283
2548.00,0.1280
2547.00,0.1277
2546.00,0.1274
2545.00,0.1270
2544.00,0.1266
2543.00,0.1262
2542.00,0.1257
2541.00,0.1253
2540.00,0.1249
2539.00,0.1245
2538.00,0.1240
2537.00,0.1237
2536.00,0.1233
2535.00,0.1229
2534.00,0.1225
2533.00,0.1221
2532.00,0.1218
2531.00,0.1214
2530.00,0.1210
2529.00,0.1205
2528.00,0.1200
2527.00,0.1195
2526.00,0.1190
2525.00,0.1186
2524.00,0.1182
2523.00,0.1178
2522.00,0.1174
2521.00,0.1170
2520.00,0.1166
2519.00,0.1163
2518.00,0.1159
2517.00,0.1156
2516.00,0.1152
2515.00,0.1149
2514.00,0.1146
2513.00,0.1143
2512.00,0.1140
2511.00,0.1137
2510.00,0.1134
2509.00,0.1131
2508.00,0.1129
2507.00,0.1126
2506.00,0.1124
2505.00,0.1121
2504.00,0.1119
2503.00,0.1116
2502.00,0.1113
2501.00,0.1109
2500.00,0.1106
2499.00,0.1102
2498.00,0.1098
2497.00,0.1094
2496.00,0.1091
2495.00,0.1087
2494.00,0.1083
2493.00,0.1080
2492.00,0.1076
2491.00,0.1073
2490.00,0.1070
2489.00,0.1067
2488.00,0.1065
2487.00,0.1062
2486.00,0.1060
2485.00,0.1058
2484.00,0.1056
2483.00,0.1053
2482.00,0.1051
2481.00,0.1050
2480.00,0.1048
2479.00,0.1046
2478.00,0.1045
2477.00,0.1043
2476.00,0.1042
2475.00,0.1041
2474.00,0.1039
2473.00,0.1038
2472.00,0.1036
2471.00,0.1035
2470.00,0.1033
2469.00,0.1030
2468.00,0.1028
2467.00,0.1026
2466.00,0.1023
2465.00,0.1020
2464.00,0.1017
2463.00,0.1014
2462.00,0.1010
2461.00,0.1007
2460.00,0.1003
2459.00,0.1000
2458.00,0.0998
2457.00,0.0996
2456.00,0.0994
2455.00,0.0992
2454.00,0.0990
2453.00,0.0987
2452.00,0.0985
2451.00,0.0982
2450.00,0.0979
2449.00,0.0976
2448.00,0.0973
2447.00,0.0971
2446.00,0.0969
2445.00,0.0967
2444.00,0.0966
2443.00,0.0965
2442.00,0.0964
2441.00,0.0963
2440.00,0.0962
2439.00,0.0961
2438.00,0.0960
2437.00,0.0959
2436.00,0.0957
2435.00,0.0956
2434.00,0.0954
2433.00,0.0952
2432.00,0.0950
2431.00,0.0948
2430.00,0.0947
2429.00,0.0947
2428.00,0.0947
2427.00,0.0948
2426.00,0.0949
2425.00,0.0952
2424.00,0.0956
2423.00,0.0958
2422.00,0.0959
2421.00,0.0958
2420.00,0.0956
2419.00,0.0952
2418.00,0.0948
2417.00,0.0946
2416.00,0.0944
2415.00,0.0942
2414.00,0.0940
2413.00,0.0939
2412.00,0.0937
2411.00,0.0934
2410.00,0.0931
2409.00,0.0929
2408.00,0.0926
2407.00,0.0923
2406.00,0.0920
2405.00,0.0917
2404.00,0.0915
2403.00,0.0913
2402.00,0.0911
2401.00,0.0908
2400.00,0.0906
2399.00,0.0904
2398.00,0.0902
2397.00,0.0901
2396.00,0.0899
2395.00,0.0897
2394.00,0.0896
2393.00,0.0894
2392.00,0.0893
2391.00,0.0892
2390.00,0.0891
2389.00,0.0889
2388.00,0.0888
2387.00,0.0887
2386.00,0.0887
2385.00,0.0887
2384.00,0.0887
2383.00,0.0886
2382.00,0.0885
2381.00,0.0883
2380.00,0.0881
2379.00,0.0879
2378.00,0.0877
2377.00,0.0875
2376.00,0.0874
2375.00,0.0874
2374.00,0.0873
2373.00,0.0873
2372.00,0.0873
2371.00,0.0872
2370.00,0.0871
2369.00,0.0870
2368.00,0.0869
2367.00,0.0868
2366.00,0.0867
2365.00,0.0866
2364.00,0.0865
2363.00,0.0864
2362.00,0.0863
2361.00,0.0862
2360.00,0.0862
2359.00,0.0861
2358.00,0.0861
2357.00,0.0860
2356.00,0.0860
2355.00,0.0859
2354.00,0.0859
2353.00,0.0857
2352.00,0.0855
2351.00,0.0854
2350.00,0.0853
2349.00,0.0852
2348.00,0.0851
2347.00,0.0850
2346.00,0.0848
2345.00,0.0847
2344.00,0.0847
2343.00,0.0847
2342.00,0.0846
2341.00,0.0845
2340.00,0.0844
2339.00,0.0843
2338.00,0.0842
2337.00,0.0841
2336.00,0.0840
2335.00,0.0839
2334.00,0.0837
2333.00,0.0837
2332.00,0.0836
2331.00,0.0837
2330.00,0.0837
2329.00,0.0838
2328.00,0.0840
2327.00,0.0841
2326.00,0.0840
2325.00,0.0838
2324.00,0.0835
2323.00,0.0831
2322.00,0.0827
2321.00,0.0824
2320.00,0.0822
2319.00,0.0820
2318.00,0.0819
2317.00,0.0817
2316.00,0.0815
2315.00,0.0814
2314.00,0.0812
2313.00,0.0811
2312.00,0.0810
2311.00,0.0810
2310.00,0.0811
2309.00,0.0812
2308.00,0.0813
2307.00,0.0816
2306.00,0.0817
2305.00,0.0818
2304.00,0.0818
2303.00,0.0818
2302.00,0.0817
2301.00,0.0816
2300.00,0.0815
2299.00,0.0816
2298.00,0.0816
2297.00,0.0818
2296.00,0.0819
2295.00,0.0820
2294.00,0.0821
2293.00,0.0822
2292.00,0.0823
2291.00,0.0824
2290.00,0.0824
2289.00,0.0825
2288.00,0.0825
2287.00,0.0823
2286.00,0.0819
2285.00,0.0814
2284.00,0.0810
2283.00,0.0805
2282.00,0.0800
2281.00,0.0796
2280.00,0.0793
2279.00,0.0791
2278.00,0.0789
2277.00,0.0788
2276.00,0.0787
2275.00,0.0786
2274.00,0.0784
2273.00,0.0783
2272.00,0.0782
2271.00,0.0781
2270.00,0.0779
2269.00,0.0778
2268.00,0.0777
2267.00,0.0777
2266.00,0.0775
2265.00,0.0774
2264.00,0.0774
2263.00,0.0774
2262.00,0.0773
2261.00,0.0773
2260.00,0.0773
2259.00,0.0772
2258.00,0.0771
2257.00,0.0769
2256.00,0.0769
2255.00,0.0769
2254.00,0.0769
2253.00,0.0771
2252.00,0.0772
2251.00,0.0773
2250.00,0.0771
2249.00,0.0769
2248.00,0.0767
2247.00,0.0765
2246.00,0.0762
2245.00,0.0760
2244.00,0.0759
2243.00,0.0758
2242.00,0.0756
2241.00,0.0754
2240.00,0.0753
2239.00,0.0751
2238.00,0.0750
2237.00,0.0748
2236.00,0.0747
2235.00,0.0746
2234.00,0.0745
2233.00,0.0744
2232.00,0.0743
2231.00,0.0742
2230.00,0.0740
2229.00,0.0738
2228.00,0.0737
2227.00,0.0735
2226.00,0.0734
2225.00,0.0733
2224.00,0.0732
2223.00,0.0732
2222.00,0.0731
2221.00,0.0731
2220.00,0.0731
2219.00,0.0731
2218.00,0.0730
2217.00,0.0730
2216.00,0.0730
2215.00,0.0730
2214.00,0.0729
2213.00,0.0728
2212.00,0.0728
2211.00,0.0727
2210.00,0.0726
2209.00,0.0725
2208.00,0.0725
2207.00,0.0724
2206.00,0.0722
2205.00,0.0721
2204.00,0.0720
2203.00,0.0719
2202.00,0.0718
2201.00,0.0718
2200.00,0.0719
2199.00,0.0719
2198.00,0.0719
2197.00,0.0719
2196.00,0.0719
2195.00,0.0719
2194.00,0.0719
2193.00,0.0719
2192.00,0.0720
2191.00,0.0720
2190.00,0.0720
2189.00,0.0720
2188.00,0.0721
2187.00,0.0721
2186.00,0.0720
2185.00,0.0718
2184.00,0.0716
2183.00,0.0714
2182.00,0.0712
2181.00,0.0712
2180.00,0.0713
2179.00,0.0714
2178.00,0.0712
2177.00,0.0710
2176.00,0.0710
2175.00,0.0710
2174.00,0.0710
2173.00,0.0711
2172.00,0.0713
2171.00,0.0714
2170.00,0.0714
2169.00,0.0713
2168.00,0.0713
2167.00,0.0712
2166.00,0.0710
2165.00,0.0709
2164.00,0.0709
2163.00,0.0708
2162.00,0.0701
2161.00,0.0692
2160.00,0.0681
2159.00,0.0672
2158.00,0.0668
2157.00,0.0668
2156.00,0.0672
2155.00,0.0675
2154.00,0.0676
2153.00,0.0676
2152.00,0.0677
2151.00,0.0677
2150.00,0.0676
2149.00,0.0675
2148.00,0.0675
2147.00,0.0675
2146.00,0.0675
2145.00,0.0675
2144.00,0.0675
2143.00,0.0675
2142.00,0.0675
2141.00,0.0674
2140.00,0.0675
2139.00,0.0675
2138.00,0.0674
2137.00,0.0673
2136.00,0.0672
2135.00,0.0671
2134.00,0.0671
2133.00,0.0672
2132.00,0.0674
2131.00,0.0676
2130.00,0.0678
2129.00,0.0680
2128.00,0.0682
2127.00,0.0685
2126.00,0.0686
2125.00,0.0687
2124.00,0.0689
2123.00,0.0690
2122.00,0.0691
2121.00,0.0692
2120.00,0.0694
2119.00,0.0695
2118.00,0.0695
2117.00,0.0695
2116.00,0.0696
2115.00,0.0696
2114.00,0.0695
2113.00,0.0695
2112.00,0.0696
2111.00,0.0697
2110.00,0.0698
2109.00,0.0699
2108.00,0.0700
2107.00,0.0701
2106.00,0.0701
2105.00,0.0701
2104.00,0.0702
2103.00,0.0703
2102.00,0.0704
2101.00,0.0704
2100.00,0.0705
2099.00,0.0707
2098.00,0.0708
2097.00,0.0709
2096.00,0.0711
2095.00,0.0714
2094.00,0.0717
2093.00,0.0720
2092.00,0.0724
2091.00,0.0726
2090.00,0.0727
2089.00,0.0728
2088.00,0.0728
2087.00,0.0726
2086.00,0.0724
2085.00,0.0722
2084.00,0.0719
2083.00,0.0717
2082.00,0.0714
2081.00,0.0711
2080.00,0.0709
2079.00,0.0707
2078.00,0.0703
2077.00,0.0700
2076.00,0.0696
2075.00,0.0692
2074.00,0.0688
2073.00,0.0684
2072.00,0.0681
2071.00,0.0678
2070.00,0.0675
2069.00,0.0672
2068.00,0.0671
2067.00,0.0669
2066.00,0.0667
2065.00,0.0666
2064.00,0.0665
2063.00,0.0665
2062.00,0.0664
2061.00,0.0663
2060.00,0.0662
2059.00,0.0661
2058.00,0.0659
2057.00,0.0656
2056.00,0.0655
2055.00,0.0655
2054.00,0.0655
2053.00,0.0657
2052.00,0.0659
2051.00,0.0659
2050.00,0.0656
2049.00,0.0653
2048.00,0.0652
2047.00,0.0651
2046.00,0.0650
2045.00,0.0649
2044.00,0.0651
2043.00,0.0653
2042.00,0.0653
2041.00,0.0654
2040.00,0.0656
2039.00,0.0656
2038.00,0.0654
2037.00,0.0654
2036.00,0.0654
2035.00,0.0655
2034.00,0.0654
2033.00,0.0654
2032.00,0.0655
2031.00,0.0655
2030.00,0.0654
2029.00,0.0654
2028.00,0.0655
2027.00,0.0655
2026.00,0.0653
2025.00,0.0652
2024.00,0.0653
2023.00,0.0654
2022.00,0.0653
2021.00,0.0652
2020.00,0.0650
2019.00,0.0646
2018.00,0.0640
2017.00,0.0635
2016.00,0.0631
2015.00,0.0629
2014.00,0.0627
2013.00,0.0627
2012.00,0.0630
2011.00,0.0632
2010.00,0.0632
2009.00,0.0632
2008.00,0.0634
2007.00,0.0634
2006.00,0.0634
2005.00,0.0634
2004.00,0.0636
2003.00,0.0638
2002.00,0.0639
2001.00,0.0642
2000.00,0.0647
1999.00,0.0653
1998.00,0.0656
1997.00,0.0659
1996.00,0.0662
1995.00,0.0665
1994.00,0.0667
1993.00,0.0671
1992.00,0.0678
1991.00,0.0683
1990.00,0.0684
1989.00,0.0685
1988.00,0.0685
1987.00,0.0683
1986.00,0.0678
1985.00,0.0675
1984.00,0.0674
1983.00,0.0673
1982.00,0.0673
1981.00,0.0673
1980.00,0.0673
1979.00,0.0672
1978.00,0.0670
1977.00,0.0669
1976.00,0.0674
1975.00,0.0680
1974.00,0.0686
1973.00,0.0693
1972.00,0.0699
1971.00,0.0700
1970.00,0.0694
1969.00,0.0687
1968.00,0.0681
1967.00,0.0675
1966.00,0.0668
1965.00,0.0663
1964.00,0.0663
1963.00,0.0666
1962.00,0.0671
1961.00,0.0682
1960.00,0.0701
1959.00,0.0725
1958.00,0.0751
1957.00,0.0777
1956.00,0.0799
1955.00,0.0809
1954.00,0.0807
1953.00,0.0797
1952.00,0.0785
1951.00,0.0773
1950.00,0.0762
1949.00,0.0756
1948.00,0.0754
1947.00,0.0755
1946.00,0.0757
1945.00,0.0760
1944.00,0.0766
1943.00,0.0771
1942.00,0.0774
1941.00,0.0774
1940.00,0.0774
1939.00,0.0775
1938.00,0.0774
1937.00,0.0773
1936.00,0.0772
1935.00,0.0770
1934.00,0.0767
1933.00,0.0763
1932.00,0.0760
1931.00,0.0758
1930.00,0.0757
1929.00,0.0759
1928.00,0.0765
1927.00,0.0772
1926.00,0.0780
1925.00,0.0790
1924.00,0.0803
1923.00,0.0813
1922.00,0.0817
1921.00,0.0815
1920.00,0.0811
1919.00,0.0807
1918.00,0.0803
1917.00,0.0802
1916.00,0.0803
1915.00,0.0806
1914.00,0.0810
1913.00,0.0815
1912.00,0.0822
1911.00,0.0831
1910.00,0.0841
1909.00,0.0848
1908.00,0.0850
1907.00,0.0847
1906.00,0.0838
1905.00,0.0826
1904.00,0.0815
1903.00,0.0803
1902.00,0.0792
1901.00,0.0782
1900.00,0.0774
1899.00,0.0767
1898.00,0.0760
1897.00,0.0755
1896.00,0.0752
1895.00,0.0749
1894.00,0.0745
1893.00,0.0740
1892.00,0.0737
1891.00,0.0735
1890.00,0.0733
1889.00,0.0731
1888.00,0.0728
1887.00,0.0725
1886.00,0.0722
1885.00,0.0721
1884.00,0.0721
1883.00,0.0719
1882.00,0.0716
1881.00,0.0715
1880.00,0.0714
1879.00,0.0713
1878.00,0.0711
1877.00,0.0710
1876.00,0.0709
1875.00,0.0709
1874.00,0.0707
1873.00,0.0706
1872.00,0.0704
1871.00,0.0704
1870.00,0.0705
1869.00,0.0709
1868.00,0.0713
1867.00,0.0715
1866.00,0.0716
1865.00,0.0718
1864.00,0.0722
1863.00,0.0727
1862.00,0.0732
1861.00,0.0738
1860.00,0.0746
1859.00,0.0753
1858.00,0.0760
1857.00,0.0765
1856.00,0.0767
1855.00,0.0764
1854.00,0.0758
1853.00,0.0751
1852.00,0.0746
1851.00,0.0742
1850.00,0.0741
1849.00,0.0743
1848.00,0.0746
1847.00,0.0749
1846.00,0.0752
1845.00,0.0757
1844.00,0.0762
1843.00,0.0762
1842.00,0.0758
1841.00,0.0755
1840.00,0.0752
1839.00,0.0748
1838.00,0.0742
1837.00,0.0737
1836.00,0.0734
1835.00,0.0731
1834.00,0.0728
1833.00,0.0726
1832.00,0.0729
1831.00,0.0735
1830.00,0.0744
1829.00,0.0751
1828.00,0.0755
1827.00,0.0760
1826.00,0.0768
1825.00,0.0779
1824.00,0.0789
1823.00,0.0796
1822.00,0.0801
1821.00,0.0806
1820.00,0.0811
1819.00,0.0815
1818.00,0.0818
1817.00,0.0820
1816.00,0.0819
1815.00,0.0816
1814.00,0.0809
1813.00,0.0802
1812.00,0.0797
1811.00,0.0792
1810.00,0.0786
1809.00,0.0780
1808.00,0.0776
1807.00,0.0773
1806.00,0.0771
1805.00,0.0771
1804.00,0.0771
1803.00,0.0771
1802.00,0.0772
1801.00,0.0775
1800.00,0.0780
1799.00,0.0783
1798.00,0.0786
1797.00,0.0788
1796.00,0.0791
1795.00,0.0793
1794.00,0.0796
1793.00,0.0802
1792.00,0.0811
1791.00,0.0819
1790.00,0.0824
1789.00,0.0831
1788.00,0.0838
1787.00,0.0843
1786.00,0.0844
1785.00,0.0842
1784.00,0.0839
1783.00,0.0833
1782.00,0.0825
1781.00,0.0815
1780.00,0.0804
1779.00,0.0791
1778.00,0.0780
1777.00,0.0771
1776.00,0.0765
1775.00,0.0758
1774.00,0.0751
1773.00,0.0747
1772.00,0.0744
1771.00,0.0736
1770.00,0.0725
1769.00,0.0717
1768.00,0.0713
1767.00,0.0711
1766.00,0.0709
1765.00,0.0707
1764.00,0.0706
1763.00,0.0705
1762.00,0.0702
1761.00,0.0698
1760.00,0.0695
1759.00,0.0696
1758.00,0.0698
1757.00,0.0701
1756.00,0.0704
1755.00,0.0706
1754.00,0.0706
1753.00,0.0708
1752.00,0.0712
1751.00,0.0721
1750.00,0.0731
1749.00,0.0743
1748.00,0.0755
1747.00,0.0762
1746.00,0.0765
1745.00,0.0767
1744.00,0.0770
1743.00,0.0772
1742.00,0.0773
1741.00,0.0780
1740.00,0.0795
1739.00,0.0810
1738.00,0.0815
1737.00,0.0814
1736.00,0.0811
1735.00,0.0806
1734.00,0.0799
1733.00,0.0790
1732.00,0.0789
1731.00,0.0796
1730.00,0.0804
1729.00,0.0810
1728.00,0.0817
1727.00,0.0827
1726.00,0.0840
1725.00,0.0860
1724.00,0.0886
1723.00,0.0912
1722.00,0.0935
1721.00,0.0955
1720.00,0.0978
1719.00,0.1009
1718.00,0.1051
1717.00,0.1094
1716.00,0.1129
1715.00,0.1157
1714.00,0.1181
1713.00,0.1205
1712.00,0.1233
1711.00,0.1264
1710.00,0.1298
1709.00,0.1336
1708.00,0.1383
1707.00,0.1439
1706.00,0.1503
1705.00,0.1565
1704.00,0.1610
1703.00,0.1634
1702.00,0.1652
1701.00,0.1689
1700.00,0.1754
1699.00,0.1813
1698.00,0.1859
1697.00,0.1912
1696.00,0.1987
1695.00,0.2070
1694.00,0.2144
1693.00,0.2216
1692.00,0.2294
1691.00,0.2380
1690.00,0.2472
1689.00,0.2561
1688.00,0.2636
1687.00,0.2689
1686.00,0.2729
1685.00,0.2782
1684.00,0.2852
1683.00,0.2901
1682.00,0.2917
1681.00,0.2918
1680.00,0.2911
1679.00,0.2896
1678.00,0.2872
1677.00,0.2840
1676.00,0.2804
1675.00,0.2772
1674.00,0.2742
1673.00,0.2707
1672.00,0.2663
1671.00,0.2604
1670.00,0.2532
1669.00,0.2453
1668.00,0.2375
1667.00,0.2308
1666.00,0.2247
1665.00,0.2186
1664.00,0.2122
1663.00,0.2061
1662.00,0.2008
1661.00,0.1959
1660.00,0.1915
1659.00,0.1874
1658.00,0.1834
1657.00,0.1791
1656.00,0.1741
1655.00,0.1687
1654.00,0.1641
1653.00,0.1606
1652.00,0.1570
1651.00,0.1544
1650.00,0.1532
1649.00,0.1513
1648.00,0.1483
1647.00,0.1447
1646.00,0.1407
1645.00,0.1368
1644.00,0.1338
1643.00,0.1317
1642.00,0.1297
1641.00,0.1277
1640.00,0.1254
1639.00,0.1232
1638.00,0.1211
1637.00,0.1192
1636.00,0.1174
1635.00,0.1153
1634.00,0.1130
1633.00,0.1113
1632.00,0.1102
1631.00,0.1091
1630.00,0.1080
1629.00,0.1073
1628.00,0.1068
1627.00,0.1064
1626.00,0.1060
1625.00,0.1058
1624.00,0.1060
1623.00,0.1070
1622.00,0.1082
1621.00,0.1094
1620.00,0.1106
1619.00,0.1112
1618.00,0.1106
1617.00,0.1084
1616.00,0.1052
1615.00,0.1027
1614.00,0.1016
1613.00,0.1018
1612.00,0.1029
1611.00,0.1053
1610.00,0.1090
1609.00,0.1140
1608.00,0.1200
1607.00,0.1267
1606.00,0.1334
1605.00,0.1397
1604.00,0.1452
1603.00,0.1495
1602.00,0.1515
1601.00,0.1506
1600.00,0.1469
1599.00,0.1410
1598.00,0.1348
1597.00,0.1317
1596.00,0.1352
1595.00,0.1460
1594.00,0.1587
1593.00,0.1650
1592.00,0.1609
1591.00,0.1502
1590.00,0.1407
1589.00,0.1379
1588.00,0.1425
1587.00,0.1515
1586.00,0.1609
1585.00,0.1676
1584.00,0.1704
1583.00,0.1694
1582.00,0.1659
1581.00,0.1609
1580.00,0.1556
1579.00,0.1502
1578.00,0.1447
1577.00,0.1392
1576.00,0.1341
1575.00,0.1300
1574.00,0.1274
1573.00,0.1258
1572.00,0.1249
1571.00,0.1246
1570.00,0.1252
1569.00,0.1258
1568.00,0.1256
1567.00,0.1247
1566.00,0.1232
1565.00,0.1212
1564.00,0.1188
1563.00,0.1160
1562.00,0.1127
1561.00,0.1091
1560.00,0.1067
1559.00,0.1065
1558.00,0.1052
1557.00,0.1031
1556.00,0.1024
1555.00,0.1022
1554.00,0.1016
1553.00,0.1006
1552.00,0.0997
1551.00,0.0990
1550.00,0.0982
1549.00,0.0971
1548.00,0.0958
1547.00,0.0944
1546.00,0.0932
1545.00,0.0922
1544.00,0.0912
1543.00,0.0903
1542.00,0.0895
1541.00,0.0893
1540.00,0.0893
1539.00,0.0882
1538.00,0.0869
1537.00,0.0865
1536.00,0.0864
1535.00,0.0863
1534.00,0.0862
1533.00,0.0859
1532.00,0.0852
1531.00,0.0846
1530.00,0.0843
1529.00,0.0840
1528.00,0.0836
1527.00,0.0831
1526.00,0.0827
1525.00,0.0829
1524.00,0.0842
1523.00,0.0872
1522.00,0.0915
1521.00,0.0948
1520.00,0.0952
1519.00,0.0938
1518.00,0.0916
1517.00,0.0884
1516.00,0.0843
1515.00,0.0808
1514.00,0.0793
1513.00,0.0805
1512.00,0.0838
1511.00,0.0880
1510.00,0.0912
1509.00,0.0932
1508.00,0.0968
1507.00,0.1069
1506.00,0.1204
1505.00,0.1301
1504.00,0.1347
1503.00,0.1356
1502.00,0.1340
1501.00,0.1315
1500.00,0.1297
1499.00,0.1291
1498.00,0.1286
1497.00,0.1261
1496.00,0.1202
1495.00,0.1127
1494.00,0.1056
1493.00,0.0997
1492.00,0.0946
1491.00,0.0904
1490.00,0.0870
1489.00,0.0844
1488.00,0.0822
1487.00,0.0805
1486.00,0.0790
1485.00,0.0779
1484.00,0.0771
1483.00,0.0765
1482.00,0.0761
1481.00,0.0756
1480.00,0.0751
1479.00,0.0745
1478.00,0.0740
1477.00,0.0736
1476.00,0.0733
1475.00,0.0730
1474.00,0.0728
1473.00,0.0730
1472.00,0.0733
1471.00,0.0737
1470.00,0.0746
1469.00,0.0759
1468.00,0.0773
1467.00,0.0789
1466.00,0.0808
1465.00,0.0833
1464.00,0.0858
1463.00,0.0880
1462.00,0.0899
1461.00,0.0918
1460.00,0.0940
1459.00,0.0982
1458.00,0.1085
1457.00,0.1288
1456.00,0.1539
1455.00,0.1749
1454.00,0.1873
1453.00,0.1892
1452.00,0.1803
1451.00,0.1645
1450.00,0.1470
1449.00,0.1314
1448.00,0.1190
1447.00,0.1101
1446.00,0.1045
1445.00,0.1011
1444.00,0.0989
1443.00,0.0975
1442.00,0.0967
1441.00,0.0966
1440.00,0.0972
1439.00,0.0983
1438.00,0.1010
1437.00,0.1064
1436.00,0.1146
1435.00,0.1236
1434.00,0.1326
1433.00,0.1421
1432.00,0.1520
1431.00,0.1621
1430.00,0.1718
1429.00,0.1803
1428.00,0.1871
1427.00,0.1918
1426.00,0.1955
1425.00,0.1990
1424.00,0.2023
1423.00,0.2043
1422.00,0.2046
1421.00,0.2038
1420.00,0.2022
1419.00,0.1999
1418.00,0.1970
1417.00,0.1939
1416.00,0.1902
1415.00,0.1857
1414.00,0.1803
1413.00,0.1747
1412.00,0.1690
1411.00,0.1631
1410.00,0.1573
1409.00,0.1520
1408.00,0.1471
1407.00,0.1426
1406.00,0.1385
1405.00,0.1349
1404.00,0.1319
1403.00,0.1292
1402.00,0.1267
1401.00,0.1241
1400.00,0.1213
1399.00,0.1181
1398.00,0.1147
1397.00,0.1116
1396.00,0.1087
1395.00,0.1068
1394.00,0.1083
1393.00,0.1157
1392.00,0.1296
1391.00,0.1464
1390.00,0.1595
1389.00,0.1633
1388.00,0.1573
1387.00,0.1471
1386.00,0.1387
1385.00,0.1329
1384.00,0.1274
1383.00,0.1212
1382.00,0.1146
1381.00,0.1085
1380.00,0.1031
1379.00,0.0987
1378.00,0.0953
1377.00,0.0927
1376.00,0.0907
1375.00,0.0892
1374.00,0.0881
1373.00,0.0874
1372.00,0.0870
1371.00,0.0871
1370.00,0.0877
1369.00,0.0887
1368.00,0.0895
1367.00,0.0902
1366.00,0.0910
1365.00,0.0925
1364.00,0.0949
1363.00,0.0977
1362.00,0.0991
1361.00,0.0983
1360.00,0.0957
1359.00,0.0927
1358.00,0.0904
1357.00,0.0893
1356.00,0.0889
1355.00,0.0890
1354.00,0.0896
1353.00,0.0901
1352.00,0.0906
1351.00,0.0909
1350.00,0.0910
1349.00,0.0908
1348.00,0.0901
1347.00,0.0894
1346.00,0.0888
1345.00,0.0884
1344.00,0.0883
1343.00,0.0885
1342.00,0.0892
1341.00,0.0903
1340.00,0.0920
1339.00,0.0941
1338.00,0.0970
1337.00,0.1006
1336.00,0.1053
1335.00,0.1114
1334.00,0.1193
1333.00,0.1293
1332.00,0.1416
1331.00,0.1560
1330.00,0.1716
1329.00,0.1875
1328.00,0.2023
1327.00,0.2150
1326.00,0.2249
1325.00,0.2315
1324.00,0.2343
1323.00,0.2328
1322.00,0.2267
1321.00,0.2165
1320.00,0.2036
1319.00,0.1901
1318.00,0.1778
1317.00,0.1676
1316.00,0.1594
1315.00,0.1524
1314.00,0.1465
1313.00,0.1418
1312.00,0.1385
1311.00,0.1374
1310.00,0.1387
1309.00,0.1427
1308.00,0.1493
1307.00,0.1576
1306.00,0.1670
1305.00,0.1762
1304.00,0.1845
1303.00,0.1917
1302.00,0.1980
1301.00,0.2039
1300.00,0.2099
1299.00,0.2166
1298.00,0.2241
1297.00,0.2322
1296.00,0.2407
1295.00,0.2490
1294.00,0.2565
1293.00,0.2629
1292.00,0.2677
1291.00,0.2707
1290.00,0.2719
1289.00,0.2713
1288.00,0.2692
1287.00,0.2659
1286.00,0.2617
1285.00,0.2571
1284.00,0.2524
1283.00,0.2476
1282.00,0.2432
1281.00,0.2395
1280.00,0.2370
1279.00,0.2359
1278.00,0.2372
1277.00,0.2424
1276.00,0.2530
1275.00,0.2683
1274.00,0.2848
1273.00,0.2964
1272.00,0.2980
1271.00,0.2884
1270.00,0.2711
1269.00,0.2513
1268.00,0.2332
1267.00,0.2187
1266.00,0.2081
1265.00,0.2005
1264.00,0.1946
1263.00,0.1896
1262.00,0.1849
1261.00,0.1804
1260.00,0.1761
1259.00,0.1724
1258.00,0.1695
1257.00,0.1671
1256.00,0.1652
1255.00,0.1635
1254.00,0.1620
1253.00,0.1607
1252.00,0.1594
1251.00,0.1582
1250.00,0.1573
1249.00,0.1569
1248.00,0.1573
1247.00,0.1584
1246.00,0.1598
1245.00,0.1604
1244.00,0.1591
1243.00,0.1556
1242.00,0.1505
1241.00,0.1448
1240.00,0.1391
1239.00,0.1341
1238.00,0.1298
1237.00,0.1262
1236.00,0.1231
1235.00,0.1203
1234.00,0.1179
1233.00,0.1159
1232.00,0.1139
1231.00,0.1121
1230.00,0.1105
1229.00,0.1090
1228.00,0.1075
1227.00,0.1061
1226.00,0.1048
1225.00,0.1036
1224.00,0.1024
1223.00,0.1013
1222.00,0.1005
1221.00,0.1001
1220.00,0.1004
1219.00,0.1018
1218.00,0.1049
1217.00,0.1097
1216.00,0.1162
1215.00,0.1239
1214.00,0.1321
1213.00,0.1396
1212.00,0.1450
1211.00,0.1472
1210.00,0.1459
1209.00,0.1415
1208.00,0.1350
1207.00,0.1280
1206.00,0.1216
1205.00,0.1163
1204.00,0.1120
1203.00,0.1088
1202.00,0.1064
1201.00,0.1046
1200.00,0.1033
1199.00,0.1023
1198.00,0.1019
1197.00,0.1019
1196.00,0.1026
1195.00,0.1041
1194.00,0.1070
1193.00,0.1116
1192.00,0.1185
1191.00,0.1281
1190.00,0.1403
1189.00,0.1535
1188.00,0.1651
1187.00,0.1727
1186.00,0.1752
1185.00,0.1739
1184.00,0.1711
1183.00,0.1690
1182.00,0.1687
1181.00,0.1697
1180.00,0.1706
1179.00,0.1697
1178.00,0.1663
1177.00,0.1605
1176.00,0.1532
1175.00,0.1453
1174.00,0.1377
1173.00,0.1312
1172.00,0.1261
1171.00,0.1226
1170.00,0.1203
1169.00,0.1184
1168.00,0.1163
1167.00,0.1136
1166.00,0.1107
1165.00,0.1079
1164.00,0.1054
1163.00,0.1033
1162.00,0.1016
1161.00,0.1002
1160.00,0.0991
1159.00,0.0980
1158.00,0.0971
1157.00,0.0963
1156.00,0.0955
1155.00,0.0948
1154.00,0.0942
1153.00,0.0936
1152.00,0.0931
1151.00,0.0927
1150.00,0.0923
1149.00,0.0920
1148.00,0.0917
1147.00,0.0915
1146.00,0.0919
1145.00,0.0936
1144.00,0.0969
1143.00,0.1009
1142.00,0.1036
1141.00,0.1035
1140.00,0.1009
1139.00,0.0977
1138.00,0.0955
1137.00,0.0950
1136.00,0.0958
1135.00,0.0980
1134.00,0.1022
1133.00,0.1094
1132.00,0.1211
1131.00,0.1384
1130.00,0.1613
1129.00,0.1860
1128.00,0.2054
1127.00,0.2139
1126.00,0.2125
1125.00,0.2074
1124.00,0.2030
1123.00,0.1983
1122.00,0.1895
1121.00,0.1756
1120.00,0.1592
1119.00,0.1444
1118.00,0.1330
1117.00,0.1246
1116.00,0.1183
1115.00,0.1133
1114.00,0.1095
1113.00,0.1066
1112.00,0.1042
1111.00,0.1024
1110.00,0.1011
1109.00,0.1001
1108.00,0.0996
1107.00,0.0998
1106.00,0.1009
1105.00,0.1032
1104.00,0.1065
1103.00,0.1104
1102.00,0.1139
1101.00,0.1154
1100.00,0.1143
1099.00,0.1112
1098.00,0.1073
1097.00,0.1036
1096.00,0.1006
1095.00,0.0983
1094.00,0.0967
1093.00,0.0956
1092.00,0.0948
1091.00,0.0945
1090.00,0.0944
1089.00,0.0942
1088.00,0.0937
1087.00,0.0930
1086.00,0.0923
1085.00,0.0917
1084.00,0.0914
1083.00,0.0913
1082.00,0.0917
1081.00,0.0928
1080.00,0.0948
1079.00,0.0987
1078.00,0.1056
1077.00,0.1161
1076.00,0.1293
1075.00,0.1428
1074.00,0.1528
1073.00,0.1567
1072.00,0.1545
1071.00,0.1486
1070.00,0.1417
1069.00,0.1351
1068.00,0.1291
1067.00,0.1239
1066.00,0.1195
1065.00,0.1158
1064.00,0.1128
1063.00,0.1103
1062.00,0.1084
1061.00,0.1069
1060.00,0.1056
1059.00,0.1045
1058.00,0.1037
1057.00,0.1032
1056.00,0.1026
1055.00,0.1021
1054.00,0.1017
1053.00,0.1013
1052.00,0.1008
1051.00,0.1002
1050.00,0.0997
1049.00,0.0992
1048.00,0.0986
1047.00,0.0978
1046.00,0.0971
1045.00,0.0964
1044.00,0.0955
1043.00,0.0946
1042.00,0.0938
1041.00,0.0930
1040.00,0.0922
1039.00,0.0913
1038.00,0.0906
1037.00,0.0900
1036.00,0.0893
1035.00,0.0886
1034.00,0.0883
1033.00,0.0888
1032.00,0.0911
1031.00,0.0976
1030.00,0.1104
1029.00,0.1283
1028.00,0.1455
1027.00,0.1542
1026.00,0.1508
1025.00,0.1388
1024.00,0.1245
1023.00,0.1128
1022.00,0.1048
1021.00,0.0997
1020.00,0.0963
1019.00,0.0937
1018.00,0.0913
1017.00,0.0887
1016.00,0.0860
1015.00,0.0836
1014.00,0.0815
1013.00,0.0800
1012.00,0.0798
1011.00,0.0836
1010.00,0.0944
1009.00,0.1122
1008.00,0.1321
1007.00,0.1462
1006.00,0.1492
1005.00,0.1431
1004.00,0.1353
1003.00,0.1314
1002.00,0.1316
1001.00,0.1323
1000.00,0.1298
999.00,0.1240
998.00,0.1175
997.00,0.1124
996.00,0.1088
995.00,0.1059
994.00,0.1028
993.00,0.0999
992.00,0.0977
991.00,0.0963
990.00,0.0956
989.00,0.0952
988.00,0.0949
987.00,0.0946
986.00,0.0941
985.00,0.0941
984.00,0.0952
983.00,0.0980
982.00,0.1022
981.00,0.1065
980.00,0.1092
979.00,0.1096
978.00,0.1087
977.00,0.1076
976.00,0.1069
975.00,0.1065
974.00,0.1061
973.00,0.1056
972.00,0.1053
971.00,0.1051
970.00,0.1051
969.00,0.1052
968.00,0.1056
967.00,0.1065
966.00,0.1085
965.00,0.1123
964.00,0.1192
963.00,0.1302
962.00,0.1454
961.00,0.1627
960.00,0.1780
959.00,0.1868
958.00,0.1872
957.00,0.1808
956.00,0.1720
955.00,0.1645
954.00,0.1600
953.00,0.1586
952.00,0.1596
951.00,0.1620
950.00,0.1652
949.00,0.1689
948.00,0.1730
947.00,0.1771
946.00,0.1813
945.00,0.1854
944.00,0.1889
943.00,0.1916
942.00,0.1935
941.00,0.1953
940.00,0.1983
939.00,0.2032
938.00,0.2097
937.00,0.2164
936.00,0.2223
935.00,0.2264
934.00,0.2289
933.00,0.2299
932.00,0.2297
931.00,0.2286
930.00,0.2269
929.00,0.2248
928.00,0.2226
927.00,0.2204
926.00,0.2184
925.00,0.2166
924.00,0.2149
923.00,0.2133
922.00,0.2117
921.00,0.2099
920.00,0.2080
919.00,0.2058
918.00,0.2034
917.00,0.2008
916.00,0.1979
915.00,0.1948
914.00,0.1915
913.00,0.1880
912.00,0.1844
911.00,0.1807
910.00,0.1770
909.00,0.1733
908.00,0.1696
907.00,0.1660
906.00,0.1625
905.00,0.1590
904.00,0.1557
903.00,0.1525
902.00,0.1494
901.00,0.1465
900.00,0.1438
899.00,0.1412
898.00,0.1387
897.00,0.1364
896.00,0.1342
895.00,0.1320
894.00,0.1300
893.00,0.1279
892.00,0.1259
891.00,0.1241
890.00,0.1224
889.00,0.1208
888.00,0.1192
887.00,0.1178
886.00,0.1164
885.00,0.1152
884.00,0.1140
883.00,0.1129
882.00,0.1119
881.00,0.1109
880.00,0.1098
879.00,0.1088
878.00,0.1079
877.00,0.1069
876.00,0.1059
875.00,0.1050
874.00,0.1042
873.00,0.1035
872.00,0.1027
871.00,0.1020
870.00,0.1014
869.00,0.1007
868.00,0.1000
867.00,0.0993
866.00,0.0988
865.00,0.0982
864.00,0.0976
863.00,0.0971
862.00,0.0968
861.00,0.0966
860.00,0.0967
859.00,0.0973
858.00,0.0982
857.00,0.0989
856.00,0.0990
855.00,0.0984
854.00,0.0974
853.00,0.0962
852.00,0.0951
851.00,0.0942
850.00,0.0938
849.00,0.0944
848.00,0.0970
847.00,0.1024
846.00,0.1099
845.00,0.1161
844.00,0.1177
843.00,0.1142
842.00,0.1083
841.00,0.1029
840.00,0.0994
839.00,0.0972
838.00,0.0959
837.00,0.0953
836.00,0.0951
835.00,0.0953
834.00,0.0957
833.00,0.0962
832.00,0.0969
831.00,0.0974
830.00,0.0977
829.00,0.0979
828.00,0.0979
827.00,0.0980
826.00,0.0985
825.00,0.0997
824.00,0.1017
823.00,0.1041
822.00,0.1070
821.00,0.1100
820.00,0.1128
819.00,0.1150
818.00,0.1164
817.00,0.1169
816.00,0.1177
815.00,0.1203
814.00,0.1265
813.00,0.1360
812.00,0.1458
811.00,0.1524
810.00,0.1541
809.00,0.1530
808.00,0.1522
807.00,0.1531
806.00,0.1549
805.00,0.1560
804.00,0.1553
803.00,0.1525
802.00,0.1485
801.00,0.1452
800.00,0.1444
799.00,0.1458
798.00,0.1471
797.00,0.1458
796.00,0.1429
795.00,0.1425
794.00,0.1490
793.00,0.1640
792.00,0.1852
791.00,0.2074
790.00,0.2254
789.00,0.2366
788.00,0.2414
787.00,0.2419
786.00,0.2406
785.00,0.2390
784.00,0.2384
783.00,0.2396
782.00,0.2435
781.00,0.2507
780.00,0.2612
779.00,0.2742
778.00,0.2874
777.00,0.2982
776.00,0.3049
775.00,0.3070
774.00,0.3058
773.00,0.3024
772.00,0.2979
771.00,0.2925
770.00,0.2866
769.00,0.2802
768.00,0.2735
767.00,0.2663
766.00,0.2587
765.00,0.2509
764.00,0.2430
763.00,0.2350
762.00,0.2273
761.00,0.2200
760.00,0.2129
759.00,0.2060
758.00,0.1992
757.00,0.1926
756.00,0.1865
755.00,0.1813
754.00,0.1770
753.00,0.1738
752.00,0.1715
751.00,0.1700
750.00,0.1687
749.00,0.1672
748.00,0.1647
747.00,0.1611
746.00,0.1564
745.00,0.1514
744.00,0.1466
743.00,0.1423
742.00,0.1384
741.00,0.1350
740.00,0.1320
739.00,0.1294
738.00,0.1272
737.00,0.1253
736.00,0.1238
735.00,0.1228
734.00,0.1223
733.00,0.1223
732.00,0.1226
731.00,0.1230
730.00,0.1232
729.00,0.1230
728.00,0.1224
727.00,0.1214
726.00,0.1201
725.00,0.1188
724.00,0.1177
723.00,0.1168
722.00,0.1163
721.00,0.1164
720.00,0.1172
719.00,0.1190
718.00,0.1223
717.00,0.1281
716.00,0.1377
715.00,0.1516
714.00,0.1694
713.00,0.1897
712.00,0.2110
711.00,0.2321
710.00,0.2531
709.00,0.2743
708.00,0.2952
707.00,0.3130
706.00,0.3240
705.00,0.3259
704.00,0.3200
703.00,0.3097
702.00,0.2979
701.00,0.2864
700.00,0.2752
699.00,0.2638
698.00,0.2519
697.00,0.2396
696.00,0.2275
695.00,0.2164
694.00,0.2061
693.00,0.1968
692.00,0.1886
691.00,0.1816
690.00,0.1765
689.00,0.1752
688.00,0.1797
687.00,0.1909
686.00,0.2065
685.00,0.2210
684.00,0.2282
683.00,0.2249
682.00,0.2128
681.00,0.1964
680.00,0.1797
679.00,0.1651
678.00,0.1531
677.00,0.1439
676.00,0.1372
675.00,0.1332
674.00,0.1332
673.00,0.1397
672.00,0.1543
671.00,0.1761
670.00,0.2032
669.00,0.2335
668.00,0.2605
667.00,0.2735
666.00,0.2713
665.00,0.2605
664.00,0.2461
663.00,0.2307
662.00,0.2167
661.00,0.2048
660.00,0.1949
659.00,0.1867
658.00,0.1799
657.00,0.1741
656.00,0.1687
655.00,0.1638
654.00,0.1595
653.00,0.1555
652.00,0.1517
651.00,0.1483
650.00,0.1454
649.00,0.1427
648.00,0.1400
647.00,0.1376
646.00,0.1355
645.00,0.1335
644.00,0.1315
643.00,0.1296
642.00,0.1280
641.00,0.1265
640.00,0.1248
639.00,0.1234
638.00,0.1221
637.00,0.1208
636.00,0.1195
635.00,0.1182
634.00,0.1172
633.00,0.1160
632.00,0.1147
631.00,0.1135
630.00,0.1124
629.00,0.1111
628.00,0.1095
627.00,0.1080
626.00,0.1068
625.00,0.1059
624.00,0.1047
623.00,0.1028
622.00,0.1007
621.00,0.1018
620.00,0.1110
619.00,0.1307
618.00,0.1549
617.00,0.1715
616.00,0.1724
615.00,0.1612
614.00,0.1476
613.00,0.1370
612.00,0.1294
611.00,0.1236
610.00,0.1194
609.00,0.1166
608.00,0.1146
607.00,0.1128
606.00,0.1115
605.00,0.1106
604.00,0.1097
603.00,0.1087
602.00,0.1080
601.00,0.1075
600.00,0.1069
599.00,0.1061
598.00,0.1054
597.00,0.1049
596.00,0.1041
595.00,0.1034
594.00,0.1028
593.00,0.1025
592.00,0.1019
591.00,0.1013
590.00,0.1008
589.00,0.1006
588.00,0.1002
587.00,0.0999
586.00,0.0998
585.00,0.0998
584.00,0.0998
583.00,0.0998
582.00,0.0999
581.00,0.1003
580.00,0.1004
579.00,0.1005
578.00,0.1006
577.00,0.1007
576.00,0.1005
575.00,0.1002
574.00,0.1001
573.00,0.1002
572.00,0.1002
571.00,0.1004
570.00,0.1012
569.00,0.1024
568.00,0.1039
567.00,0.1060
566.00,0.1090
565.00,0.1130
564.00,0.1179
563.00,0.1240
562.00,0.1315
561.00,0.1401
560.00,0.1495
559.00,0.1591
558.00,0.1686
557.00,0.1774
556.00,0.1850
555.00,0.1911
554.00,0.1958
553.00,0.1991
552.00,0.2012
551.00,0.2022
550.00,0.2027
549.00,0.2029
548.00,0.2028
547.00,0.2024
546.00,0.2020
545.00,0.2014
544.00,0.2007
543.00,0.1996
542.00,0.1984
541.00,0.1971
540.00,0.1952
539.00,0.1929
538.00,0.1903
537.00,0.1874
536.00,0.1842
535.00,0.1808
534.00,0.1774
533.00,0.1741
532.00,0.1709
531.00,0.1676
530.00,0.1646
529.00,0.1619
528.00,0.1592
527.00,0.1566
526.00,0.1543
525.00,0.1524
524.00,0.1506
523.00,0.1488
522.00,0.1472
521.00,0.1457
520.00,0.1442
519.00,0.1426
518.00,0.1412
517.00,0.1399
516.00,0.1383
515.00,0.1366
514.00,0.1351
513.00,0.1336
512.00,0.1321
511.00,0.1305
510.00,0.1292
509.00,0.1281
508.00,0.1270
507.00,0.1258
506.00,0.1249
505.00,0.1240
504.00,0.1228
503.00,0.1213
502.00,0.1200
501.00,0.1188
500.00,0.1175
499.00,0.1162
498.00,0.1150
497.00,0.1141
496.00,0.1130
495.00,0.1121
494.00,0.1114
493.00,0.1111
492.00,0.1109
491.00,0.1111
490.00,0.1123
489.00,0.1151
488.00,0.1202
487.00,0.1290
486.00,0.1433
485.00,0.1645
484.00,0.1920
483.00,0.2229
482.00,0.2516
481.00,0.2718
480.00,0.2796
479.00,0.2750
478.00,0.2618
477.00,0.2457
476.00,0.2323
475.00,0.2277
474.00,0.2365
473.00,0.2572
472.00,0.2777
471.00,0.2817
470.00,0.2659
469.00,0.2402
468.00,0.2149
467.00,0.1950
466.00,0.1813
465.00,0.1717
464.00,0.1641
463.00,0.1574
462.00,0.1515
461.00,0.1462
460.00,0.1414
459.00,0.1370
458.00,0.1334
457.00,0.1306
456.00,0.1283
455.00,0.1265
454.00,0.1251
453.00,0.1237
452.00,0.1222
451.00,0.1209
450.00,0.1200
449.00,0.1192
448.00,0.1181
447.00,0.1172
446.00,0.1165
445.00,0.1160
444.00,0.1155
443.00,0.1153
442.00,0.1157
441.00,0.1161
440.00,0.1162
439.00,0.1163
438.00,0.1171
437.00,0.1187
436.00,0.1210
435.00,0.1243
434.00,0.1283
433.00,0.1323
432.00,0.1350
431.00,0.1361
430.00,0.1355
429.00,0.1332
428.00,0.1295
427.00,0.1253
426.00,0.1214
425.00,0.1178
424.00,0.1143
423.00,0.1116
422.00,0.1098
421.00,0.1080
420.00,0.1059
419.00,0.1042
418.00,0.1041
417.00,0.1048
416.00,0.1052
415.00,0.1055
414.00,0.1059
413.00,0.1061
412.00,0.1056
411.00,0.1049
410.00,0.1047
409.00,0.1048
408.00,0.1044
407.00,0.1040
406.00,0.1041
405.00,0.1041
404.00,0.1032
403.00,0.1022
402.00,0.1020
401.00,0.1014
400.00,0.0993
