Created as New Dataset,Sample 800 By YargerLab Date Wednesday, July 09 2025
cm-1,A
4000.00,0.0056
3999.00,0.0056
3998.00,0.0056
3997.00,0.0056
3996.00,0.0057
3995.00,0.0057
3994.00,0.0057
3993.00,0.0057
3992.00,0.0057
3991.00,0.0057
3990.00,0.0057
3989.00,0.0057
3988.00,0.0057
3987.00,0.0057
3986.00,0.0057
3985.00,0.0057
3984.00,0.0057
3983.00,0.0057
3982.00,0.0057
3981.00,0.0057
3980.00,0.0057
3979.00,0.0057
3978.00,0.0057
3977.00,0.0057
3976.00,0.0057
3975.00,0.0058
3974.00,0.0058
3973.00,0.0058
3972.00,0.0058
3971.00,0.0058
3970.00,0.0058
3969.00,0.0058
3968.00,0.0058
3967.00,0.0058
3966.00,0.0058
3965.00,0.0058
3964.00,0.0058
3963.00,0.0058
3962.00,0.0058
3961.00,0.0058
3960.00,0.0058
3959.00,0.0058
3958.00,0.0059
3957.00,0.0059
3956.00,0.0059
3955.00,0.0059
3954.00,0.0059
3953.00,0.0059
3952.00,0.0059
3951.00,0.0059
3950.00,0.0059
3949.00,0.0059
3948.00,0.0059
3947.00,0.0059
3946.00,0.0059
3945.00,0.0058
3944.00,0.0058
3943.00,0.0058
3942.00,0.0058
3941.00,0.0058
3940.00,0.0058
3939.00,0.0058
3938.00,0.0058
3937.00,0.0059
3936.00,0.0059
3935.00,0.0059
3934.00,0.0059
3933.00,0.0059
3932.00,0.0059
3931.00,0.0059
3930.00,0.0059
3929.00,0.0059
3928.00,0.0059
3927.00,0.0059
3926.00,0.0059
3925.00,0.0059
3924.00,0.0059
3923.00,0.0059
3922.00,0.0059
3921.00,0.0059
3920.00,0.0060
3919.00,0.0060
3918.00,0.0060
3917.00,0.0059
3916.00,0.0059
3915.00,0.0059
3914.00,0.0059
3913.00,0.0059
3912.00,0.0058
3911.00,0.0058
3910.00,0.0058
3909.00,0.0058
3908.00,0.0057
3907.00,0.0057
3906.00,0.0057
3905.00,0.0057
3904.00,0.0057
3903.00,0.0057
3902.00,0.0057
3901.00,0.0057
3900.00,0.0057
3899.00,0.0057
3898.00,0.0057
3897.00,0.0057
3896.00,0.0057
3895.00,0.0057
3894.00,0.0056
3893.00,0.0056
3892.00,0.0056
3891.00,0.0056
3890.00,0.0057
3889.00,0.0057
3888.00,0.0057
3887.00,0.0057
3886.00,0.0057
3885.00,0.0057
3884.00,0.0057
3883.00,0.0057
3882.00,0.0057
3881.00,0.0057
3880.00,0.0056
3879.00,0.0056
3878.00,0.0056
3877.00,0.0056
3876.00,0.0056
3875.00,0.0056
3874.00,0.0056
3873.00,0.0056
3872.00,0.0056
3871.00,0.0056
3870.00,0.0057
3869.00,0.0057
3868.00,0.0057
3867.00,0.0057
3866.00,0.0057
3865.00,0.0056
3864.00,0.0056
3863.00,0.0056
3862.00,0.0056
3861.00,0.0056
3860.00,0.0056
3859.00,0.0056
3858.00,0.0055
3857.00,0.0055
3856.00,0.0055
3855.00,0.0055
3854.00,0.0055
3853.00,0.0055
3852.00,0.0055
3851.00,0.0055
3850.00,0.0055
3849.00,0.0056
3848.00,0.0056
3847.00,0.0056
3846.00,0.0056
3845.00,0.0056
3844.00,0.0056
3843.00,0.0056
3842.00,0.0056
3841.00,0.0056
3840.00,0.0055
3839.00,0.0055
3838.00,0.0055
3837.00,0.0055
3836.00,0.0054
3835.00,0.0055
3834.00,0.0055
3833.00,0.0055
3832.00,0.0055
3831.00,0.0055
3830.00,0.0055
3829.00,0.0055
3828.00,0.0055
3827.00,0.0055
3826.00,0.0054
3825.00,0.0054
3824.00,0.0054
3823.00,0.0055
3822.00,0.0055
3821.00,0.0055
3820.00,0.0055
3819.00,0.0055
3818.00,0.0055
3817.00,0.0054
3816.00,0.0054
3815.00,0.0054
3814.00,0.0054
3813.00,0.0054
3812.00,0.0054
3811.00,0.0054
3810.00,0.0054
3809.00,0.0054
3808.00,0.0055
3807.00,0.0054
3806.00,0.0054
3805.00,0.0054
3804.00,0.0054
3803.00,0.0054
3802.00,0.0053
3801.00,0.0053
3800.00,0.0053
3799.00,0.0053
3798.00,0.0053
3797.00,0.0054
3796.00,0.0054
3795.00,0.0054
3794.00,0.0054
3793.00,0.0054
3792.00,0.0054
3791.00,0.0054
3790.00,0.0054
3789.00,0.0054
3788.00,0.0054
3787.00,0.0054
3786.00,0.0054
3785.00,0.0054
3784.00,0.0054
3783.00,0.0054
3782.00,0.0054
3781.00,0.0054
3780.00,0.0054
3779.00,0.0054
3778.00,0.0054
3777.00,0.0054
3776.00,0.0054
3775.00,0.0054
3774.00,0.0054
3773.00,0.0055
3772.00,0.0055
3771.00,0.0055
3770.00,0.0055
3769.00,0.0055
3768.00,0.0055
3767.00,0.0055
3766.00,0.0054
3765.00,0.0054
3764.00,0.0054
3763.00,0.0054
3762.00,0.0054
3761.00,0.0054
3760.00,0.0054
3759.00,0.0054
3758.00,0.0054
3757.00,0.0054
3756.00,0.0054
3755.00,0.0054
3754.00,0.0054
3753.00,0.0054
3752.00,0.0054
3751.00,0.0054
3750.00,0.0054
3749.00,0.0053
3748.00,0.0053
3747.00,0.0053
3746.00,0.0053
3745.00,0.0053
3744.00,0.0052
3743.00,0.0052
3742.00,0.0051
3741.00,0.0051
3740.00,0.0051
3739.00,0.0051
3738.00,0.0051
3737.00,0.0051
3736.00,0.0051
3735.00,0.0052
3734.00,0.0052
3733.00,0.0052
3732.00,0.0052
3731.00,0.0051
3730.00,0.0051
3729.00,0.0051
3728.00,0.0051
3727.00,0.0051
3726.00,0.0052
3725.00,0.0051
3724.00,0.0051
3723.00,0.0051
3722.00,0.0051
3721.00,0.0050
3720.00,0.0050
3719.00,0.0050
3718.00,0.0051
3717.00,0.0051
3716.00,0.0051
3715.00,0.0052
3714.00,0.0052
3713.00,0.0051
3712.00,0.0051
3711.00,0.0050
3710.00,0.0050
3709.00,0.0050
3708.00,0.0050
3707.00,0.0050
3706.00,0.0050
3705.00,0.0051
3704.00,0.0051
3703.00,0.0051
3702.00,0.0051
3701.00,0.0051
3700.00,0.0051
3699.00,0.0051
3698.00,0.0051
3697.00,0.0051
3696.00,0.0051
3695.00,0.0050
3694.00,0.0050
3693.00,0.0050
3692.00,0.0050
3691.00,0.0051
3690.00,0.0051
3689.00,0.0051
3688.00,0.0051
3687.00,0.0051
3686.00,0.0051
3685.00,0.0051
3684.00,0.0051
3683.00,0.0051
3682.00,0.0051
3681.00,0.0051
3680.00,0.0051
3679.00,0.0051
3678.00,0.0051
3677.00,0.0050
3676.00,0.0050
3675.00,0.0050
3674.00,0.0050
3673.00,0.0050
3672.00,0.0051
3671.00,0.0051
3670.00,0.0050
3669.00,0.0050
3668.00,0.0050
3667.00,0.0050
3666.00,0.0050
3665.00,0.0050
3664.00,0.0050
3663.00,0.0050
3662.00,0.0050
3661.00,0.0051
3660.00,0.0051
3659.00,0.0051
3658.00,0.0051
3657.00,0.0051
3656.00,0.0051
3655.00,0.0051
3654.00,0.0051
3653.00,0.0050
3652.00,0.0050
3651.00,0.0050
3650.00,0.0049
3649.00,0.0049
3648.00,0.0049
3647.00,0.0049
3646.00,0.0049
3645.00,0.0050
3644.00,0.0050
3643.00,0.0050
3642.00,0.0050
3641.00,0.0050
3640.00,0.0050
3639.00,0.0050
3638.00,0.0050
3637.00,0.0050
3636.00,0.0050
3635.00,0.0050
3634.00,0.0050
3633.00,0.0050
3632.00,0.0050
3631.00,0.0050
3630.00,0.0050
3629.00,0.0050
3628.00,0.0050
3627.00,0.0050
3626.00,0.0050
3625.00,0.0050
3624.00,0.0050
3623.00,0.0050
3622.00,0.0050
3621.00,0.0050
3620.00,0.0050
3619.00,0.0050
3618.00,0.0050
3617.00,0.0050
3616.00,0.0050
3615.00,0.0051
3614.00,0.0051
3613.00,0.0051
3612.00,0.0052
3611.00,0.0052
3610.00,0.0052
3609.00,0.0053
3608.00,0.0053
3607.00,0.0052
3606.00,0.0052
3605.00,0.0052
3604.00,0.0052
3603.00,0.0052
3602.00,0.0052
3601.00,0.0052
3600.00,0.0052
3599.00,0.0053
3598.00,0.0053
3597.00,0.0053
3596.00,0.0053
3595.00,0.0053
3594.00,0.0053
3593.00,0.0053
3592.00,0.0053
3591.00,0.0054
3590.00,0.0054
3589.00,0.0054
3588.00,0.0054
3587.00,0.0054
3586.00,0.0055
3585.00,0.0055
3584.00,0.0056
3583.00,0.0056
3582.00,0.0056
3581.00,0.0057
3580.00,0.0057
3579.00,0.0057
3578.00,0.0058
3577.00,0.0058
3576.00,0.0059
3575.00,0.0059
3574.00,0.0060
3573.00,0.0060
3572.00,0.0061
3571.00,0.0061
3570.00,0.0062
3569.00,0.0063
3568.00,0.0063
3567.00,0.0064
3566.00,0.0064
3565.00,0.0065
3564.00,0.0066
3563.00,0.0067
3562.00,0.0068
3561.00,0.0069
3560.00,0.0070
3559.00,0.0071
3558.00,0.0072
3557.00,0.0073
3556.00,0.0075
3555.00,0.0076
3554.00,0.0078
3553.00,0.0080
3552.00,0.0082
3551.00,0.0084
3550.00,0.0086
3549.00,0.0088
3548.00,0.0090
3547.00,0.0093
3546.00,0.0096
3545.00,0.0100
3544.00,0.0104
3543.00,0.0108
3542.00,0.0113
3541.00,0.0117
3540.00,0.0123
3539.00,0.0129
3538.00,0.0136
3537.00,0.0144
3536.00,0.0153
3535.00,0.0164
3534.00,0.0175
3533.00,0.0189
3532.00,0.0205
3531.00,0.0223
3530.00,0.0245
3529.00,0.0271
3528.00,0.0299
3527.00,0.0330
3526.00,0.0361
3525.00,0.0392
3524.00,0.0420
3523.00,0.0445
3522.00,0.0465
3521.00,0.0478
3520.00,0.0485
3519.00,0.0485
3518.00,0.0480
3517.00,0.0469
3516.00,0.0455
3515.00,0.0437
3514.00,0.0417
3513.00,0.0396
3512.00,0.0375
3511.00,0.0354
3510.00,0.0335
3509.00,0.0317
3508.00,0.0302
3507.00,0.0288
3506.00,0.0276
3505.00,0.0266
3504.00,0.0258
3503.00,0.0251
3502.00,0.0246
3501.00,0.0242
3500.00,0.0238
3499.00,0.0235
3498.00,0.0233
3497.00,0.0232
3496.00,0.0231
3495.00,0.0231
3494.00,0.0231
3493.00,0.0232
3492.00,0.0233
3491.00,0.0234
3490.00,0.0236
3489.00,0.0238
3488.00,0.0240
3487.00,0.0243
3486.00,0.0245
3485.00,0.0248
3484.00,0.0251
3483.00,0.0254
3482.00,0.0257
3481.00,0.0261
3480.00,0.0265
3479.00,0.0269
3478.00,0.0273
3477.00,0.0277
3476.00,0.0282
3475.00,0.0287
3474.00,0.0292
3473.00,0.0298
3472.00,0.0304
3471.00,0.0310
3470.00,0.0316
3469.00,0.0322
3468.00,0.0328
3467.00,0.0334
3466.00,0.0340
3465.00,0.0347
3464.00,0.0353
3463.00,0.0360
3462.00,0.0368
3461.00,0.0375
3460.00,0.0382
3459.00,0.0389
3458.00,0.0396
3457.00,0.0403
3456.00,0.0410
3455.00,0.0417
3454.00,0.0423
3453.00,0.0430
3452.00,0.0437
3451.00,0.0443
3450.00,0.0449
3449.00,0.0455
3448.00,0.0462
3447.00,0.0469
3446.00,0.0475
3445.00,0.0482
3444.00,0.0488
3443.00,0.0494
3442.00,0.0501
3441.00,0.0507
3440.00,0.0514
3439.00,0.0520
3438.00,0.0526
3437.00,0.0533
3436.00,0.0538
3435.00,0.0544
3434.00,0.0549
3433.00,0.0555
3432.00,0.0561
3431.00,0.0566
3430.00,0.0572
3429.00,0.0578
3428.00,0.0584
3427.00,0.0590
3426.00,0.0596
3425.00,0.0603
3424.00,0.0610
3423.00,0.0618
3422.00,0.0626
3421.00,0.0635
3420.00,0.0645
3419.00,0.0655
3418.00,0.0665
3417.00,0.0676
3416.00,0.0687
3415.00,0.0698
3414.00,0.0708
3413.00,0.0718
3412.00,0.0727
3411.00,0.0734
3410.00,0.0740
3409.00,0.0744
3408.00,0.0746
3407.00,0.0744
3406.00,0.0741
3405.00,0.0735
3404.00,0.0726
3403.00,0.0715
3402.00,0.0702
3401.00,0.0686
3400.00,0.0667
3399.00,0.0647
3398.00,0.0627
3397.00,0.0606
3396.00,0.0584
3395.00,0.0564
3394.00,0.0543
3393.00,0.0523
3392.00,0.0504
3391.00,0.0485
3390.00,0.0468
3389.00,0.0452
3388.00,0.0436
3387.00,0.0422
3386.00,0.0409
3385.00,0.0397
3384.00,0.0385
3383.00,0.0375
3382.00,0.0365
3381.00,0.0355
3380.00,0.0346
3379.00,0.0337
3378.00,0.0329
3377.00,0.0321
3376.00,0.0313
3375.00,0.0306
3374.00,0.0299
3373.00,0.0293
3372.00,0.0287
3371.00,0.0281
3370.00,0.0276
3369.00,0.0270
3368.00,0.0265
3367.00,0.0259
3366.00,0.0254
3365.00,0.0249
3364.00,0.0244
3363.00,0.0239
3362.00,0.0235
3361.00,0.0230
3360.00,0.0226
3359.00,0.0222
3358.00,0.0218
3357.00,0.0215
3356.00,0.0211
3355.00,0.0208
3354.00,0.0205
3353.00,0.0201
3352.00,0.0198
3351.00,0.0195
3350.00,0.0192
3349.00,0.0189
3348.00,0.0186
3347.00,0.0183
3346.00,0.0180
3345.00,0.0177
3344.00,0.0175
3343.00,0.0173
3342.00,0.0171
3341.00,0.0169
3340.00,0.0167
3339.00,0.0165
3338.00,0.0163
3337.00,0.0160
3336.00,0.0158
3335.00,0.0157
3334.00,0.0155
3333.00,0.0153
3332.00,0.0151
3331.00,0.0150
3330.00,0.0148
3329.00,0.0147
3328.00,0.0145
3327.00,0.0144
3326.00,0.0143
3325.00,0.0141
3324.00,0.0139
3323.00,0.0138
3322.00,0.0137
3321.00,0.0136
3320.00,0.0134
3319.00,0.0133
3318.00,0.0132
3317.00,0.0131
3316.00,0.0129
3315.00,0.0128
3314.00,0.0127
3313.00,0.0126
3312.00,0.0125
3311.00,0.0124
3310.00,0.0123
3309.00,0.0122
3308.00,0.0121
3307.00,0.0120
3306.00,0.0119
3305.00,0.0118
3304.00,0.0117
3303.00,0.0116
3302.00,0.0115
3301.00,0.0115
3300.00,0.0114
3299.00,0.0113
3298.00,0.0112
3297.00,0.0111
3296.00,0.0110
3295.00,0.0109
3294.00,0.0108
3293.00,0.0107
3292.00,0.0106
3291.00,0.0105
3290.00,0.0105
3289.00,0.0104
3288.00,0.0104
3287.00,0.0103
3286.00,0.0102
3285.00,0.0102
3284.00,0.0101
3283.00,0.0100
3282.00,0.0099
3281.00,0.0099
3280.00,0.0098
3279.00,0.0097
3278.00,0.0097
3277.00,0.0096
3276.00,0.0096
3275.00,0.0095
3274.00,0.0095
3273.00,0.0094
3272.00,0.0093
3271.00,0.0093
3270.00,0.0093
3269.00,0.0093
3268.00,0.0093
3267.00,0.0093
3266.00,0.0092
3265.00,0.0092
3264.00,0.0092
3263.00,0.0092
3262.00,0.0092
3261.00,0.0092
3260.00,0.0091
3259.00,0.0091
3258.00,0.0090
3257.00,0.0090
3256.00,0.0090
3255.00,0.0090
3254.00,0.0090
3253.00,0.0090
3252.00,0.0090
3251.00,0.0089
3250.00,0.0089
3249.00,0.0088
3248.00,0.0087
3247.00,0.0087
3246.00,0.0087
3245.00,0.0087
3244.00,0.0087
3243.00,0.0087
3242.00,0.0087
3241.00,0.0087
3240.00,0.0086
3239.00,0.0085
3238.00,0.0085
3237.00,0.0084
3236.00,0.0084
3235.00,0.0083
3234.00,0.0083
3233.00,0.0082
3232.00,0.0082
3231.00,0.0082
3230.00,0.0082
3229.00,0.0082
3228.00,0.0082
3227.00,0.0081
3226.00,0.0081
3225.00,0.0081
3224.00,0.0081
3223.00,0.0081
3222.00,0.0081
3221.00,0.0081
3220.00,0.0080
3219.00,0.0080
3218.00,0.0080
3217.00,0.0080
3216.00,0.0080
3215.00,0.0080
3214.00,0.0080
3213.00,0.0080
3212.00,0.0080
3211.00,0.0080
3210.00,0.0080
3209.00,0.0080
3208.00,0.0080
3207.00,0.0080
3206.00,0.0079
3205.00,0.0079
3204.00,0.0079
3203.00,0.0079
3202.00,0.0079
3201.00,0.0079
3200.00,0.0079
3199.00,0.0078
3198.00,0.0078
3197.00,0.0078
3196.00,0.0078
3195.00,0.0077
3194.00,0.0077
3193.00,0.0077
3192.00,0.0077
3191.00,0.0077
3190.00,0.0077
3189.00,0.0076
3188.00,0.0076
3187.00,0.0077
3186.00,0.0077
3185.00,0.0077
3184.00,0.0077
3183.00,0.0078
3182.00,0.0078
3181.00,0.0078
3180.00,0.0078
3179.00,0.0078
3178.00,0.0078
3177.00,0.0078
3176.00,0.0078
3175.00,0.0078
3174.00,0.0078
3173.00,0.0078
3172.00,0.0079
3171.00,0.0078
3170.00,0.0078
3169.00,0.0078
3168.00,0.0078
3167.00,0.0078
3166.00,0.0079
3165.00,0.0079
3164.00,0.0079
3163.00,0.0079
3162.00,0.0079
3161.00,0.0078
3160.00,0.0078
3159.00,0.0078
3158.00,0.0078
3157.00,0.0078
3156.00,0.0077
3155.00,0.0076
3154.00,0.0076
3153.00,0.0075
3152.00,0.0075
3151.00,0.0076
3150.00,0.0076
3149.00,0.0076
3148.00,0.0076
3147.00,0.0076
3146.00,0.0076
3145.00,0.0075
3144.00,0.0075
3143.00,0.0075
3142.00,0.0075
3141.00,0.0075
3140.00,0.0075
3139.00,0.0075
3138.00,0.0075
3137.00,0.0075
3136.00,0.0075
3135.00,0.0075
3134.00,0.0075
3133.00,0.0075
3132.00,0.0074
3131.00,0.0074
3130.00,0.0074
3129.00,0.0074
3128.00,0.0074
3127.00,0.0074
3126.00,0.0074
3125.00,0.0074
3124.00,0.0074
3123.00,0.0074
3122.00,0.0074
3121.00,0.0073
3120.00,0.0073
3119.00,0.0073
3118.00,0.0073
3117.00,0.0074
3116.00,0.0074
3115.00,0.0074
3114.00,0.0074
3113.00,0.0074
3112.00,0.0074
3111.00,0.0074
3110.00,0.0073
3109.00,0.0073
3108.00,0.0073
3107.00,0.0073
3106.00,0.0073
3105.00,0.0074
3104.00,0.0074
3103.00,0.0074
3102.00,0.0075
3101.00,0.0075
3100.00,0.0075
3099.00,0.0075
3098.00,0.0075
3097.00,0.0076
3096.00,0.0076
3095.00,0.0077
3094.00,0.0077
3093.00,0.0078
3092.00,0.0078
3091.00,0.0079
3090.00,0.0079
3089.00,0.0080
3088.00,0.0082
3087.00,0.0083
3086.00,0.0085
3085.00,0.0087
3084.00,0.0090
3083.00,0.0094
3082.00,0.0100
3081.00,0.0107
3080.00,0.0117
3079.00,0.0128
3078.00,0.0141
3077.00,0.0154
3076.00,0.0164
3075.00,0.0169
3074.00,0.0168
3073.00,0.0162
3072.00,0.0153
3071.00,0.0141
3070.00,0.0130
3069.00,0.0120
3068.00,0.0111
3067.00,0.0105
3066.00,0.0100
3065.00,0.0096
3064.00,0.0094
3063.00,0.0092
3062.00,0.0090
3061.00,0.0089
3060.00,0.0088
3059.00,0.0087
3058.00,0.0086
3057.00,0.0085
3056.00,0.0084
3055.00,0.0084
3054.00,0.0084
3053.00,0.0084
3052.00,0.0084
3051.00,0.0084
3050.00,0.0084
3049.00,0.0085
3048.00,0.0086
3047.00,0.0087
3046.00,0.0089
3045.00,0.0090
3044.00,0.0091
3043.00,0.0092
3042.00,0.0094
3041.00,0.0095
3040.00,0.0096
3039.00,0.0098
3038.00,0.0100
3037.00,0.0102
3036.00,0.0104
3035.00,0.0105
3034.00,0.0107
3033.00,0.0108
3032.00,0.0108
3031.00,0.0107
3030.00,0.0106
3029.00,0.0105
3028.00,0.0103
3027.00,0.0101
3026.00,0.0099
3025.00,0.0097
3024.00,0.0096
3023.00,0.0095
3022.00,0.0094
3021.00,0.0094
3020.00,0.0094
3019.00,0.0094
3018.00,0.0093
3017.00,0.0093
3016.00,0.0094
3015.00,0.0094
3014.00,0.0095
3013.00,0.0096
3012.00,0.0097
3011.00,0.0099
3010.00,0.0100
3009.00,0.0102
3008.00,0.0103
3007.00,0.0104
3006.00,0.0105
3005.00,0.0106
3004.00,0.0108
3003.00,0.0109
3002.00,0.0111
3001.00,0.0112
3000.00,0.0114
2999.00,0.0116
2998.00,0.0118
2997.00,0.0119
2996.00,0.0121
2995.00,0.0124
2994.00,0.0127
2993.00,0.0130
2992.00,0.0135
2991.00,0.0139
2990.00,0.0143
2989.00,0.0147
2988.00,0.0150
2987.00,0.0153
2986.00,0.0155
2985.00,0.0158
2984.00,0.0162
2983.00,0.0167
2982.00,0.0173
2981.00,0.0180
2980.00,0.0189
2979.00,0.0200
2978.00,0.0213
2977.00,0.0228
2976.00,0.0245
2975.00,0.0265
2974.00,0.0287
2973.00,0.0311
2972.00,0.0336
2971.00,0.0361
2970.00,0.0385
2969.00,0.0408
2968.00,0.0427
2967.00,0.0442
2966.00,0.0453
2965.00,0.0459
2964.00,0.0461
2963.00,0.0460
2962.00,0.0457
2961.00,0.0452
2960.00,0.0445
2959.00,0.0436
2958.00,0.0425
2957.00,0.0413
2956.00,0.0400
2955.00,0.0388
2954.00,0.0377
2953.00,0.0367
2952.00,0.0360
2951.00,0.0356
2950.00,0.0355
2949.00,0.0359
2948.00,0.0368
2947.00,0.0383
2946.00,0.0401
2945.00,0.0423
2944.00,0.0445
2943.00,0.0467
2942.00,0.0488
2941.00,0.0507
2940.00,0.0525
2939.00,0.0543
2938.00,0.0563
2937.00,0.0584
2936.00,0.0607
2935.00,0.0632
2934.00,0.0657
2933.00,0.0684
2932.00,0.0711
2931.00,0.0738
2930.00,0.0765
2929.00,0.0791
2928.00,0.0814
2927.00,0.0833
2926.00,0.0847
2925.00,0.0854
2924.00,0.0855
2923.00,0.0851
2922.00,0.0844
2921.00,0.0836
2920.00,0.0828
2919.00,0.0822
2918.00,0.0815
2917.00,0.0808
2916.00,0.0799
2915.00,0.0788
2914.00,0.0773
2913.00,0.0754
2912.00,0.0733
2911.00,0.0709
2910.00,0.0684
2909.00,0.0658
2908.00,0.0633
2907.00,0.0609
2906.00,0.0588
2905.00,0.0568
2904.00,0.0551
2903.00,0.0536
2902.00,0.0523
2901.00,0.0511
2900.00,0.0498
2899.00,0.0485
2898.00,0.0470
2897.00,0.0455
2896.00,0.0439
2895.00,0.0424
2894.00,0.0410
2893.00,0.0398
2892.00,0.0388
2891.00,0.0379
2890.00,0.0373
2889.00,0.0367
2888.00,0.0363
2887.00,0.0360
2886.00,0.0358
2885.00,0.0356
2884.00,0.0355
2883.00,0.0355
2882.00,0.0355
2881.00,0.0356
2880.00,0.0358
2879.00,0.0362
2878.00,0.0367
2877.00,0.0373
2876.00,0.0381
2875.00,0.0388
2874.00,0.0395
2873.00,0.0401
2872.00,0.0405
2871.00,0.0406
2870.00,0.0404
2869.00,0.0399
2868.00,0.0395
2867.00,0.0392
2866.00,0.0392
2865.00,0.0397
2864.00,0.0408
2863.00,0.0426
2862.00,0.0451
2861.00,0.0482
2860.00,0.0519
2859.00,0.0557
2858.00,0.0593
2857.00,0.0621
2856.00,0.0635
2855.00,0.0633
2854.00,0.0615
2853.00,0.0585
2852.00,0.0547
2851.00,0.0506
2850.00,0.0465
2849.00,0.0427
2848.00,0.0391
2847.00,0.0360
2846.00,0.0332
2845.00,0.0308
2844.00,0.0287
2843.00,0.0270
2842.00,0.0257
2841.00,0.0246
2840.00,0.0239
2839.00,0.0235
2838.00,0.0233
2837.00,0.0236
2836.00,0.0242
2835.00,0.0254
2834.00,0.0270
2833.00,0.0290
2832.00,0.0312
2831.00,0.0331
2830.00,0.0344
2829.00,0.0346
2828.00,0.0337
2827.00,0.0318
2826.00,0.0293
2825.00,0.0266
2824.00,0.0241
2823.00,0.0219
2822.00,0.0201
2821.00,0.0187
2820.00,0.0176
2819.00,0.0166
2818.00,0.0159
2817.00,0.0153
2816.00,0.0148
2815.00,0.0144
2814.00,0.0140
2813.00,0.0137
2812.00,0.0134
2811.00,0.0132
2810.00,0.0130
2809.00,0.0128
2808.00,0.0126
2807.00,0.0124
2806.00,0.0122
2805.00,0.0121
2804.00,0.0119
2803.00,0.0117
2802.00,0.0115
2801.00,0.0114
2800.00,0.0113
2799.00,0.0111
2798.00,0.0110
2797.00,0.0109
2796.00,0.0108
2795.00,0.0107
2794.00,0.0106
2793.00,0.0105
2792.00,0.0104
2791.00,0.0103
2790.00,0.0102
2789.00,0.0101
2788.00,0.0101
2787.00,0.0100
2786.00,0.0099
2785.00,0.0098
2784.00,0.0097
2783.00,0.0096
2782.00,0.0096
2781.00,0.0095
2780.00,0.0095
2779.00,0.0094
2778.00,0.0093
2777.00,0.0092
2776.00,0.0092
2775.00,0.0091
2774.00,0.0091
2773.00,0.0090
2772.00,0.0090
2771.00,0.0090
2770.00,0.0089
2769.00,0.0089
2768.00,0.0088
2767.00,0.0088
2766.00,0.0088
2765.00,0.0087
2764.00,0.0087
2763.00,0.0087
2762.00,0.0086
2761.00,0.0086
2760.00,0.0086
2759.00,0.0085
2758.00,0.0085
2757.00,0.0085
2756.00,0.0085
2755.00,0.0085
2754.00,0.0085
2753.00,0.0084
2752.00,0.0085
2751.00,0.0085
2750.00,0.0085
2749.00,0.0085
2748.00,0.0085
2747.00,0.0085
2746.00,0.0086
2745.00,0.0086
2744.00,0.0086
2743.00,0.0087
2742.00,0.0087
2741.00,0.0088
2740.00,0.0088
2739.00,0.0089
2738.00,0.0090
2737.00,0.0091
2736.00,0.0092
2735.00,0.0093
2734.00,0.0095
2733.00,0.0096
2732.00,0.0098
2731.00,0.0100
2730.00,0.0102
2729.00,0.0102
2728.00,0.0102
2727.00,0.0101
2726.00,0.0100
2725.00,0.0098
2724.00,0.0097
2723.00,0.0095
2722.00,0.0093
2721.00,0.0092
2720.00,0.0090
2719.00,0.0089
2718.00,0.0088
2717.00,0.0087
2716.00,0.0086
2715.00,0.0085
2714.00,0.0085
2713.00,0.0084
2712.00,0.0084
2711.00,0.0083
2710.00,0.0082
2709.00,0.0082
2708.00,0.0081
2707.00,0.0081
2706.00,0.0081
2705.00,0.0080
2704.00,0.0080
2703.00,0.0080
2702.00,0.0080
2701.00,0.0079
2700.00,0.0079
2699.00,0.0079
2698.00,0.0079
2697.00,0.0079
2696.00,0.0079
2695.00,0.0079
2694.00,0.0079
2693.00,0.0079
2692.00,0.0079
2691.00,0.0079
2690.00,0.0079
2689.00,0.0080
2688.00,0.0080
2687.00,0.0080
2686.00,0.0080
2685.00,0.0081
2684.00,0.0081
2683.00,0.0081
2682.00,0.0082
2681.00,0.0082
2680.00,0.0082
2679.00,0.0083
2678.00,0.0083
2677.00,0.0083
2676.00,0.0084
2675.00,0.0084
2674.00,0.0084
2673.00,0.0085
2672.00,0.0085
2671.00,0.0086
2670.00,0.0086
2669.00,0.0086
2668.00,0.0087
2667.00,0.0087
2666.00,0.0087
2665.00,0.0087
2664.00,0.0088
2663.00,0.0088
2662.00,0.0088
2661.00,0.0088
2660.00,0.0088
2659.00,0.0088
2658.00,0.0088
2657.00,0.0088
2656.00,0.0088
2655.00,0.0087
2654.00,0.0087
2653.00,0.0087
2652.00,0.0086
2651.00,0.0086
2650.00,0.0086
2649.00,0.0085
2648.00,0.0085
2647.00,0.0084
2646.00,0.0084
2645.00,0.0084
2644.00,0.0084
2643.00,0.0084
2642.00,0.0084
2641.00,0.0083
2640.00,0.0083
2639.00,0.0083
2638.00,0.0083
2637.00,0.0083
2636.00,0.0082
2635.00,0.0082
2634.00,0.0082
2633.00,0.0082
2632.00,0.0082
2631.00,0.0082
2630.00,0.0082
2629.00,0.0083
2628.00,0.0083
2627.00,0.0083
2626.00,0.0083
2625.00,0.0082
2624.00,0.0082
2623.00,0.0082
2622.00,0.0082
2621.00,0.0082
2620.00,0.0082
2619.00,0.0082
2618.00,0.0082
2617.00,0.0081
2616.00,0.0081
2615.00,0.0081
2614.00,0.0081
2613.00,0.0080
2612.00,0.0080
2611.00,0.0080
2610.00,0.0080
2609.00,0.0080
2608.00,0.0080
2607.00,0.0080
2606.00,0.0080
2605.00,0.0080
2604.00,0.0080
2603.00,0.0080
2602.00,0.0079
2601.00,0.0079
2600.00,0.0079
2599.00,0.0079
2598.00,0.0079
2597.00,0.0079
2596.00,0.0079
2595.00,0.0078
2594.00,0.0078
2593.00,0.0078
2592.00,0.0078
2591.00,0.0077
2590.00,0.0077
2589.00,0.0077
2588.00,0.0077
2587.00,0.0077
2586.00,0.0077
2585.00,0.0076
2584.00,0.0076
2583.00,0.0077
2582.00,0.0077
2581.00,0.0077
2580.00,0.0077
2579.00,0.0076
2578.00,0.0076
2577.00,0.0076
2576.00,0.0076
2575.00,0.0076
2574.00,0.0076
2573.00,0.0077
2572.00,0.0077
2571.00,0.0077
2570.00,0.0077
2569.00,0.0077
2568.00,0.0077
2567.00,0.0077
2566.00,0.0077
2565.00,0.0076
2564.00,0.0076
2563.00,0.0076
2562.00,0.0076
2561.00,0.0077
2560.00,0.0076
2559.00,0.0076
2558.00,0.0076
2557.00,0.0076
2556.00,0.0076
2555.00,0.0076
2554.00,0.0076
2553.00,0.0076
2552.00,0.0075
2551.00,0.0075
2550.00,0.0075
2549.00,0.0075
2548.00,0.0075
2547.00,0.0074
2546.00,0.0074
2545.00,0.0074
2544.00,0.0074
2543.00,0.0074
2542.00,0.0074
2541.00,0.0074
2540.00,0.0074
2539.00,0.0074
2538.00,0.0074
2537.00,0.0074
2536.00,0.0074
2535.00,0.0074
2534.00,0.0074
2533.00,0.0074
2532.00,0.0074
2531.00,0.0073
2530.00,0.0073
2529.00,0.0073
2528.00,0.0073
2527.00,0.0073
2526.00,0.0073
2525.00,0.0074
2524.00,0.0074
2523.00,0.0073
2522.00,0.0073
2521.00,0.0073
2520.00,0.0073
2519.00,0.0073
2518.00,0.0073
2517.00,0.0073
2516.00,0.0074
2515.00,0.0074
2514.00,0.0074
2513.00,0.0073
2512.00,0.0073
2511.00,0.0073
2510.00,0.0073
2509.00,0.0073
2508.00,0.0072
2507.00,0.0072
2506.00,0.0072
2505.00,0.0072
2504.00,0.0072
2503.00,0.0072
2502.00,0.0072
2501.00,0.0073
2500.00,0.0073
2499.00,0.0073
2498.00,0.0073
2497.00,0.0073
2496.00,0.0073
2495.00,0.0073
2494.00,0.0073
2493.00,0.0072
2492.00,0.0072
2491.00,0.0073
2490.00,0.0073
2489.00,0.0073
2488.00,0.0073
2487.00,0.0074
2486.00,0.0074
2485.00,0.0074
2484.00,0.0074
2483.00,0.0074
2482.00,0.0074
2481.00,0.0073
2480.00,0.0073
2479.00,0.0073
2478.00,0.0074
2477.00,0.0074
2476.00,0.0075
2475.00,0.0075
2474.00,0.0075
2473.00,0.0075
2472.00,0.0075
2471.00,0.0075
2470.00,0.0075
2469.00,0.0075
2468.00,0.0074
2467.00,0.0074
2466.00,0.0074
2465.00,0.0074
2464.00,0.0074
2463.00,0.0074
2462.00,0.0074
2461.00,0.0075
2460.00,0.0075
2459.00,0.0075
2458.00,0.0076
2457.00,0.0076
2456.00,0.0077
2455.00,0.0077
2454.00,0.0077
2453.00,0.0076
2452.00,0.0076
2451.00,0.0076
2450.00,0.0076
2449.00,0.0076
2448.00,0.0076
2447.00,0.0076
2446.00,0.0075
2445.00,0.0075
2444.00,0.0074
2443.00,0.0073
2442.00,0.0072
2441.00,0.0072
2440.00,0.0071
2439.00,0.0070
2438.00,0.0069
2437.00,0.0069
2436.00,0.0068
2435.00,0.0068
2434.00,0.0067
2433.00,0.0067
2432.00,0.0067
2431.00,0.0067
2430.00,0.0066
2429.00,0.0066
2428.00,0.0066
2427.00,0.0066
2426.00,0.0065
2425.00,0.0065
2424.00,0.0065
2423.00,0.0065
2422.00,0.0065
2421.00,0.0065
2420.00,0.0065
2419.00,0.0064
2418.00,0.0064
2417.00,0.0064
2416.00,0.0064
2415.00,0.0065
2414.00,0.0064
2413.00,0.0064
2412.00,0.0064
2411.00,0.0063
2410.00,0.0063
2409.00,0.0063
2408.00,0.0062
2407.00,0.0062
2406.00,0.0061
2405.00,0.0061
2404.00,0.0061
2403.00,0.0061
2402.00,0.0062
2401.00,0.0062
2400.00,0.0062
2399.00,0.0061
2398.00,0.0061
2397.00,0.0061
2396.00,0.0060
2395.00,0.0060
2394.00,0.0060
2393.00,0.0061
2392.00,0.0061
2391.00,0.0061
2390.00,0.0061
2389.00,0.0061
2388.00,0.0061
2387.00,0.0060
2386.00,0.0060
2385.00,0.0059
2384.00,0.0059
2383.00,0.0058
2382.00,0.0057
2381.00,0.0056
2380.00,0.0055
2379.00,0.0055
2378.00,0.0054
2377.00,0.0054
2376.00,0.0055
2375.00,0.0055
2374.00,0.0055
2373.00,0.0055
2372.00,0.0056
2371.00,0.0056
2370.00,0.0056
2369.00,0.0056
2368.00,0.0055
2367.00,0.0055
2366.00,0.0055
2365.00,0.0055
2364.00,0.0055
2363.00,0.0055
2362.00,0.0055
2361.00,0.0055
2360.00,0.0055
2359.00,0.0055
2358.00,0.0055
2357.00,0.0055
2356.00,0.0056
2355.00,0.0056
2354.00,0.0056
2353.00,0.0056
2352.00,0.0055
2351.00,0.0055
2350.00,0.0055
2349.00,0.0056
2348.00,0.0057
2347.00,0.0057
2346.00,0.0058
2345.00,0.0057
2344.00,0.0057
2343.00,0.0056
2342.00,0.0056
2341.00,0.0057
2340.00,0.0058
2339.00,0.0059
2338.00,0.0059
2337.00,0.0059
2336.00,0.0059
2335.00,0.0059
2334.00,0.0059
2333.00,0.0059
2332.00,0.0059
2331.00,0.0058
2330.00,0.0059
2329.00,0.0061
2328.00,0.0064
2327.00,0.0068
2326.00,0.0071
2325.00,0.0072
2324.00,0.0071
2323.00,0.0069
2322.00,0.0066
2321.00,0.0064
2320.00,0.0063
2319.00,0.0062
2318.00,0.0062
2317.00,0.0062
2316.00,0.0062
2315.00,0.0062
2314.00,0.0061
2313.00,0.0060
2312.00,0.0060
2311.00,0.0059
2310.00,0.0059
2309.00,0.0058
2308.00,0.0059
2307.00,0.0059
2306.00,0.0059
2305.00,0.0060
2304.00,0.0060
2303.00,0.0060
2302.00,0.0060
2301.00,0.0060
2300.00,0.0061
2299.00,0.0061
2298.00,0.0062
2297.00,0.0062
2296.00,0.0063
2295.00,0.0064
2294.00,0.0064
2293.00,0.0065
2292.00,0.0066
2291.00,0.0067
2290.00,0.0069
2289.00,0.0069
2288.00,0.0070
2287.00,0.0070
2286.00,0.0070
2285.00,0.0070
2284.00,0.0069
2283.00,0.0068
2282.00,0.0067
2281.00,0.0067
2280.00,0.0066
2279.00,0.0066
2278.00,0.0065
2277.00,0.0065
2276.00,0.0064
2275.00,0.0064
2274.00,0.0063
2273.00,0.0063
2272.00,0.0063
2271.00,0.0063
2270.00,0.0063
2269.00,0.0062
2268.00,0.0061
2267.00,0.0060
2266.00,0.0060
2265.00,0.0060
2264.00,0.0060
2263.00,0.0061
2262.00,0.0062
2261.00,0.0063
2260.00,0.0064
2259.00,0.0064
2258.00,0.0063
2257.00,0.0062
2256.00,0.0061
2255.00,0.0060
2254.00,0.0060
2253.00,0.0061
2252.00,0.0062
2251.00,0.0062
2250.00,0.0063
2249.00,0.0063
2248.00,0.0063
2247.00,0.0062
2246.00,0.0062
2245.00,0.0061
2244.00,0.0061
2243.00,0.0061
2242.00,0.0061
2241.00,0.0061
2240.00,0.0061
2239.00,0.0062
2238.00,0.0062
2237.00,0.0062
2236.00,0.0062
2235.00,0.0062
2234.00,0.0061
2233.00,0.0061
2232.00,0.0060
2231.00,0.0060
2230.00,0.0060
2229.00,0.0061
2228.00,0.0061
2227.00,0.0062
2226.00,0.0061
2225.00,0.0060
2224.00,0.0059
2223.00,0.0059
2222.00,0.0059
2221.00,0.0059
2220.00,0.0059
2219.00,0.0059
2218.00,0.0059
2217.00,0.0059
2216.00,0.0060
2215.00,0.0060
2214.00,0.0059
2213.00,0.0058
2212.00,0.0057
2211.00,0.0057
2210.00,0.0057
2209.00,0.0057
2208.00,0.0058
2207.00,0.0058
2206.00,0.0059
2205.00,0.0060
2204.00,0.0061
2203.00,0.0061
2202.00,0.0060
2201.00,0.0060
2200.00,0.0059
2199.00,0.0059
2198.00,0.0058
2197.00,0.0059
2196.00,0.0059
2195.00,0.0059
2194.00,0.0059
2193.00,0.0059
2192.00,0.0059
2191.00,0.0060
2190.00,0.0060
2189.00,0.0060
2188.00,0.0061
2187.00,0.0062
2186.00,0.0062
2185.00,0.0061
2184.00,0.0058
2183.00,0.0056
2182.00,0.0054
2181.00,0.0055
2180.00,0.0056
2179.00,0.0056
2178.00,0.0054
2177.00,0.0052
2176.00,0.0050
2175.00,0.0050
2174.00,0.0052
2173.00,0.0055
2172.00,0.0059
2171.00,0.0062
2170.00,0.0064
2169.00,0.0065
2168.00,0.0066
2167.00,0.0067
2166.00,0.0068
2165.00,0.0070
2164.00,0.0072
2163.00,0.0071
2162.00,0.0066
2161.00,0.0054
2160.00,0.0039
2159.00,0.0026
2158.00,0.0020
2157.00,0.0021
2156.00,0.0024
2155.00,0.0026
2154.00,0.0028
2153.00,0.0030
2152.00,0.0032
2151.00,0.0034
2150.00,0.0036
2149.00,0.0037
2148.00,0.0037
2147.00,0.0036
2146.00,0.0035
2145.00,0.0035
2144.00,0.0035
2143.00,0.0035
2142.00,0.0035
2141.00,0.0036
2140.00,0.0037
2139.00,0.0037
2138.00,0.0036
2137.00,0.0034
2136.00,0.0032
2135.00,0.0031
2134.00,0.0031
2133.00,0.0033
2132.00,0.0035
2131.00,0.0037
2130.00,0.0039
2129.00,0.0040
2128.00,0.0041
2127.00,0.0041
2126.00,0.0042
2125.00,0.0043
2124.00,0.0044
2123.00,0.0046
2122.00,0.0046
2121.00,0.0047
2120.00,0.0048
2119.00,0.0048
2118.00,0.0049
2117.00,0.0050
2116.00,0.0051
2115.00,0.0052
2114.00,0.0052
2113.00,0.0052
2112.00,0.0052
2111.00,0.0052
2110.00,0.0051
2109.00,0.0051
2108.00,0.0050
2107.00,0.0050
2106.00,0.0049
2105.00,0.0049
2104.00,0.0050
2103.00,0.0050
2102.00,0.0050
2101.00,0.0050
2100.00,0.0051
2099.00,0.0051
2098.00,0.0050
2097.00,0.0049
2096.00,0.0047
2095.00,0.0046
2094.00,0.0046
2093.00,0.0046
2092.00,0.0047
2091.00,0.0048
2090.00,0.0049
2089.00,0.0050
2088.00,0.0052
2087.00,0.0053
2086.00,0.0053
2085.00,0.0054
2084.00,0.0054
2083.00,0.0054
2082.00,0.0055
2081.00,0.0055
2080.00,0.0054
2079.00,0.0054
2078.00,0.0052
2077.00,0.0052
2076.00,0.0051
2075.00,0.0050
2074.00,0.0050
2073.00,0.0050
2072.00,0.0051
2071.00,0.0051
2070.00,0.0051
2069.00,0.0051
2068.00,0.0050
2067.00,0.0049
2066.00,0.0048
2065.00,0.0047
2064.00,0.0047
2063.00,0.0046
2062.00,0.0045
2061.00,0.0045
2060.00,0.0046
2059.00,0.0048
2058.00,0.0049
2057.00,0.0049
2056.00,0.0050
2055.00,0.0050
2054.00,0.0053
2053.00,0.0057
2052.00,0.0060
2051.00,0.0060
2050.00,0.0056
2049.00,0.0051
2048.00,0.0047
2047.00,0.0045
2046.00,0.0043
2045.00,0.0043
2044.00,0.0043
2043.00,0.0044
2042.00,0.0044
2041.00,0.0044
2040.00,0.0044
2039.00,0.0044
2038.00,0.0043
2037.00,0.0043
2036.00,0.0042
2035.00,0.0041
2034.00,0.0039
2033.00,0.0038
2032.00,0.0038
2031.00,0.0038
2030.00,0.0038
2029.00,0.0038
2028.00,0.0038
2027.00,0.0038
2026.00,0.0037
2025.00,0.0037
2024.00,0.0037
2023.00,0.0037
2022.00,0.0038
2021.00,0.0039
2020.00,0.0041
2019.00,0.0042
2018.00,0.0043
2017.00,0.0043
2016.00,0.0044
2015.00,0.0043
2014.00,0.0042
2013.00,0.0041
2012.00,0.0040
2011.00,0.0040
2010.00,0.0039
2009.00,0.0038
2008.00,0.0037
2007.00,0.0035
2006.00,0.0034
2005.00,0.0034
2004.00,0.0034
2003.00,0.0035
2002.00,0.0035
2001.00,0.0035
2000.00,0.0036
1999.00,0.0037
1998.00,0.0038
1997.00,0.0039
1996.00,0.0042
1995.00,0.0044
1994.00,0.0045
1993.00,0.0046
1992.00,0.0046
1991.00,0.0046
1990.00,0.0046
1989.00,0.0047
1988.00,0.0049
1987.00,0.0050
1986.00,0.0050
1985.00,0.0052
1984.00,0.0056
1983.00,0.0060
1982.00,0.0063
1981.00,0.0063
1980.00,0.0059
1979.00,0.0051
1978.00,0.0042
1977.00,0.0036
1976.00,0.0036
1975.00,0.0037
1974.00,0.0038
1973.00,0.0039
1972.00,0.0040
1971.00,0.0039
1970.00,0.0038
1969.00,0.0037
1968.00,0.0037
1967.00,0.0036
1966.00,0.0036
1965.00,0.0036
1964.00,0.0036
1963.00,0.0034
1962.00,0.0033
1961.00,0.0032
1960.00,0.0033
1959.00,0.0034
1958.00,0.0035
1957.00,0.0035
1956.00,0.0036
1955.00,0.0036
1954.00,0.0035
1953.00,0.0035
1952.00,0.0036
1951.00,0.0036
1950.00,0.0037
1949.00,0.0038
1948.00,0.0039
1947.00,0.0039
1946.00,0.0039
1945.00,0.0039
1944.00,0.0039
1943.00,0.0039
1942.00,0.0039
1941.00,0.0038
1940.00,0.0038
1939.00,0.0039
1938.00,0.0040
1937.00,0.0041
1936.00,0.0041
1935.00,0.0041
1934.00,0.0041
1933.00,0.0040
1932.00,0.0040
1931.00,0.0040
1930.00,0.0039
1929.00,0.0040
1928.00,0.0041
1927.00,0.0041
1926.00,0.0042
1925.00,0.0042
1924.00,0.0043
1923.00,0.0044
1922.00,0.0044
1921.00,0.0044
1920.00,0.0043
1919.00,0.0043
1918.00,0.0043
1917.00,0.0043
1916.00,0.0044
1915.00,0.0045
1914.00,0.0045
1913.00,0.0045
1912.00,0.0046
1911.00,0.0046
1910.00,0.0046
1909.00,0.0046
1908.00,0.0047
1907.00,0.0047
1906.00,0.0048
1905.00,0.0048
1904.00,0.0048
1903.00,0.0047
1902.00,0.0047
1901.00,0.0047
1900.00,0.0048
1899.00,0.0048
1898.00,0.0047
1897.00,0.0047
1896.00,0.0047
1895.00,0.0047
1894.00,0.0048
1893.00,0.0048
1892.00,0.0048
1891.00,0.0049
1890.00,0.0048
1889.00,0.0048
1888.00,0.0048
1887.00,0.0048
1886.00,0.0048
1885.00,0.0049
1884.00,0.0049
1883.00,0.0049
1882.00,0.0049
1881.00,0.0049
1880.00,0.0048
1879.00,0.0048
1878.00,0.0048
1877.00,0.0049
1876.00,0.0050
1875.00,0.0050
1874.00,0.0050
1873.00,0.0051
1872.00,0.0050
1871.00,0.0050
1870.00,0.0050
1869.00,0.0049
1868.00,0.0049
1867.00,0.0049
1866.00,0.0049
1865.00,0.0049
1864.00,0.0049
1863.00,0.0049
1862.00,0.0049
1861.00,0.0049
1860.00,0.0050
1859.00,0.0050
1858.00,0.0050
1857.00,0.0050
1856.00,0.0050
1855.00,0.0050
1854.00,0.0050
1853.00,0.0050
1852.00,0.0050
1851.00,0.0050
1850.00,0.0050
1849.00,0.0050
1848.00,0.0050
1847.00,0.0050
1846.00,0.0050
1845.00,0.0050
1844.00,0.0050
1843.00,0.0050
1842.00,0.0050
1841.00,0.0051
1840.00,0.0051
1839.00,0.0052
1838.00,0.0051
1837.00,0.0051
1836.00,0.0051
1835.00,0.0051
1834.00,0.0051
1833.00,0.0051
1832.00,0.0052
1831.00,0.0052
1830.00,0.0052
1829.00,0.0052
1828.00,0.0053
1827.00,0.0053
1826.00,0.0053
1825.00,0.0053
1824.00,0.0054
1823.00,0.0054
1822.00,0.0054
1821.00,0.0054
1820.00,0.0054
1819.00,0.0053
1818.00,0.0052
1817.00,0.0052
1816.00,0.0052
1815.00,0.0053
1814.00,0.0054
1813.00,0.0055
1812.00,0.0056
1811.00,0.0057
1810.00,0.0058
1809.00,0.0059
1808.00,0.0061
1807.00,0.0062
1806.00,0.0063
1805.00,0.0064
1804.00,0.0064
1803.00,0.0065
1802.00,0.0065
1801.00,0.0065
1800.00,0.0065
1799.00,0.0064
1798.00,0.0064
1797.00,0.0064
1796.00,0.0063
1795.00,0.0062
1794.00,0.0061
1793.00,0.0060
1792.00,0.0060
1791.00,0.0060
1790.00,0.0060
1789.00,0.0060
1788.00,0.0060
1787.00,0.0060
1786.00,0.0060
1785.00,0.0060
1784.00,0.0061
1783.00,0.0061
1782.00,0.0061
1781.00,0.0062
1780.00,0.0062
1779.00,0.0063
1778.00,0.0063
1777.00,0.0064
1776.00,0.0066
1775.00,0.0067
1774.00,0.0068
1773.00,0.0069
1772.00,0.0070
1771.00,0.0070
1770.00,0.0069
1769.00,0.0068
1768.00,0.0067
1767.00,0.0066
1766.00,0.0065
1765.00,0.0064
1764.00,0.0063
1763.00,0.0063
1762.00,0.0062
1761.00,0.0061
1760.00,0.0061
1759.00,0.0061
1758.00,0.0061
1757.00,0.0061
1756.00,0.0061
1755.00,0.0060
1754.00,0.0060
1753.00,0.0060
1752.00,0.0060
1751.00,0.0060
1750.00,0.0060
1749.00,0.0060
1748.00,0.0060
1747.00,0.0060
1746.00,0.0060
1745.00,0.0060
1744.00,0.0061
1743.00,0.0061
1742.00,0.0061
1741.00,0.0061
1740.00,0.0062
1739.00,0.0062
1738.00,0.0062
1737.00,0.0062
1736.00,0.0062
1735.00,0.0062
1734.00,0.0062
1733.00,0.0062
1732.00,0.0063
1731.00,0.0063
1730.00,0.0064
1729.00,0.0064
1728.00,0.0065
1727.00,0.0065
1726.00,0.0065
1725.00,0.0066
1724.00,0.0066
1723.00,0.0067
1722.00,0.0067
1721.00,0.0067
1720.00,0.0067
1719.00,0.0067
1718.00,0.0067
1717.00,0.0068
1716.00,0.0069
1715.00,0.0070
1714.00,0.0070
1713.00,0.0071
1712.00,0.0071
1711.00,0.0072
1710.00,0.0072
1709.00,0.0073
1708.00,0.0074
1707.00,0.0075
1706.00,0.0075
1705.00,0.0076
1704.00,0.0077
1703.00,0.0077
1702.00,0.0077
1701.00,0.0077
1700.00,0.0078
1699.00,0.0079
1698.00,0.0079
1697.00,0.0080
1696.00,0.0080
1695.00,0.0081
1694.00,0.0080
1693.00,0.0080
1692.00,0.0080
1691.00,0.0080
1690.00,0.0080
1689.00,0.0080
1688.00,0.0081
1687.00,0.0081
1686.00,0.0081
1685.00,0.0081
1684.00,0.0081
1683.00,0.0081
1682.00,0.0081
1681.00,0.0082
1680.00,0.0084
1679.00,0.0085
1678.00,0.0086
1677.00,0.0087
1676.00,0.0089
1675.00,0.0092
1674.00,0.0094
1673.00,0.0096
1672.00,0.0099
1671.00,0.0103
1670.00,0.0106
1669.00,0.0111
1668.00,0.0116
1667.00,0.0120
1666.00,0.0123
1665.00,0.0127
1664.00,0.0130
1663.00,0.0134
1662.00,0.0136
1661.00,0.0136
1660.00,0.0136
1659.00,0.0136
1658.00,0.0135
1657.00,0.0135
1656.00,0.0136
1655.00,0.0139
1654.00,0.0145
1653.00,0.0157
1652.00,0.0171
1651.00,0.0183
1650.00,0.0195
1649.00,0.0213
1648.00,0.0248
1647.00,0.0302
1646.00,0.0364
1645.00,0.0411
1644.00,0.0436
1643.00,0.0441
1642.00,0.0430
1641.00,0.0412
1640.00,0.0396
1639.00,0.0388
1638.00,0.0392
1637.00,0.0415
1636.00,0.0465
1635.00,0.0528
1634.00,0.0582
1633.00,0.0621
1632.00,0.0651
1631.00,0.0676
1630.00,0.0696
1629.00,0.0715
1628.00,0.0739
1627.00,0.0768
1626.00,0.0801
1625.00,0.0836
1624.00,0.0868
1623.00,0.0883
1622.00,0.0868
1621.00,0.0826
1620.00,0.0769
1619.00,0.0704
1618.00,0.0628
1617.00,0.0546
1616.00,0.0473
1615.00,0.0419
1614.00,0.0382
1613.00,0.0353
1612.00,0.0327
1611.00,0.0304
1610.00,0.0283
1609.00,0.0266
1608.00,0.0251
1607.00,0.0240
1606.00,0.0231
1605.00,0.0224
1604.00,0.0220
1603.00,0.0217
1602.00,0.0217
1601.00,0.0219
1600.00,0.0223
1599.00,0.0229
1598.00,0.0238
1597.00,0.0251
1596.00,0.0268
1595.00,0.0291
1594.00,0.0321
1593.00,0.0361
1592.00,0.0412
1591.00,0.0475
1590.00,0.0550
1589.00,0.0632
1588.00,0.0718
1587.00,0.0800
1586.00,0.0875
1585.00,0.0942
1584.00,0.1000
1583.00,0.1045
1582.00,0.1068
1581.00,0.1066
1580.00,0.1040
1579.00,0.0995
1578.00,0.0929
1577.00,0.0841
1576.00,0.0743
1575.00,0.0657
1574.00,0.0593
1573.00,0.0544
1572.00,0.0499
1571.00,0.0454
1570.00,0.0406
1569.00,0.0361
1568.00,0.0325
1567.00,0.0298
1566.00,0.0274
1565.00,0.0252
1564.00,0.0233
1563.00,0.0219
1562.00,0.0207
1561.00,0.0198
1560.00,0.0188
1559.00,0.0177
1558.00,0.0168
1557.00,0.0163
1556.00,0.0160
1555.00,0.0156
1554.00,0.0153
1553.00,0.0150
1552.00,0.0147
1551.00,0.0143
1550.00,0.0140
1549.00,0.0137
1548.00,0.0134
1547.00,0.0132
1546.00,0.0130
1545.00,0.0129
1544.00,0.0126
1543.00,0.0124
1542.00,0.0123
1541.00,0.0122
1540.00,0.0122
1539.00,0.0122
1538.00,0.0122
1537.00,0.0123
1536.00,0.0123
1535.00,0.0123
1534.00,0.0123
1533.00,0.0124
1532.00,0.0124
1531.00,0.0125
1530.00,0.0126
1529.00,0.0127
1528.00,0.0129
1527.00,0.0132
1526.00,0.0135
1525.00,0.0140
1524.00,0.0145
1523.00,0.0153
1522.00,0.0167
1521.00,0.0187
1520.00,0.0207
1519.00,0.0225
1518.00,0.0243
1517.00,0.0262
1516.00,0.0279
1515.00,0.0289
1514.00,0.0291
1513.00,0.0286
1512.00,0.0276
1511.00,0.0262
1510.00,0.0248
1509.00,0.0234
1508.00,0.0221
1507.00,0.0206
1506.00,0.0194
1505.00,0.0187
1504.00,0.0183
1503.00,0.0180
1502.00,0.0177
1501.00,0.0174
1500.00,0.0170
1499.00,0.0165
1498.00,0.0159
1497.00,0.0154
1496.00,0.0148
1495.00,0.0143
1494.00,0.0139
1493.00,0.0136
1492.00,0.0133
1491.00,0.0130
1490.00,0.0127
1489.00,0.0124
1488.00,0.0122
1487.00,0.0120
1486.00,0.0119
1485.00,0.0119
1484.00,0.0120
1483.00,0.0120
1482.00,0.0121
1481.00,0.0123
1480.00,0.0125
1479.00,0.0127
1478.00,0.0130
1477.00,0.0135
1476.00,0.0140
1475.00,0.0146
1474.00,0.0155
1473.00,0.0171
1472.00,0.0195
1471.00,0.0223
1470.00,0.0254
1469.00,0.0289
1468.00,0.0323
1467.00,0.0352
1466.00,0.0374
1465.00,0.0391
1464.00,0.0405
1463.00,0.0418
1462.00,0.0431
1461.00,0.0444
1460.00,0.0455
1459.00,0.0465
1458.00,0.0480
1457.00,0.0504
1456.00,0.0534
1455.00,0.0564
1454.00,0.0599
1453.00,0.0645
1452.00,0.0704
1451.00,0.0770
1450.00,0.0846
1449.00,0.0934
1448.00,0.1031
1447.00,0.1123
1446.00,0.1196
1445.00,0.1250
1444.00,0.1283
1443.00,0.1296
1442.00,0.1295
1441.00,0.1284
1440.00,0.1267
1439.00,0.1243
1438.00,0.1215
1437.00,0.1180
1436.00,0.1139
1435.00,0.1095
1434.00,0.1052
1433.00,0.1010
1432.00,0.0963
1431.00,0.0906
1430.00,0.0839
1429.00,0.0762
1428.00,0.0682
1427.00,0.0604
1426.00,0.0533
1425.00,0.0467
1424.00,0.0409
1423.00,0.0363
1422.00,0.0330
1421.00,0.0303
1420.00,0.0279
1419.00,0.0257
1418.00,0.0240
1417.00,0.0226
1416.00,0.0215
1415.00,0.0207
1414.00,0.0200
1413.00,0.0193
1412.00,0.0187
1411.00,0.0182
1410.00,0.0178
1409.00,0.0174
1408.00,0.0171
1407.00,0.0169
1406.00,0.0167
1405.00,0.0165
1404.00,0.0163
1403.00,0.0162
1402.00,0.0161
1401.00,0.0159
1400.00,0.0158
1399.00,0.0157
1398.00,0.0157
1397.00,0.0156
1396.00,0.0154
1395.00,0.0153
1394.00,0.0152
1393.00,0.0151
1392.00,0.0150
1391.00,0.0150
1390.00,0.0151
1389.00,0.0153
1388.00,0.0157
1387.00,0.0163
1386.00,0.0172
1385.00,0.0183
1384.00,0.0197
1383.00,0.0218
1382.00,0.0246
1381.00,0.0283
1380.00,0.0330
1379.00,0.0387
1378.00,0.0448
1377.00,0.0505
1376.00,0.0547
1375.00,0.0568
1374.00,0.0562
1373.00,0.0536
1372.00,0.0502
1371.00,0.0467
1370.00,0.0435
1369.00,0.0405
1368.00,0.0380
1367.00,0.0358
1366.00,0.0340
1365.00,0.0322
1364.00,0.0305
1363.00,0.0289
1362.00,0.0276
1361.00,0.0265
1360.00,0.0258
1359.00,0.0253
1358.00,0.0249
1357.00,0.0247
1356.00,0.0246
1355.00,0.0247
1354.00,0.0248
1353.00,0.0250
1352.00,0.0251
1351.00,0.0254
1350.00,0.0258
1349.00,0.0263
1348.00,0.0269
1347.00,0.0277
1346.00,0.0286
1345.00,0.0295
1344.00,0.0303
1343.00,0.0309
1342.00,0.0312
1341.00,0.0312
1340.00,0.0306
1339.00,0.0296
1338.00,0.0286
1337.00,0.0276
1336.00,0.0271
1335.00,0.0270
1334.00,0.0274
1333.00,0.0282
1332.00,0.0292
1331.00,0.0304
1330.00,0.0317
1329.00,0.0329
1328.00,0.0340
1327.00,0.0352
1326.00,0.0364
1325.00,0.0374
1324.00,0.0380
1323.00,0.0379
1322.00,0.0371
1321.00,0.0358
1320.00,0.0346
1319.00,0.0340
1318.00,0.0344
1317.00,0.0361
1316.00,0.0390
1315.00,0.0429
1314.00,0.0473
1313.00,0.0513
1312.00,0.0542
1311.00,0.0555
1310.00,0.0552
1309.00,0.0540
1308.00,0.0525
1307.00,0.0516
1306.00,0.0515
1305.00,0.0523
1304.00,0.0537
1303.00,0.0550
1302.00,0.0560
1301.00,0.0565
1300.00,0.0563
1299.00,0.0557
1298.00,0.0548
1297.00,0.0536
1296.00,0.0522
1295.00,0.0506
1294.00,0.0490
1293.00,0.0474
1292.00,0.0458
1291.00,0.0444
1290.00,0.0433
1289.00,0.0425
1288.00,0.0425
1287.00,0.0431
1286.00,0.0445
1285.00,0.0465
1284.00,0.0488
1283.00,0.0512
1282.00,0.0534
1281.00,0.0553
1280.00,0.0566
1279.00,0.0574
1278.00,0.0574
1277.00,0.0568
1276.00,0.0554
1275.00,0.0535
1274.00,0.0510
1273.00,0.0481
1272.00,0.0448
1271.00,0.0413
1270.00,0.0378
1269.00,0.0345
1268.00,0.0316
1267.00,0.0290
1266.00,0.0270
1265.00,0.0252
1264.00,0.0238
1263.00,0.0226
1262.00,0.0217
1261.00,0.0209
1260.00,0.0202
1259.00,0.0197
1258.00,0.0194
1257.00,0.0192
1256.00,0.0191
1255.00,0.0193
1254.00,0.0198
1253.00,0.0205
1252.00,0.0216
1251.00,0.0231
1250.00,0.0246
1249.00,0.0260
1248.00,0.0270
1247.00,0.0278
1246.00,0.0287
1245.00,0.0301
1244.00,0.0324
1243.00,0.0359
1242.00,0.0407
1241.00,0.0464
1240.00,0.0528
1239.00,0.0589
1238.00,0.0640
1237.00,0.0674
1236.00,0.0688
1235.00,0.0687
1234.00,0.0675
1233.00,0.0656
1232.00,0.0631
1231.00,0.0606
1230.00,0.0589
1229.00,0.0587
1228.00,0.0604
1227.00,0.0639
1226.00,0.0688
1225.00,0.0744
1224.00,0.0804
1223.00,0.0867
1222.00,0.0935
1221.00,0.1015
1220.00,0.1111
1219.00,0.1222
1218.00,0.1342
1217.00,0.1458
1216.00,0.1554
1215.00,0.1614
1214.00,0.1629
1213.00,0.1601
1212.00,0.1536
1211.00,0.1447
1210.00,0.1348
1209.00,0.1248
1208.00,0.1157
1207.00,0.1075
1206.00,0.1003
1205.00,0.0935
1204.00,0.0868
1203.00,0.0801
1202.00,0.0732
1201.00,0.0666
1200.00,0.0604
1199.00,0.0549
1198.00,0.0503
1197.00,0.0465
1196.00,0.0435
1195.00,0.0413
1194.00,0.0399
1193.00,0.0391
1192.00,0.0390
1191.00,0.0394
1190.00,0.0401
1189.00,0.0410
1188.00,0.0420
1187.00,0.0432
1186.00,0.0444
1185.00,0.0457
1184.00,0.0470
1183.00,0.0482
1182.00,0.0491
1181.00,0.0499
1180.00,0.0505
1179.00,0.0511
1178.00,0.0517
1177.00,0.0522
1176.00,0.0528
1175.00,0.0541
1174.00,0.0562
1173.00,0.0586
1172.00,0.0598
1171.00,0.0585
1170.00,0.0546
1169.00,0.0490
1168.00,0.0431
1167.00,0.0380
1166.00,0.0339
1165.00,0.0307
1164.00,0.0283
1163.00,0.0265
1162.00,0.0253
1161.00,0.0245
1160.00,0.0242
1159.00,0.0243
1158.00,0.0249
1157.00,0.0263
1156.00,0.0288
1155.00,0.0330
1154.00,0.0392
1153.00,0.0471
1152.00,0.0553
1151.00,0.0612
1150.00,0.0625
1149.00,0.0586
1148.00,0.0511
1147.00,0.0428
1146.00,0.0355
1145.00,0.0302
1144.00,0.0266
1143.00,0.0242
1142.00,0.0227
1141.00,0.0219
1140.00,0.0216
1139.00,0.0218
1138.00,0.0223
1137.00,0.0230
1136.00,0.0236
1135.00,0.0240
1134.00,0.0239
1133.00,0.0233
1132.00,0.0223
1131.00,0.0211
1130.00,0.0198
1129.00,0.0187
1128.00,0.0178
1127.00,0.0170
1126.00,0.0164
1125.00,0.0159
1124.00,0.0155
1123.00,0.0153
1122.00,0.0151
1121.00,0.0151
1120.00,0.0150
1119.00,0.0151
1118.00,0.0152
1117.00,0.0154
1116.00,0.0157
1115.00,0.0160
1114.00,0.0163
1113.00,0.0167
1112.00,0.0170
1111.00,0.0174
1110.00,0.0180
1109.00,0.0186
1108.00,0.0194
1107.00,0.0203
1106.00,0.0214
1105.00,0.0225
1104.00,0.0238
1103.00,0.0253
1102.00,0.0269
1101.00,0.0287
1100.00,0.0303
1099.00,0.0312
1098.00,0.0310
1097.00,0.0298
1096.00,0.0278
1095.00,0.0257
1094.00,0.0239
1093.00,0.0225
1092.00,0.0215
1091.00,0.0207
1090.00,0.0200
1089.00,0.0195
1088.00,0.0193
1087.00,0.0194
1086.00,0.0200
1085.00,0.0210
1084.00,0.0226
1083.00,0.0247
1082.00,0.0271
1081.00,0.0294
1080.00,0.0310
1079.00,0.0315
1078.00,0.0308
1077.00,0.0292
1076.00,0.0272
1075.00,0.0253
1074.00,0.0237
1073.00,0.0225
1072.00,0.0215
1071.00,0.0207
1070.00,0.0202
1069.00,0.0198
1068.00,0.0195
1067.00,0.0194
1066.00,0.0194
1065.00,0.0196
1064.00,0.0200
1063.00,0.0207
1062.00,0.0216
1061.00,0.0228
1060.00,0.0246
1059.00,0.0272
1058.00,0.0311
1057.00,0.0366
1056.00,0.0437
1055.00,0.0519
1054.00,0.0600
1053.00,0.0663
1052.00,0.0702
1051.00,0.0714
1050.00,0.0702
1049.00,0.0666
1048.00,0.0611
1047.00,0.0547
1046.00,0.0487
1045.00,0.0440
1044.00,0.0411
1043.00,0.0397
1042.00,0.0396
1041.00,0.0404
1040.00,0.0418
1039.00,0.0439
1038.00,0.0470
1037.00,0.0515
1036.00,0.0576
1035.00,0.0649
1034.00,0.0725
1033.00,0.0788
1032.00,0.0824
1031.00,0.0825
1030.00,0.0795
1029.00,0.0749
1028.00,0.0700
1027.00,0.0663
1026.00,0.0646
1025.00,0.0654
1024.00,0.0688
1023.00,0.0749
1022.00,0.0828
1021.00,0.0914
1020.00,0.0987
1019.00,0.1026
1018.00,0.1022
1017.00,0.0980
1016.00,0.0914
1015.00,0.0840
1014.00,0.0767
1013.00,0.0701
1012.00,0.0646
1011.00,0.0606
1010.00,0.0582
1009.00,0.0573
1008.00,0.0576
1007.00,0.0589
1006.00,0.0613
1005.00,0.0644
1004.00,0.0676
1003.00,0.0700
1002.00,0.0709
1001.00,0.0699
1000.00,0.0669
999.00,0.0621
998.00,0.0563
997.00,0.0503
996.00,0.0451
995.00,0.0410
994.00,0.0381
993.00,0.0362
992.00,0.0354
991.00,0.0354
990.00,0.0362
989.00,0.0375
988.00,0.0389
987.00,0.0402
986.00,0.0411
985.00,0.0415
984.00,0.0410
983.00,0.0395
982.00,0.0373
981.00,0.0350
980.00,0.0331
979.00,0.0317
978.00,0.0309
977.00,0.0303
976.00,0.0297
975.00,0.0290
974.00,0.0285
973.00,0.0283
972.00,0.0285
971.00,0.0291
970.00,0.0302
969.00,0.0316
968.00,0.0333
967.00,0.0351
966.00,0.0371
965.00,0.0395
964.00,0.0422
963.00,0.0450
962.00,0.0471
961.00,0.0478
960.00,0.0466
959.00,0.0438
958.00,0.0400
957.00,0.0359
956.00,0.0322
955.00,0.0291
954.00,0.0266
953.00,0.0247
952.00,0.0233
951.00,0.0223
950.00,0.0215
949.00,0.0208
948.00,0.0203
947.00,0.0198
946.00,0.0195
945.00,0.0192
944.00,0.0189
943.00,0.0186
942.00,0.0184
941.00,0.0182
940.00,0.0180
939.00,0.0179
938.00,0.0178
937.00,0.0178
936.00,0.0178
935.00,0.0179
934.00,0.0182
933.00,0.0186
932.00,0.0191
931.00,0.0196
930.00,0.0201
929.00,0.0205
928.00,0.0206
927.00,0.0206
926.00,0.0205
925.00,0.0205
924.00,0.0204
923.00,0.0204
922.00,0.0205
921.00,0.0206
920.00,0.0211
919.00,0.0218
918.00,0.0228
917.00,0.0239
916.00,0.0248
915.00,0.0253
914.00,0.0254
913.00,0.0252
912.00,0.0249
911.00,0.0249
910.00,0.0254
909.00,0.0265
908.00,0.0282
907.00,0.0306
906.00,0.0337
905.00,0.0373
904.00,0.0414
903.00,0.0461
902.00,0.0519
901.00,0.0593
900.00,0.0687
899.00,0.0796
898.00,0.0903
897.00,0.0984
896.00,0.1015
895.00,0.0990
894.00,0.0923
893.00,0.0837
892.00,0.0753
891.00,0.0685
890.00,0.0644
889.00,0.0637
888.00,0.0670
887.00,0.0748
886.00,0.0864
885.00,0.0995
884.00,0.1103
883.00,0.1145
882.00,0.1104
881.00,0.0997
880.00,0.0863
879.00,0.0734
878.00,0.0629
877.00,0.0553
876.00,0.0502
875.00,0.0473
874.00,0.0461
873.00,0.0466
872.00,0.0484
871.00,0.0508
870.00,0.0525
869.00,0.0529
868.00,0.0519
867.00,0.0508
866.00,0.0508
865.00,0.0528
864.00,0.0565
863.00,0.0607
862.00,0.0641
861.00,0.0656
860.00,0.0655
859.00,0.0646
858.00,0.0640
857.00,0.0644
856.00,0.0659
855.00,0.0678
854.00,0.0697
853.00,0.0714
852.00,0.0728
851.00,0.0735
850.00,0.0731
849.00,0.0714
848.00,0.0688
847.00,0.0658
846.00,0.0632
845.00,0.0614
844.00,0.0601
843.00,0.0589
842.00,0.0577
841.00,0.0562
840.00,0.0548
839.00,0.0539
838.00,0.0537
837.00,0.0542
836.00,0.0553
835.00,0.0570
834.00,0.0593
833.00,0.0619
832.00,0.0646
831.00,0.0672
830.00,0.0695
829.00,0.0712
828.00,0.0722
827.00,0.0719
826.00,0.0702
825.00,0.0670
824.00,0.0628
823.00,0.0581
822.00,0.0533
821.00,0.0485
820.00,0.0440
819.00,0.0401
818.00,0.0369
817.00,0.0345
816.00,0.0327
815.00,0.0315
814.00,0.0306
813.00,0.0298
812.00,0.0293
811.00,0.0293
810.00,0.0303
809.00,0.0329
808.00,0.0377
807.00,0.0446
806.00,0.0523
805.00,0.0583
804.00,0.0605
803.00,0.0584
802.00,0.0534
801.00,0.0475
800.00,0.0421
799.00,0.0377
798.00,0.0343
797.00,0.0318
796.00,0.0301
795.00,0.0290
794.00,0.0284
793.00,0.0281
792.00,0.0278
791.00,0.0275
790.00,0.0272
789.00,0.0269
788.00,0.0268
787.00,0.0270
786.00,0.0271
785.00,0.0270
784.00,0.0264
783.00,0.0256
782.00,0.0247
781.00,0.0241
780.00,0.0237
779.00,0.0237
778.00,0.0237
777.00,0.0236
776.00,0.0234
775.00,0.0231
774.00,0.0229
773.00,0.0230
772.00,0.0232
771.00,0.0234
770.00,0.0234
769.00,0.0232
768.00,0.0225
767.00,0.0216
766.00,0.0207
765.00,0.0198
764.00,0.0191
763.00,0.0186
762.00,0.0182
761.00,0.0180
760.00,0.0180
759.00,0.0181
758.00,0.0184
757.00,0.0189
756.00,0.0199
755.00,0.0215
754.00,0.0237
753.00,0.0259
752.00,0.0278
751.00,0.0292
750.00,0.0302
749.00,0.0307
748.00,0.0304
747.00,0.0291
746.00,0.0270
745.00,0.0247
744.00,0.0227
743.00,0.0211
742.00,0.0200
741.00,0.0192
740.00,0.0188
739.00,0.0187
738.00,0.0188
737.00,0.0192
736.00,0.0200
735.00,0.0212
734.00,0.0229
733.00,0.0249
732.00,0.0269
731.00,0.0281
730.00,0.0281
729.00,0.0270
728.00,0.0253
727.00,0.0238
726.00,0.0228
725.00,0.0222
724.00,0.0219
723.00,0.0216
722.00,0.0213
721.00,0.0211
720.00,0.0208
719.00,0.0203
718.00,0.0198
717.00,0.0191
716.00,0.0183
715.00,0.0177
714.00,0.0173
713.00,0.0172
712.00,0.0172
711.00,0.0171
710.00,0.0170
709.00,0.0166
708.00,0.0161
707.00,0.0156
706.00,0.0152
705.00,0.0149
704.00,0.0148
703.00,0.0146
702.00,0.0145
701.00,0.0145
700.00,0.0145
699.00,0.0145
698.00,0.0145
697.00,0.0144
696.00,0.0144
695.00,0.0144
694.00,0.0144
693.00,0.0144
692.00,0.0144
691.00,0.0145
690.00,0.0145
689.00,0.0146
688.00,0.0147
687.00,0.0148
686.00,0.0150
685.00,0.0151
684.00,0.0153
683.00,0.0155
682.00,0.0157
681.00,0.0160
680.00,0.0164
679.00,0.0169
678.00,0.0173
677.00,0.0178
676.00,0.0184
675.00,0.0192
674.00,0.0201
673.00,0.0212
672.00,0.0225
671.00,0.0240
670.00,0.0256
669.00,0.0272
668.00,0.0285
667.00,0.0293
666.00,0.0296
665.00,0.0297
664.00,0.0299
663.00,0.0302
662.00,0.0304
661.00,0.0305
660.00,0.0306
659.00,0.0307
658.00,0.0306
657.00,0.0304
656.00,0.0300
655.00,0.0296
654.00,0.0295
653.00,0.0298
652.00,0.0306
651.00,0.0316
650.00,0.0325
649.00,0.0331
648.00,0.0330
647.00,0.0323
646.00,0.0312
645.00,0.0297
644.00,0.0281
643.00,0.0266
642.00,0.0254
641.00,0.0245
640.00,0.0240
639.00,0.0237
638.00,0.0236
637.00,0.0237
636.00,0.0238
635.00,0.0240
634.00,0.0243
633.00,0.0247
632.00,0.0252
631.00,0.0258
630.00,0.0265
629.00,0.0272
628.00,0.0278
627.00,0.0285
626.00,0.0292
625.00,0.0298
624.00,0.0301
623.00,0.0302
622.00,0.0299
621.00,0.0291
620.00,0.0278
619.00,0.0263
618.00,0.0248
617.00,0.0238
616.00,0.0238
615.00,0.0250
614.00,0.0273
613.00,0.0304
612.00,0.0333
611.00,0.0352
610.00,0.0356
609.00,0.0349
608.00,0.0340
607.00,0.0336
606.00,0.0337
605.00,0.0343
604.00,0.0351
603.00,0.0360
602.00,0.0370
601.00,0.0382
600.00,0.0397
599.00,0.0409
598.00,0.0416
597.00,0.0415
596.00,0.0412
595.00,0.0412
594.00,0.0417
593.00,0.0428
592.00,0.0445
591.00,0.0468
590.00,0.0495
589.00,0.0522
588.00,0.0545
587.00,0.0559
586.00,0.0562
585.00,0.0552
584.00,0.0534
583.00,0.0511
582.00,0.0486
581.00,0.0461
580.00,0.0438
579.00,0.0420
578.00,0.0408
577.00,0.0401
576.00,0.0399
575.00,0.0400
574.00,0.0405
573.00,0.0411
572.00,0.0418
571.00,0.0425
570.00,0.0432
569.00,0.0438
568.00,0.0442
567.00,0.0446
566.00,0.0449
565.00,0.0453
564.00,0.0455
563.00,0.0457
562.00,0.0457
561.00,0.0457
560.00,0.0457
559.00,0.0458
558.00,0.0458
557.00,0.0457
556.00,0.0456
555.00,0.0457
554.00,0.0462
553.00,0.0472
552.00,0.0487
551.00,0.0504
550.00,0.0519
549.00,0.0531
548.00,0.0541
547.00,0.0555
546.00,0.0573
545.00,0.0591
544.00,0.0602
543.00,0.0607
542.00,0.0611
541.00,0.0620
540.00,0.0640
539.00,0.0672
538.00,0.0710
537.00,0.0746
536.00,0.0770
535.00,0.0777
534.00,0.0769
533.00,0.0753
532.00,0.0737
531.00,0.0723
530.00,0.0713
529.00,0.0711
528.00,0.0723
527.00,0.0752
526.00,0.0795
525.00,0.0846
524.00,0.0897
523.00,0.0940
522.00,0.0962
521.00,0.0951
520.00,0.0902
519.00,0.0828
518.00,0.0750
517.00,0.0683
516.00,0.0636
515.00,0.0606
514.00,0.0589
513.00,0.0583
512.00,0.0585
511.00,0.0591
510.00,0.0602
509.00,0.0616
508.00,0.0636
507.00,0.0661
506.00,0.0691
505.00,0.0726
504.00,0.0765
503.00,0.0808
502.00,0.0853
501.00,0.0897
500.00,0.0935
499.00,0.0966
498.00,0.0992
497.00,0.1014
496.00,0.1032
495.00,0.1044
494.00,0.1049
493.00,0.1048
492.00,0.1044
491.00,0.1037
490.00,0.1028
489.00,0.1020
488.00,0.1016
487.00,0.1014
486.00,0.1011
485.00,0.1007
484.00,0.1001
483.00,0.0990
482.00,0.0973
481.00,0.0951
480.00,0.0926
479.00,0.0902
478.00,0.0882
477.00,0.0868
476.00,0.0863
475.00,0.0864
474.00,0.0869
473.00,0.0877
472.00,0.0889
471.00,0.0904
470.00,0.0920
469.00,0.0935
468.00,0.0949
467.00,0.0960
466.00,0.0964
465.00,0.0963
464.00,0.0961
463.00,0.0959
462.00,0.0958
461.00,0.0955
460.00,0.0950
459.00,0.0941
458.00,0.0932
457.00,0.0927
456.00,0.0926
455.00,0.0927
454.00,0.0927
453.00,0.0923
452.00,0.0915
451.00,0.0901
450.00,0.0884
449.00,0.0867
448.00,0.0851
447.00,0.0836
446.00,0.0822
445.00,0.0808
444.00,0.0794
443.00,0.0776
442.00,0.0760
441.00,0.0749
440.00,0.0745
439.00,0.0745
438.00,0.0745
437.00,0.0744
436.00,0.0744
435.00,0.0744
434.00,0.0744
433.00,0.0744
432.00,0.0748
431.00,0.0759
430.00,0.0779
429.00,0.0809
428.00,0.0847
427.00,0.0886
426.00,0.0919
425.00,0.0942
424.00,0.0955
423.00,0.0957
422.00,0.0950
421.00,0.0941
420.00,0.0934
419.00,0.0928
418.00,0.0919
417.00,0.0912
416.00,0.0909
415.00,0.0906
414.00,0.0902
413.00,0.0899
412.00,0.0906
411.00,0.0923
410.00,0.0947
409.00,0.0974
408.00,0.1001
407.00,0.1026
406.00,0.1047
405.00,0.1065
404.00,0.1083
403.00,0.1097
402.00,0.1108
401.00,0.1125
400.00,0.1152
