Created as New Dataset,Sample 805 By YargerLab Date Wednesday, July 09 2025
cm-1,A
4000.00,0.0018
3999.00,0.0018
3998.00,0.0018
3997.00,0.0018
3996.00,0.0018
3995.00,0.0018
3994.00,0.0018
3993.00,0.0018
3992.00,0.0018
3991.00,0.0018
3990.00,0.0018
3989.00,0.0018
3988.00,0.0018
3987.00,0.0018
3986.00,0.0018
3985.00,0.0018
3984.00,0.0018
3983.00,0.0018
3982.00,0.0018
3981.00,0.0018
3980.00,0.0018
3979.00,0.0018
3978.00,0.0018
3977.00,0.0018
3976.00,0.0018
3975.00,0.0018
3974.00,0.0018
3973.00,0.0018
3972.00,0.0019
3971.00,0.0019
3970.00,0.0019
3969.00,0.0019
3968.00,0.0019
3967.00,0.0020
3966.00,0.0020
3965.00,0.0020
3964.00,0.0020
3963.00,0.0020
3962.00,0.0020
3961.00,0.0020
3960.00,0.0020
3959.00,0.0020
3958.00,0.0020
3957.00,0.0019
3956.00,0.0019
3955.00,0.0019
3954.00,0.0019
3953.00,0.0020
3952.00,0.0020
3951.00,0.0020
3950.00,0.0019
3949.00,0.0019
3948.00,0.0019
3947.00,0.0019
3946.00,0.0019
3945.00,0.0019
3944.00,0.0019
3943.00,0.0019
3942.00,0.0019
3941.00,0.0019
3940.00,0.0019
3939.00,0.0018
3938.00,0.0018
3937.00,0.0018
3936.00,0.0018
3935.00,0.0018
3934.00,0.0018
3933.00,0.0018
3932.00,0.0018
3931.00,0.0018
3930.00,0.0018
3929.00,0.0018
3928.00,0.0018
3927.00,0.0018
3926.00,0.0018
3925.00,0.0018
3924.00,0.0018
3923.00,0.0018
3922.00,0.0018
3921.00,0.0018
3920.00,0.0018
3919.00,0.0018
3918.00,0.0018
3917.00,0.0018
3916.00,0.0018
3915.00,0.0017
3914.00,0.0017
3913.00,0.0017
3912.00,0.0017
3911.00,0.0017
3910.00,0.0017
3909.00,0.0017
3908.00,0.0017
3907.00,0.0017
3906.00,0.0017
3905.00,0.0017
3904.00,0.0017
3903.00,0.0017
3902.00,0.0016
3901.00,0.0016
3900.00,0.0016
3899.00,0.0016
3898.00,0.0016
3897.00,0.0016
3896.00,0.0016
3895.00,0.0016
3894.00,0.0016
3893.00,0.0016
3892.00,0.0016
3891.00,0.0016
3890.00,0.0016
3889.00,0.0015
3888.00,0.0015
3887.00,0.0015
3886.00,0.0015
3885.00,0.0016
3884.00,0.0016
3883.00,0.0016
3882.00,0.0015
3881.00,0.0015
3880.00,0.0015
3879.00,0.0015
3878.00,0.0015
3877.00,0.0015
3876.00,0.0015
3875.00,0.0015
3874.00,0.0015
3873.00,0.0015
3872.00,0.0015
3871.00,0.0015
3870.00,0.0015
3869.00,0.0015
3868.00,0.0015
3867.00,0.0015
3866.00,0.0014
3865.00,0.0014
3864.00,0.0015
3863.00,0.0015
3862.00,0.0015
3861.00,0.0014
3860.00,0.0014
3859.00,0.0015
3858.00,0.0015
3857.00,0.0015
3856.00,0.0015
3855.00,0.0014
3854.00,0.0014
3853.00,0.0014
3852.00,0.0013
3851.00,0.0013
3850.00,0.0014
3849.00,0.0014
3848.00,0.0014
3847.00,0.0015
3846.00,0.0015
3845.00,0.0015
3844.00,0.0015
3843.00,0.0015
3842.00,0.0015
3841.00,0.0014
3840.00,0.0014
3839.00,0.0014
3838.00,0.0014
3837.00,0.0014
3836.00,0.0014
3835.00,0.0013
3834.00,0.0013
3833.00,0.0013
3832.00,0.0014
3831.00,0.0014
3830.00,0.0014
3829.00,0.0014
3828.00,0.0014
3827.00,0.0014
3826.00,0.0014
3825.00,0.0014
3824.00,0.0014
3823.00,0.0014
3822.00,0.0014
3821.00,0.0014
3820.00,0.0013
3819.00,0.0013
3818.00,0.0012
3817.00,0.0012
3816.00,0.0012
3815.00,0.0012
3814.00,0.0012
3813.00,0.0013
3812.00,0.0013
3811.00,0.0013
3810.00,0.0014
3809.00,0.0014
3808.00,0.0013
3807.00,0.0013
3806.00,0.0013
3805.00,0.0012
3804.00,0.0012
3803.00,0.0011
3802.00,0.0011
3801.00,0.0011
3800.00,0.0011
3799.00,0.0011
3798.00,0.0011
3797.00,0.0012
3796.00,0.0012
3795.00,0.0012
3794.00,0.0012
3793.00,0.0012
3792.00,0.0013
3791.00,0.0013
3790.00,0.0013
3789.00,0.0013
3788.00,0.0013
3787.00,0.0013
3786.00,0.0013
3785.00,0.0013
3784.00,0.0013
3783.00,0.0013
3782.00,0.0013
3781.00,0.0013
3780.00,0.0013
3779.00,0.0013
3778.00,0.0013
3777.00,0.0013
3776.00,0.0013
3775.00,0.0013
3774.00,0.0013
3773.00,0.0012
3772.00,0.0012
3771.00,0.0012
3770.00,0.0012
3769.00,0.0012
3768.00,0.0012
3767.00,0.0012
3766.00,0.0012
3765.00,0.0012
3764.00,0.0013
3763.00,0.0013
3762.00,0.0012
3761.00,0.0012
3760.00,0.0012
3759.00,0.0012
3758.00,0.0012
3757.00,0.0012
3756.00,0.0012
3755.00,0.0012
3754.00,0.0012
3753.00,0.0011
3752.00,0.0011
3751.00,0.0011
3750.00,0.0011
3749.00,0.0011
3748.00,0.0011
3747.00,0.0011
3746.00,0.0011
3745.00,0.0011
3744.00,0.0011
3743.00,0.0011
3742.00,0.0011
3741.00,0.0011
3740.00,0.0011
3739.00,0.0011
3738.00,0.0010
3737.00,0.0010
3736.00,0.0010
3735.00,0.0010
3734.00,0.0010
3733.00,0.0009
3732.00,0.0009
3731.00,0.0009
3730.00,0.0010
3729.00,0.0010
3728.00,0.0010
3727.00,0.0010
3726.00,0.0010
3725.00,0.0010
3724.00,0.0010
3723.00,0.0011
3722.00,0.0011
3721.00,0.0011
3720.00,0.0011
3719.00,0.0011
3718.00,0.0010
3717.00,0.0010
3716.00,0.0010
3715.00,0.0010
3714.00,0.0010
3713.00,0.0011
3712.00,0.0010
3711.00,0.0010
3710.00,0.0010
3709.00,0.0010
3708.00,0.0010
3707.00,0.0011
3706.00,0.0011
3705.00,0.0011
3704.00,0.0011
3703.00,0.0011
3702.00,0.0011
3701.00,0.0010
3700.00,0.0010
3699.00,0.0010
3698.00,0.0010
3697.00,0.0010
3696.00,0.0011
3695.00,0.0011
3694.00,0.0011
3693.00,0.0011
3692.00,0.0011
3691.00,0.0011
3690.00,0.0011
3689.00,0.0010
3688.00,0.0010
3687.00,0.0010
3686.00,0.0010
3685.00,0.0010
3684.00,0.0011
3683.00,0.0011
3682.00,0.0011
3681.00,0.0011
3680.00,0.0011
3679.00,0.0011
3678.00,0.0011
3677.00,0.0011
3676.00,0.0010
3675.00,0.0010
3674.00,0.0010
3673.00,0.0010
3672.00,0.0010
3671.00,0.0010
3670.00,0.0010
3669.00,0.0010
3668.00,0.0010
3667.00,0.0011
3666.00,0.0011
3665.00,0.0011
3664.00,0.0011
3663.00,0.0011
3662.00,0.0012
3661.00,0.0012
3660.00,0.0012
3659.00,0.0012
3658.00,0.0012
3657.00,0.0012
3656.00,0.0012
3655.00,0.0012
3654.00,0.0011
3653.00,0.0011
3652.00,0.0011
3651.00,0.0011
3650.00,0.0011
3649.00,0.0011
3648.00,0.0011
3647.00,0.0011
3646.00,0.0012
3645.00,0.0012
3644.00,0.0012
3643.00,0.0012
3642.00,0.0013
3641.00,0.0013
3640.00,0.0013
3639.00,0.0014
3638.00,0.0014
3637.00,0.0014
3636.00,0.0014
3635.00,0.0014
3634.00,0.0014
3633.00,0.0014
3632.00,0.0014
3631.00,0.0014
3630.00,0.0014
3629.00,0.0014
3628.00,0.0014
3627.00,0.0015
3626.00,0.0015
3625.00,0.0016
3624.00,0.0017
3623.00,0.0018
3622.00,0.0018
3621.00,0.0019
3620.00,0.0019
3619.00,0.0019
3618.00,0.0019
3617.00,0.0020
3616.00,0.0020
3615.00,0.0021
3614.00,0.0021
3613.00,0.0021
3612.00,0.0022
3611.00,0.0022
3610.00,0.0022
3609.00,0.0022
3608.00,0.0021
3607.00,0.0021
3606.00,0.0021
3605.00,0.0022
3604.00,0.0022
3603.00,0.0023
3602.00,0.0023
3601.00,0.0024
3600.00,0.0024
3599.00,0.0024
3598.00,0.0024
3597.00,0.0024
3596.00,0.0024
3595.00,0.0025
3594.00,0.0025
3593.00,0.0026
3592.00,0.0026
3591.00,0.0027
3590.00,0.0027
3589.00,0.0027
3588.00,0.0027
3587.00,0.0028
3586.00,0.0028
3585.00,0.0029
3584.00,0.0030
3583.00,0.0031
3582.00,0.0031
3581.00,0.0032
3580.00,0.0033
3579.00,0.0033
3578.00,0.0034
3577.00,0.0035
3576.00,0.0035
3575.00,0.0036
3574.00,0.0037
3573.00,0.0038
3572.00,0.0039
3571.00,0.0040
3570.00,0.0040
3569.00,0.0041
3568.00,0.0043
3567.00,0.0044
3566.00,0.0045
3565.00,0.0046
3564.00,0.0046
3563.00,0.0047
3562.00,0.0049
3561.00,0.0050
3560.00,0.0051
3559.00,0.0053
3558.00,0.0054
3557.00,0.0055
3556.00,0.0056
3555.00,0.0058
3554.00,0.0059
3553.00,0.0060
3552.00,0.0062
3551.00,0.0064
3550.00,0.0066
3549.00,0.0068
3548.00,0.0070
3547.00,0.0072
3546.00,0.0075
3545.00,0.0077
3544.00,0.0080
3543.00,0.0083
3542.00,0.0085
3541.00,0.0088
3540.00,0.0092
3539.00,0.0095
3538.00,0.0099
3537.00,0.0103
3536.00,0.0108
3535.00,0.0114
3534.00,0.0120
3533.00,0.0126
3532.00,0.0134
3531.00,0.0143
3530.00,0.0153
3529.00,0.0165
3528.00,0.0177
3527.00,0.0190
3526.00,0.0202
3525.00,0.0214
3524.00,0.0224
3523.00,0.0232
3522.00,0.0237
3521.00,0.0240
3520.00,0.0240
3519.00,0.0238
3518.00,0.0235
3517.00,0.0230
3516.00,0.0225
3515.00,0.0219
3514.00,0.0212
3513.00,0.0206
3512.00,0.0201
3511.00,0.0196
3510.00,0.0193
3509.00,0.0190
3508.00,0.0189
3507.00,0.0188
3506.00,0.0188
3505.00,0.0188
3504.00,0.0190
3503.00,0.0191
3502.00,0.0193
3501.00,0.0196
3500.00,0.0198
3499.00,0.0201
3498.00,0.0204
3497.00,0.0207
3496.00,0.0211
3495.00,0.0216
3494.00,0.0220
3493.00,0.0225
3492.00,0.0230
3491.00,0.0235
3490.00,0.0240
3489.00,0.0246
3488.00,0.0252
3487.00,0.0258
3486.00,0.0264
3485.00,0.0270
3484.00,0.0277
3483.00,0.0284
3482.00,0.0291
3481.00,0.0298
3480.00,0.0306
3479.00,0.0313
3478.00,0.0321
3477.00,0.0330
3476.00,0.0339
3475.00,0.0349
3474.00,0.0359
3473.00,0.0370
3472.00,0.0382
3471.00,0.0396
3470.00,0.0411
3469.00,0.0428
3468.00,0.0447
3467.00,0.0467
3466.00,0.0490
3465.00,0.0515
3464.00,0.0542
3463.00,0.0572
3462.00,0.0605
3461.00,0.0642
3460.00,0.0683
3459.00,0.0727
3458.00,0.0774
3457.00,0.0824
3456.00,0.0875
3455.00,0.0926
3454.00,0.0975
3453.00,0.1017
3452.00,0.1051
3451.00,0.1074
3450.00,0.1083
3449.00,0.1079
3448.00,0.1063
3447.00,0.1035
3446.00,0.1000
3445.00,0.0959
3444.00,0.0916
3443.00,0.0872
3442.00,0.0829
3441.00,0.0788
3440.00,0.0751
3439.00,0.0718
3438.00,0.0688
3437.00,0.0661
3436.00,0.0638
3435.00,0.0619
3434.00,0.0601
3433.00,0.0587
3432.00,0.0575
3431.00,0.0564
3430.00,0.0555
3429.00,0.0547
3428.00,0.0540
3427.00,0.0534
3426.00,0.0529
3425.00,0.0525
3424.00,0.0522
3423.00,0.0519
3422.00,0.0517
3421.00,0.0516
3420.00,0.0515
3419.00,0.0514
3418.00,0.0514
3417.00,0.0513
3416.00,0.0513
3415.00,0.0513
3414.00,0.0512
3413.00,0.0512
3412.00,0.0510
3411.00,0.0508
3410.00,0.0505
3409.00,0.0502
3408.00,0.0497
3407.00,0.0492
3406.00,0.0486
3405.00,0.0480
3404.00,0.0473
3403.00,0.0465
3402.00,0.0457
3401.00,0.0449
3400.00,0.0440
3399.00,0.0431
3398.00,0.0422
3397.00,0.0414
3396.00,0.0406
3395.00,0.0398
3394.00,0.0391
3393.00,0.0385
3392.00,0.0378
3391.00,0.0372
3390.00,0.0366
3389.00,0.0360
3388.00,0.0355
3387.00,0.0351
3386.00,0.0346
3385.00,0.0342
3384.00,0.0339
3383.00,0.0335
3382.00,0.0332
3381.00,0.0328
3380.00,0.0325
3379.00,0.0322
3378.00,0.0319
3377.00,0.0316
3376.00,0.0313
3375.00,0.0310
3374.00,0.0308
3373.00,0.0305
3372.00,0.0303
3371.00,0.0300
3370.00,0.0298
3369.00,0.0296
3368.00,0.0294
3367.00,0.0292
3366.00,0.0290
3365.00,0.0288
3364.00,0.0286
3363.00,0.0284
3362.00,0.0282
3361.00,0.0280
3360.00,0.0278
3359.00,0.0276
3358.00,0.0274
3357.00,0.0272
3356.00,0.0271
3355.00,0.0270
3354.00,0.0269
3353.00,0.0268
3352.00,0.0266
3351.00,0.0265
3350.00,0.0264
3349.00,0.0262
3348.00,0.0261
3347.00,0.0259
3346.00,0.0258
3345.00,0.0257
3344.00,0.0255
3343.00,0.0254
3342.00,0.0253
3341.00,0.0252
3340.00,0.0251
3339.00,0.0250
3338.00,0.0249
3337.00,0.0248
3336.00,0.0247
3335.00,0.0246
3334.00,0.0245
3333.00,0.0244
3332.00,0.0243
3331.00,0.0242
3330.00,0.0242
3329.00,0.0241
3328.00,0.0241
3327.00,0.0240
3326.00,0.0240
3325.00,0.0240
3324.00,0.0239
3323.00,0.0239
3322.00,0.0238
3321.00,0.0238
3320.00,0.0238
3319.00,0.0238
3318.00,0.0237
3317.00,0.0237
3316.00,0.0237
3315.00,0.0236
3314.00,0.0236
3313.00,0.0236
3312.00,0.0236
3311.00,0.0236
3310.00,0.0235
3309.00,0.0235
3308.00,0.0235
3307.00,0.0235
3306.00,0.0235
3305.00,0.0235
3304.00,0.0236
3303.00,0.0236
3302.00,0.0237
3301.00,0.0237
3300.00,0.0237
3299.00,0.0237
3298.00,0.0238
3297.00,0.0238
3296.00,0.0238
3295.00,0.0238
3294.00,0.0238
3293.00,0.0239
3292.00,0.0240
3291.00,0.0241
3290.00,0.0242
3289.00,0.0244
3288.00,0.0245
3287.00,0.0246
3286.00,0.0247
3285.00,0.0248
3284.00,0.0249
3283.00,0.0249
3282.00,0.0250
3281.00,0.0251
3280.00,0.0252
3279.00,0.0252
3278.00,0.0253
3277.00,0.0253
3276.00,0.0253
3275.00,0.0253
3274.00,0.0254
3273.00,0.0254
3272.00,0.0255
3271.00,0.0256
3270.00,0.0258
3269.00,0.0260
3268.00,0.0263
3267.00,0.0266
3266.00,0.0268
3265.00,0.0269
3264.00,0.0270
3263.00,0.0271
3262.00,0.0272
3261.00,0.0272
3260.00,0.0273
3259.00,0.0274
3258.00,0.0274
3257.00,0.0274
3256.00,0.0275
3255.00,0.0276
3254.00,0.0278
3253.00,0.0279
3252.00,0.0280
3251.00,0.0281
3250.00,0.0281
3249.00,0.0281
3248.00,0.0282
3247.00,0.0282
3246.00,0.0284
3245.00,0.0286
3244.00,0.0287
3243.00,0.0289
3242.00,0.0290
3241.00,0.0291
3240.00,0.0293
3239.00,0.0294
3238.00,0.0294
3237.00,0.0295
3236.00,0.0295
3235.00,0.0296
3234.00,0.0297
3233.00,0.0299
3232.00,0.0300
3231.00,0.0302
3230.00,0.0303
3229.00,0.0304
3228.00,0.0305
3227.00,0.0306
3226.00,0.0308
3225.00,0.0309
3224.00,0.0310
3223.00,0.0311
3222.00,0.0312
3221.00,0.0314
3220.00,0.0315
3219.00,0.0316
3218.00,0.0317
3217.00,0.0318
3216.00,0.0319
3215.00,0.0320
3214.00,0.0322
3213.00,0.0323
3212.00,0.0325
3211.00,0.0326
3210.00,0.0327
3209.00,0.0329
3208.00,0.0330
3207.00,0.0332
3206.00,0.0333
3205.00,0.0335
3204.00,0.0336
3203.00,0.0337
3202.00,0.0338
3201.00,0.0340
3200.00,0.0341
3199.00,0.0342
3198.00,0.0343
3197.00,0.0344
3196.00,0.0344
3195.00,0.0345
3194.00,0.0345
3193.00,0.0346
3192.00,0.0346
3191.00,0.0347
3190.00,0.0347
3189.00,0.0348
3188.00,0.0349
3187.00,0.0349
3186.00,0.0350
3185.00,0.0351
3184.00,0.0351
3183.00,0.0352
3182.00,0.0352
3181.00,0.0353
3180.00,0.0353
3179.00,0.0354
3178.00,0.0355
3177.00,0.0355
3176.00,0.0355
3175.00,0.0356
3174.00,0.0356
3173.00,0.0356
3172.00,0.0357
3171.00,0.0357
3170.00,0.0357
3169.00,0.0358
3168.00,0.0358
3167.00,0.0358
3166.00,0.0358
3165.00,0.0359
3164.00,0.0359
3163.00,0.0359
3162.00,0.0359
3161.00,0.0358
3160.00,0.0358
3159.00,0.0358
3158.00,0.0358
3157.00,0.0358
3156.00,0.0357
3155.00,0.0356
3154.00,0.0355
3153.00,0.0356
3152.00,0.0357
3151.00,0.0359
3150.00,0.0362
3149.00,0.0364
3148.00,0.0366
3147.00,0.0368
3146.00,0.0370
3145.00,0.0371
3144.00,0.0373
3143.00,0.0373
3142.00,0.0374
3141.00,0.0374
3140.00,0.0375
3139.00,0.0376
3138.00,0.0378
3137.00,0.0380
3136.00,0.0382
3135.00,0.0384
3134.00,0.0385
3133.00,0.0385
3132.00,0.0385
3131.00,0.0386
3130.00,0.0386
3129.00,0.0387
3128.00,0.0389
3127.00,0.0390
3126.00,0.0391
3125.00,0.0391
3124.00,0.0391
3123.00,0.0391
3122.00,0.0391
3121.00,0.0391
3120.00,0.0391
3119.00,0.0392
3118.00,0.0393
3117.00,0.0394
3116.00,0.0395
3115.00,0.0397
3114.00,0.0399
3113.00,0.0401
3112.00,0.0402
3111.00,0.0404
3110.00,0.0405
3109.00,0.0407
3108.00,0.0409
3107.00,0.0410
3106.00,0.0412
3105.00,0.0413
3104.00,0.0414
3103.00,0.0415
3102.00,0.0415
3101.00,0.0416
3100.00,0.0417
3099.00,0.0418
3098.00,0.0418
3097.00,0.0419
3096.00,0.0419
3095.00,0.0419
3094.00,0.0419
3093.00,0.0419
3092.00,0.0419
3091.00,0.0419
3090.00,0.0420
3089.00,0.0420
3088.00,0.0422
3087.00,0.0423
3086.00,0.0424
3085.00,0.0426
3084.00,0.0428
3083.00,0.0431
3082.00,0.0434
3081.00,0.0439
3080.00,0.0444
3079.00,0.0452
3078.00,0.0460
3077.00,0.0470
3076.00,0.0480
3075.00,0.0488
3074.00,0.0495
3073.00,0.0498
3072.00,0.0500
3071.00,0.0498
3070.00,0.0495
3069.00,0.0490
3068.00,0.0484
3067.00,0.0477
3066.00,0.0469
3065.00,0.0460
3064.00,0.0452
3063.00,0.0443
3062.00,0.0435
3061.00,0.0426
3060.00,0.0418
3059.00,0.0410
3058.00,0.0403
3057.00,0.0397
3056.00,0.0392
3055.00,0.0388
3054.00,0.0385
3053.00,0.0382
3052.00,0.0379
3051.00,0.0376
3050.00,0.0374
3049.00,0.0372
3048.00,0.0371
3047.00,0.0369
3046.00,0.0368
3045.00,0.0367
3044.00,0.0367
3043.00,0.0367
3042.00,0.0367
3041.00,0.0368
3040.00,0.0368
3039.00,0.0369
3038.00,0.0369
3037.00,0.0369
3036.00,0.0369
3035.00,0.0370
3034.00,0.0370
3033.00,0.0369
3032.00,0.0368
3031.00,0.0367
3030.00,0.0365
3029.00,0.0363
3028.00,0.0360
3027.00,0.0357
3026.00,0.0354
3025.00,0.0351
3024.00,0.0348
3023.00,0.0346
3022.00,0.0343
3021.00,0.0341
3020.00,0.0339
3019.00,0.0338
3018.00,0.0336
3017.00,0.0335
3016.00,0.0334
3015.00,0.0333
3014.00,0.0333
3013.00,0.0333
3012.00,0.0334
3011.00,0.0335
3010.00,0.0336
3009.00,0.0337
3008.00,0.0338
3007.00,0.0340
3006.00,0.0342
3005.00,0.0343
3004.00,0.0346
3003.00,0.0348
3002.00,0.0350
3001.00,0.0353
3000.00,0.0356
2999.00,0.0360
2998.00,0.0364
2997.00,0.0369
2996.00,0.0375
2995.00,0.0381
2994.00,0.0388
2993.00,0.0395
2992.00,0.0403
2991.00,0.0411
2990.00,0.0418
2989.00,0.0425
2988.00,0.0430
2987.00,0.0434
2986.00,0.0438
2985.00,0.0441
2984.00,0.0447
2983.00,0.0453
2982.00,0.0462
2981.00,0.0474
2980.00,0.0487
2979.00,0.0502
2978.00,0.0518
2977.00,0.0534
2976.00,0.0550
2975.00,0.0566
2974.00,0.0582
2973.00,0.0598
2972.00,0.0614
2971.00,0.0631
2970.00,0.0648
2969.00,0.0665
2968.00,0.0681
2967.00,0.0697
2966.00,0.0713
2965.00,0.0729
2964.00,0.0747
2963.00,0.0767
2962.00,0.0789
2961.00,0.0813
2960.00,0.0837
2959.00,0.0858
2958.00,0.0877
2957.00,0.0891
2956.00,0.0901
2955.00,0.0907
2954.00,0.0909
2953.00,0.0906
2952.00,0.0898
2951.00,0.0886
2950.00,0.0871
2949.00,0.0854
2948.00,0.0838
2947.00,0.0827
2946.00,0.0824
2945.00,0.0829
2944.00,0.0843
2943.00,0.0864
2942.00,0.0891
2941.00,0.0923
2940.00,0.0958
2939.00,0.0995
2938.00,0.1033
2937.00,0.1074
2936.00,0.1118
2935.00,0.1164
2934.00,0.1215
2933.00,0.1269
2932.00,0.1327
2931.00,0.1387
2930.00,0.1447
2929.00,0.1504
2928.00,0.1553
2927.00,0.1592
2926.00,0.1618
2925.00,0.1631
2924.00,0.1632
2923.00,0.1622
2922.00,0.1603
2921.00,0.1578
2920.00,0.1547
2919.00,0.1513
2918.00,0.1476
2917.00,0.1439
2916.00,0.1400
2915.00,0.1359
2914.00,0.1317
2913.00,0.1273
2912.00,0.1227
2911.00,0.1180
2910.00,0.1134
2909.00,0.1088
2908.00,0.1045
2907.00,0.1005
2906.00,0.0969
2905.00,0.0937
2904.00,0.0909
2903.00,0.0884
2902.00,0.0862
2901.00,0.0843
2900.00,0.0825
2899.00,0.0807
2898.00,0.0789
2897.00,0.0772
2896.00,0.0755
2895.00,0.0740
2894.00,0.0727
2893.00,0.0714
2892.00,0.0704
2891.00,0.0695
2890.00,0.0687
2889.00,0.0681
2888.00,0.0677
2887.00,0.0673
2886.00,0.0669
2885.00,0.0666
2884.00,0.0664
2883.00,0.0662
2882.00,0.0661
2881.00,0.0662
2880.00,0.0665
2879.00,0.0671
2878.00,0.0679
2877.00,0.0691
2876.00,0.0706
2875.00,0.0724
2874.00,0.0744
2873.00,0.0764
2872.00,0.0780
2871.00,0.0789
2870.00,0.0789
2869.00,0.0780
2868.00,0.0767
2867.00,0.0753
2866.00,0.0745
2865.00,0.0745
2864.00,0.0755
2863.00,0.0776
2862.00,0.0805
2861.00,0.0841
2860.00,0.0880
2859.00,0.0917
2858.00,0.0948
2857.00,0.0967
2856.00,0.0971
2855.00,0.0960
2854.00,0.0935
2853.00,0.0901
2852.00,0.0860
2851.00,0.0817
2850.00,0.0772
2849.00,0.0730
2848.00,0.0691
2847.00,0.0656
2846.00,0.0627
2845.00,0.0603
2844.00,0.0583
2843.00,0.0566
2842.00,0.0551
2841.00,0.0537
2840.00,0.0526
2839.00,0.0519
2838.00,0.0517
2837.00,0.0520
2836.00,0.0527
2835.00,0.0535
2834.00,0.0542
2833.00,0.0547
2832.00,0.0547
2831.00,0.0540
2830.00,0.0527
2829.00,0.0507
2828.00,0.0482
2827.00,0.0455
2826.00,0.0428
2825.00,0.0404
2824.00,0.0383
2823.00,0.0365
2822.00,0.0350
2821.00,0.0338
2820.00,0.0328
2819.00,0.0319
2818.00,0.0312
2817.00,0.0306
2816.00,0.0300
2815.00,0.0295
2814.00,0.0291
2813.00,0.0287
2812.00,0.0283
2811.00,0.0279
2810.00,0.0276
2809.00,0.0273
2808.00,0.0270
2807.00,0.0267
2806.00,0.0265
2805.00,0.0263
2804.00,0.0261
2803.00,0.0259
2802.00,0.0257
2801.00,0.0255
2800.00,0.0253
2799.00,0.0252
2798.00,0.0250
2797.00,0.0249
2796.00,0.0248
2795.00,0.0247
2794.00,0.0245
2793.00,0.0244
2792.00,0.0243
2791.00,0.0242
2790.00,0.0241
2789.00,0.0240
2788.00,0.0240
2787.00,0.0239
2786.00,0.0239
2785.00,0.0239
2784.00,0.0238
2783.00,0.0238
2782.00,0.0238
2781.00,0.0238
2780.00,0.0239
2779.00,0.0239
2778.00,0.0239
2777.00,0.0240
2776.00,0.0241
2775.00,0.0241
2774.00,0.0242
2773.00,0.0243
2772.00,0.0244
2771.00,0.0245
2770.00,0.0245
2769.00,0.0246
2768.00,0.0247
2767.00,0.0248
2766.00,0.0248
2765.00,0.0249
2764.00,0.0250
2763.00,0.0251
2762.00,0.0252
2761.00,0.0252
2760.00,0.0253
2759.00,0.0254
2758.00,0.0254
2757.00,0.0254
2756.00,0.0255
2755.00,0.0255
2754.00,0.0255
2753.00,0.0256
2752.00,0.0256
2751.00,0.0256
2750.00,0.0257
2749.00,0.0257
2748.00,0.0257
2747.00,0.0258
2746.00,0.0258
2745.00,0.0259
2744.00,0.0260
2743.00,0.0260
2742.00,0.0261
2741.00,0.0262
2740.00,0.0263
2739.00,0.0265
2738.00,0.0266
2737.00,0.0268
2736.00,0.0270
2735.00,0.0272
2734.00,0.0274
2733.00,0.0276
2732.00,0.0278
2731.00,0.0279
2730.00,0.0280
2729.00,0.0280
2728.00,0.0280
2727.00,0.0280
2726.00,0.0279
2725.00,0.0278
2724.00,0.0278
2723.00,0.0277
2722.00,0.0276
2721.00,0.0275
2720.00,0.0274
2719.00,0.0274
2718.00,0.0273
2717.00,0.0273
2716.00,0.0272
2715.00,0.0272
2714.00,0.0271
2713.00,0.0271
2712.00,0.0272
2711.00,0.0272
2710.00,0.0272
2709.00,0.0272
2708.00,0.0272
2707.00,0.0273
2706.00,0.0273
2705.00,0.0273
2704.00,0.0273
2703.00,0.0274
2702.00,0.0274
2701.00,0.0274
2700.00,0.0274
2699.00,0.0274
2698.00,0.0275
2697.00,0.0275
2696.00,0.0275
2695.00,0.0276
2694.00,0.0276
2693.00,0.0276
2692.00,0.0277
2691.00,0.0277
2690.00,0.0277
2689.00,0.0277
2688.00,0.0277
2687.00,0.0278
2686.00,0.0278
2685.00,0.0278
2684.00,0.0278
2683.00,0.0278
2682.00,0.0277
2681.00,0.0277
2680.00,0.0277
2679.00,0.0277
2678.00,0.0277
2677.00,0.0277
2676.00,0.0277
2675.00,0.0278
2674.00,0.0278
2673.00,0.0278
2672.00,0.0279
2671.00,0.0279
2670.00,0.0280
2669.00,0.0281
2668.00,0.0281
2667.00,0.0282
2666.00,0.0283
2665.00,0.0283
2664.00,0.0283
2663.00,0.0283
2662.00,0.0283
2661.00,0.0283
2660.00,0.0282
2659.00,0.0282
2658.00,0.0281
2657.00,0.0280
2656.00,0.0279
2655.00,0.0278
2654.00,0.0277
2653.00,0.0276
2652.00,0.0275
2651.00,0.0274
2650.00,0.0273
2649.00,0.0273
2648.00,0.0272
2647.00,0.0271
2646.00,0.0270
2645.00,0.0270
2644.00,0.0269
2643.00,0.0269
2642.00,0.0268
2641.00,0.0268
2640.00,0.0267
2639.00,0.0266
2638.00,0.0266
2637.00,0.0265
2636.00,0.0265
2635.00,0.0264
2634.00,0.0264
2633.00,0.0264
2632.00,0.0263
2631.00,0.0263
2630.00,0.0263
2629.00,0.0262
2628.00,0.0262
2627.00,0.0261
2626.00,0.0261
2625.00,0.0260
2624.00,0.0260
2623.00,0.0260
2622.00,0.0259
2621.00,0.0259
2620.00,0.0258
2619.00,0.0258
2618.00,0.0258
2617.00,0.0257
2616.00,0.0257
2615.00,0.0256
2614.00,0.0256
2613.00,0.0255
2612.00,0.0255
2611.00,0.0254
2610.00,0.0254
2609.00,0.0253
2608.00,0.0253
2607.00,0.0253
2606.00,0.0252
2605.00,0.0251
2604.00,0.0251
2603.00,0.0250
2602.00,0.0249
2601.00,0.0248
2600.00,0.0247
2599.00,0.0246
2598.00,0.0245
2597.00,0.0244
2596.00,0.0243
2595.00,0.0241
2594.00,0.0240
2593.00,0.0240
2592.00,0.0239
2591.00,0.0238
2590.00,0.0238
2589.00,0.0237
2588.00,0.0236
2587.00,0.0235
2586.00,0.0235
2585.00,0.0234
2584.00,0.0234
2583.00,0.0233
2582.00,0.0233
2581.00,0.0232
2580.00,0.0231
2579.00,0.0231
2578.00,0.0230
2577.00,0.0230
2576.00,0.0230
2575.00,0.0230
2574.00,0.0230
2573.00,0.0230
2572.00,0.0231
2571.00,0.0231
2570.00,0.0231
2569.00,0.0232
2568.00,0.0232
2567.00,0.0233
2566.00,0.0233
2565.00,0.0234
2564.00,0.0235
2563.00,0.0236
2562.00,0.0236
2561.00,0.0237
2560.00,0.0238
2559.00,0.0239
2558.00,0.0239
2557.00,0.0240
2556.00,0.0240
2555.00,0.0240
2554.00,0.0240
2553.00,0.0240
2552.00,0.0239
2551.00,0.0238
2550.00,0.0237
2549.00,0.0237
2548.00,0.0236
2547.00,0.0235
2546.00,0.0234
2545.00,0.0233
2544.00,0.0232
2543.00,0.0231
2542.00,0.0230
2541.00,0.0229
2540.00,0.0228
2539.00,0.0227
2538.00,0.0226
2537.00,0.0225
2536.00,0.0224
2535.00,0.0223
2534.00,0.0222
2533.00,0.0221
2532.00,0.0221
2531.00,0.0220
2530.00,0.0219
2529.00,0.0218
2528.00,0.0218
2527.00,0.0218
2526.00,0.0218
2525.00,0.0217
2524.00,0.0216
2523.00,0.0216
2522.00,0.0215
2521.00,0.0215
2520.00,0.0214
2519.00,0.0213
2518.00,0.0212
2517.00,0.0211
2516.00,0.0210
2515.00,0.0209
2514.00,0.0208
2513.00,0.0207
2512.00,0.0206
2511.00,0.0205
2510.00,0.0203
2509.00,0.0202
2508.00,0.0201
2507.00,0.0200
2506.00,0.0199
2505.00,0.0198
2504.00,0.0198
2503.00,0.0197
2502.00,0.0196
2501.00,0.0196
2500.00,0.0195
2499.00,0.0194
2498.00,0.0193
2497.00,0.0193
2496.00,0.0192
2495.00,0.0192
2494.00,0.0192
2493.00,0.0192
2492.00,0.0192
2491.00,0.0192
2490.00,0.0192
2489.00,0.0192
2488.00,0.0193
2487.00,0.0193
2486.00,0.0193
2485.00,0.0193
2484.00,0.0193
2483.00,0.0193
2482.00,0.0193
2481.00,0.0193
2480.00,0.0192
2479.00,0.0192
2478.00,0.0192
2477.00,0.0191
2476.00,0.0191
2475.00,0.0191
2474.00,0.0190
2473.00,0.0190
2472.00,0.0190
2471.00,0.0190
2470.00,0.0190
2469.00,0.0190
2468.00,0.0190
2467.00,0.0190
2466.00,0.0189
2465.00,0.0189
2464.00,0.0189
2463.00,0.0190
2462.00,0.0190
2461.00,0.0191
2460.00,0.0192
2459.00,0.0192
2458.00,0.0193
2457.00,0.0194
2456.00,0.0194
2455.00,0.0195
2454.00,0.0195
2453.00,0.0195
2452.00,0.0196
2451.00,0.0196
2450.00,0.0196
2449.00,0.0197
2448.00,0.0197
2447.00,0.0196
2446.00,0.0196
2445.00,0.0195
2444.00,0.0195
2443.00,0.0195
2442.00,0.0195
2441.00,0.0195
2440.00,0.0194
2439.00,0.0194
2438.00,0.0193
2437.00,0.0193
2436.00,0.0193
2435.00,0.0192
2434.00,0.0191
2433.00,0.0191
2432.00,0.0190
2431.00,0.0190
2430.00,0.0190
2429.00,0.0190
2428.00,0.0189
2427.00,0.0189
2426.00,0.0189
2425.00,0.0189
2424.00,0.0189
2423.00,0.0188
2422.00,0.0187
2421.00,0.0187
2420.00,0.0186
2419.00,0.0185
2418.00,0.0184
2417.00,0.0183
2416.00,0.0182
2415.00,0.0181
2414.00,0.0181
2413.00,0.0180
2412.00,0.0179
2411.00,0.0178
2410.00,0.0176
2409.00,0.0175
2408.00,0.0173
2407.00,0.0171
2406.00,0.0169
2405.00,0.0168
2404.00,0.0167
2403.00,0.0166
2402.00,0.0164
2401.00,0.0163
2400.00,0.0162
2399.00,0.0160
2398.00,0.0158
2397.00,0.0157
2396.00,0.0156
2395.00,0.0155
2394.00,0.0154
2393.00,0.0153
2392.00,0.0152
2391.00,0.0151
2390.00,0.0149
2389.00,0.0148
2388.00,0.0147
2387.00,0.0146
2386.00,0.0145
2385.00,0.0144
2384.00,0.0143
2383.00,0.0141
2382.00,0.0140
2381.00,0.0139
2380.00,0.0138
2379.00,0.0137
2378.00,0.0136
2377.00,0.0135
2376.00,0.0134
2375.00,0.0133
2374.00,0.0132
2373.00,0.0131
2372.00,0.0130
2371.00,0.0128
2370.00,0.0127
2369.00,0.0126
2368.00,0.0125
2367.00,0.0124
2366.00,0.0123
2365.00,0.0123
2364.00,0.0122
2363.00,0.0122
2362.00,0.0121
2361.00,0.0119
2360.00,0.0118
2359.00,0.0118
2358.00,0.0118
2357.00,0.0117
2356.00,0.0117
2355.00,0.0115
2354.00,0.0114
2353.00,0.0113
2352.00,0.0112
2351.00,0.0111
2350.00,0.0111
2349.00,0.0110
2348.00,0.0109
2347.00,0.0109
2346.00,0.0108
2345.00,0.0107
2344.00,0.0106
2343.00,0.0106
2342.00,0.0105
2341.00,0.0105
2340.00,0.0105
2339.00,0.0105
2338.00,0.0104
2337.00,0.0103
2336.00,0.0102
2335.00,0.0101
2334.00,0.0099
2333.00,0.0098
2332.00,0.0097
2331.00,0.0097
2330.00,0.0096
2329.00,0.0097
2328.00,0.0099
2327.00,0.0101
2326.00,0.0103
2325.00,0.0103
2324.00,0.0102
2323.00,0.0100
2322.00,0.0098
2321.00,0.0096
2320.00,0.0094
2319.00,0.0093
2318.00,0.0091
2317.00,0.0090
2316.00,0.0089
2315.00,0.0088
2314.00,0.0087
2313.00,0.0086
2312.00,0.0085
2311.00,0.0085
2310.00,0.0084
2309.00,0.0084
2308.00,0.0084
2307.00,0.0083
2306.00,0.0083
2305.00,0.0083
2304.00,0.0082
2303.00,0.0081
2302.00,0.0081
2301.00,0.0080
2300.00,0.0080
2299.00,0.0080
2298.00,0.0079
2297.00,0.0079
2296.00,0.0079
2295.00,0.0079
2294.00,0.0079
2293.00,0.0079
2292.00,0.0079
2291.00,0.0080
2290.00,0.0079
2289.00,0.0079
2288.00,0.0079
2287.00,0.0078
2286.00,0.0078
2285.00,0.0077
2284.00,0.0076
2283.00,0.0074
2282.00,0.0073
2281.00,0.0072
2280.00,0.0071
2279.00,0.0071
2278.00,0.0070
2277.00,0.0069
2276.00,0.0068
2275.00,0.0067
2274.00,0.0067
2273.00,0.0066
2272.00,0.0066
2271.00,0.0066
2270.00,0.0066
2269.00,0.0066
2268.00,0.0066
2267.00,0.0066
2266.00,0.0066
2265.00,0.0066
2264.00,0.0066
2263.00,0.0066
2262.00,0.0067
2261.00,0.0067
2260.00,0.0067
2259.00,0.0067
2258.00,0.0066
2257.00,0.0065
2256.00,0.0063
2255.00,0.0062
2254.00,0.0060
2253.00,0.0059
2252.00,0.0058
2251.00,0.0058
2250.00,0.0058
2249.00,0.0058
2248.00,0.0058
2247.00,0.0058
2246.00,0.0058
2245.00,0.0058
2244.00,0.0058
2243.00,0.0057
2242.00,0.0056
2241.00,0.0056
2240.00,0.0056
2239.00,0.0056
2238.00,0.0055
2237.00,0.0055
2236.00,0.0055
2235.00,0.0055
2234.00,0.0054
2233.00,0.0054
2232.00,0.0054
2231.00,0.0053
2230.00,0.0052
2229.00,0.0051
2228.00,0.0051
2227.00,0.0051
2226.00,0.0052
2225.00,0.0053
2224.00,0.0053
2223.00,0.0052
2222.00,0.0051
2221.00,0.0051
2220.00,0.0051
2219.00,0.0051
2218.00,0.0050
2217.00,0.0049
2216.00,0.0049
2215.00,0.0048
2214.00,0.0047
2213.00,0.0047
2212.00,0.0046
2211.00,0.0046
2210.00,0.0045
2209.00,0.0045
2208.00,0.0045
2207.00,0.0045
2206.00,0.0045
2205.00,0.0045
2204.00,0.0045
2203.00,0.0045
2202.00,0.0045
2201.00,0.0044
2200.00,0.0044
2199.00,0.0045
2198.00,0.0045
2197.00,0.0045
2196.00,0.0045
2195.00,0.0044
2194.00,0.0042
2193.00,0.0041
2192.00,0.0041
2191.00,0.0041
2190.00,0.0041
2189.00,0.0043
2188.00,0.0045
2187.00,0.0046
2186.00,0.0045
2185.00,0.0043
2184.00,0.0041
2183.00,0.0039
2182.00,0.0037
2181.00,0.0037
2180.00,0.0038
2179.00,0.0038
2178.00,0.0037
2177.00,0.0036
2176.00,0.0034
2175.00,0.0033
2174.00,0.0033
2173.00,0.0035
2172.00,0.0038
2171.00,0.0041
2170.00,0.0043
2169.00,0.0045
2168.00,0.0046
2167.00,0.0047
2166.00,0.0047
2165.00,0.0049
2164.00,0.0050
2163.00,0.0049
2162.00,0.0042
2161.00,0.0032
2160.00,0.0019
2159.00,0.0008
2158.00,0.0003
2157.00,0.0003
2156.00,0.0006
2155.00,0.0008
2154.00,0.0010
2153.00,0.0012
2152.00,0.0015
2151.00,0.0017
2150.00,0.0019
2149.00,0.0020
2148.00,0.0019
2147.00,0.0018
2146.00,0.0016
2145.00,0.0016
2144.00,0.0016
2143.00,0.0016
2142.00,0.0016
2141.00,0.0017
2140.00,0.0017
2139.00,0.0016
2138.00,0.0015
2137.00,0.0013
2136.00,0.0011
2135.00,0.0010
2134.00,0.0009
2133.00,0.0010
2132.00,0.0012
2131.00,0.0013
2130.00,0.0014
2129.00,0.0015
2128.00,0.0016
2127.00,0.0017
2126.00,0.0017
2125.00,0.0018
2124.00,0.0020
2123.00,0.0021
2122.00,0.0021
2121.00,0.0021
2120.00,0.0022
2119.00,0.0022
2118.00,0.0022
2117.00,0.0023
2116.00,0.0023
2115.00,0.0023
2114.00,0.0023
2113.00,0.0023
2112.00,0.0023
2111.00,0.0023
2110.00,0.0023
2109.00,0.0023
2108.00,0.0023
2107.00,0.0022
2106.00,0.0022
2105.00,0.0021
2104.00,0.0021
2103.00,0.0021
2102.00,0.0020
2101.00,0.0020
2100.00,0.0020
2099.00,0.0020
2098.00,0.0019
2097.00,0.0019
2096.00,0.0019
2095.00,0.0018
2094.00,0.0018
2093.00,0.0018
2092.00,0.0019
2091.00,0.0020
2090.00,0.0020
2089.00,0.0021
2088.00,0.0022
2087.00,0.0022
2086.00,0.0023
2085.00,0.0023
2084.00,0.0023
2083.00,0.0022
2082.00,0.0021
2081.00,0.0021
2080.00,0.0021
2079.00,0.0020
2078.00,0.0019
2077.00,0.0019
2076.00,0.0018
2075.00,0.0018
2074.00,0.0016
2073.00,0.0015
2072.00,0.0015
2071.00,0.0014
2070.00,0.0014
2069.00,0.0013
2068.00,0.0013
2067.00,0.0012
2066.00,0.0011
2065.00,0.0010
2064.00,0.0010
2063.00,0.0009
2062.00,0.0009
2061.00,0.0009
2060.00,0.0010
2059.00,0.0010
2058.00,0.0010
2057.00,0.0010
2056.00,0.0010
2055.00,0.0011
2054.00,0.0013
2053.00,0.0017
2052.00,0.0021
2051.00,0.0021
2050.00,0.0018
2049.00,0.0015
2048.00,0.0013
2047.00,0.0011
2046.00,0.0009
2045.00,0.0008
2044.00,0.0008
2043.00,0.0010
2042.00,0.0010
2041.00,0.0011
2040.00,0.0012
2039.00,0.0012
2038.00,0.0012
2037.00,0.0013
2036.00,0.0013
2035.00,0.0012
2034.00,0.0009
2033.00,0.0007
2032.00,0.0006
2031.00,0.0005
2030.00,0.0003
2029.00,0.0002
2028.00,0.0002
2027.00,0.0004
2026.00,0.0005
2025.00,0.0008
2024.00,0.0010
2023.00,0.0011
2022.00,0.0010
2021.00,0.0009
2020.00,0.0010
2019.00,0.0010
2018.00,0.0010
2017.00,0.0010
2016.00,0.0009
2015.00,0.0008
2014.00,0.0006
2013.00,0.0006
2012.00,0.0008
2011.00,0.0008
2010.00,0.0006
2009.00,0.0005
2008.00,0.0004
2007.00,0.0004
2006.00,0.0003
2005.00,0.0005
2004.00,0.0007
2003.00,0.0007
2002.00,0.0006
2001.00,0.0005
2000.00,0.0006
1999.00,0.0007
1998.00,0.0009
1997.00,0.0011
1996.00,0.0014
1995.00,0.0015
1994.00,0.0016
1993.00,0.0017
1992.00,0.0018
1991.00,0.0019
1990.00,0.0019
1989.00,0.0021
1988.00,0.0023
1987.00,0.0023
1986.00,0.0022
1985.00,0.0022
1984.00,0.0024
1983.00,0.0027
1982.00,0.0028
1981.00,0.0029
1980.00,0.0027
1979.00,0.0022
1978.00,0.0016
1977.00,0.0012
1976.00,0.0010
1975.00,0.0008
1974.00,0.0007
1973.00,0.0007
1972.00,0.0008
1971.00,0.0008
1970.00,0.0007
1969.00,0.0008
1968.00,0.0010
1967.00,0.0011
1966.00,0.0011
1965.00,0.0011
1964.00,0.0012
1963.00,0.0011
1962.00,0.0010
1961.00,0.0010
1960.00,0.0009
1959.00,0.0009
1958.00,0.0008
1957.00,0.0009
1956.00,0.0010
1955.00,0.0010
1954.00,0.0010
1953.00,0.0010
1952.00,0.0011
1951.00,0.0012
1950.00,0.0013
1949.00,0.0014
1948.00,0.0015
1947.00,0.0015
1946.00,0.0015
1945.00,0.0014
1944.00,0.0015
1943.00,0.0015
1942.00,0.0015
1941.00,0.0015
1940.00,0.0016
1939.00,0.0015
1938.00,0.0014
1937.00,0.0014
1936.00,0.0015
1935.00,0.0015
1934.00,0.0016
1933.00,0.0016
1932.00,0.0018
1931.00,0.0018
1930.00,0.0018
1929.00,0.0018
1928.00,0.0019
1927.00,0.0019
1926.00,0.0018
1925.00,0.0018
1924.00,0.0018
1923.00,0.0018
1922.00,0.0019
1921.00,0.0020
1920.00,0.0022
1919.00,0.0023
1918.00,0.0022
1917.00,0.0021
1916.00,0.0021
1915.00,0.0020
1914.00,0.0019
1913.00,0.0019
1912.00,0.0020
1911.00,0.0020
1910.00,0.0020
1909.00,0.0019
1908.00,0.0019
1907.00,0.0019
1906.00,0.0018
1905.00,0.0018
1904.00,0.0019
1903.00,0.0019
1902.00,0.0018
1901.00,0.0019
1900.00,0.0019
1899.00,0.0019
1898.00,0.0019
1897.00,0.0019
1896.00,0.0019
1895.00,0.0019
1894.00,0.0018
1893.00,0.0018
1892.00,0.0019
1891.00,0.0019
1890.00,0.0020
1889.00,0.0020
1888.00,0.0021
1887.00,0.0021
1886.00,0.0020
1885.00,0.0020
1884.00,0.0020
1883.00,0.0021
1882.00,0.0021
1881.00,0.0021
1880.00,0.0022
1879.00,0.0022
1878.00,0.0022
1877.00,0.0023
1876.00,0.0023
1875.00,0.0023
1874.00,0.0022
1873.00,0.0022
1872.00,0.0023
1871.00,0.0023
1870.00,0.0024
1869.00,0.0024
1868.00,0.0024
1867.00,0.0023
1866.00,0.0023
1865.00,0.0023
1864.00,0.0023
1863.00,0.0023
1862.00,0.0023
1861.00,0.0023
1860.00,0.0024
1859.00,0.0024
1858.00,0.0024
1857.00,0.0024
1856.00,0.0024
1855.00,0.0024
1854.00,0.0024
1853.00,0.0024
1852.00,0.0024
1851.00,0.0025
1850.00,0.0025
1849.00,0.0025
1848.00,0.0026
1847.00,0.0026
1846.00,0.0027
1845.00,0.0027
1844.00,0.0028
1843.00,0.0028
1842.00,0.0028
1841.00,0.0027
1840.00,0.0028
1839.00,0.0028
1838.00,0.0028
1837.00,0.0028
1836.00,0.0028
1835.00,0.0028
1834.00,0.0028
1833.00,0.0028
1832.00,0.0028
1831.00,0.0028
1830.00,0.0028
1829.00,0.0028
1828.00,0.0029
1827.00,0.0030
1826.00,0.0031
1825.00,0.0031
1824.00,0.0031
1823.00,0.0031
1822.00,0.0030
1821.00,0.0030
1820.00,0.0030
1819.00,0.0029
1818.00,0.0028
1817.00,0.0028
1816.00,0.0028
1815.00,0.0029
1814.00,0.0030
1813.00,0.0031
1812.00,0.0031
1811.00,0.0032
1810.00,0.0032
1809.00,0.0033
1808.00,0.0034
1807.00,0.0034
1806.00,0.0035
1805.00,0.0036
1804.00,0.0038
1803.00,0.0039
1802.00,0.0039
1801.00,0.0039
1800.00,0.0039
1799.00,0.0040
1798.00,0.0040
1797.00,0.0040
1796.00,0.0041
1795.00,0.0041
1794.00,0.0042
1793.00,0.0044
1792.00,0.0046
1791.00,0.0048
1790.00,0.0049
1789.00,0.0051
1788.00,0.0053
1787.00,0.0056
1786.00,0.0059
1785.00,0.0060
1784.00,0.0060
1783.00,0.0059
1782.00,0.0058
1781.00,0.0057
1780.00,0.0056
1779.00,0.0056
1778.00,0.0056
1777.00,0.0057
1776.00,0.0058
1775.00,0.0059
1774.00,0.0059
1773.00,0.0059
1772.00,0.0059
1771.00,0.0058
1770.00,0.0057
1769.00,0.0057
1768.00,0.0056
1767.00,0.0054
1766.00,0.0052
1765.00,0.0052
1764.00,0.0052
1763.00,0.0053
1762.00,0.0053
1761.00,0.0052
1760.00,0.0052
1759.00,0.0052
1758.00,0.0052
1757.00,0.0052
1756.00,0.0052
1755.00,0.0051
1754.00,0.0051
1753.00,0.0052
1752.00,0.0053
1751.00,0.0054
1750.00,0.0053
1749.00,0.0053
1748.00,0.0053
1747.00,0.0053
1746.00,0.0053
1745.00,0.0053
1744.00,0.0054
1743.00,0.0053
1742.00,0.0052
1741.00,0.0052
1740.00,0.0053
1739.00,0.0053
1738.00,0.0053
1737.00,0.0054
1736.00,0.0056
1735.00,0.0058
1734.00,0.0059
1733.00,0.0059
1732.00,0.0060
1731.00,0.0061
1730.00,0.0062
1729.00,0.0062
1728.00,0.0063
1727.00,0.0064
1726.00,0.0064
1725.00,0.0065
1724.00,0.0066
1723.00,0.0067
1722.00,0.0067
1721.00,0.0067
1720.00,0.0067
1719.00,0.0068
1718.00,0.0069
1717.00,0.0070
1716.00,0.0072
1715.00,0.0073
1714.00,0.0073
1713.00,0.0074
1712.00,0.0075
1711.00,0.0076
1710.00,0.0076
1709.00,0.0077
1708.00,0.0078
1707.00,0.0079
1706.00,0.0080
1705.00,0.0082
1704.00,0.0083
1703.00,0.0083
1702.00,0.0084
1701.00,0.0084
1700.00,0.0086
1699.00,0.0087
1698.00,0.0087
1697.00,0.0088
1696.00,0.0091
1695.00,0.0092
1694.00,0.0093
1693.00,0.0093
1692.00,0.0095
1691.00,0.0096
1690.00,0.0097
1689.00,0.0098
1688.00,0.0098
1687.00,0.0098
1686.00,0.0098
1685.00,0.0100
1684.00,0.0105
1683.00,0.0109
1682.00,0.0111
1681.00,0.0113
1680.00,0.0116
1679.00,0.0118
1678.00,0.0120
1677.00,0.0123
1676.00,0.0128
1675.00,0.0133
1674.00,0.0136
1673.00,0.0140
1672.00,0.0144
1671.00,0.0151
1670.00,0.0158
1669.00,0.0168
1668.00,0.0178
1667.00,0.0186
1666.00,0.0193
1665.00,0.0200
1664.00,0.0211
1663.00,0.0223
1662.00,0.0235
1661.00,0.0247
1660.00,0.0259
1659.00,0.0271
1658.00,0.0283
1657.00,0.0295
1656.00,0.0308
1655.00,0.0325
1654.00,0.0356
1653.00,0.0407
1652.00,0.0459
1651.00,0.0494
1650.00,0.0523
1649.00,0.0562
1648.00,0.0629
1647.00,0.0731
1646.00,0.0854
1645.00,0.0971
1644.00,0.1076
1643.00,0.1171
1642.00,0.1260
1641.00,0.1341
1640.00,0.1414
1639.00,0.1480
1638.00,0.1547
1637.00,0.1635
1636.00,0.1760
1635.00,0.1892
1634.00,0.1988
1633.00,0.2040
1632.00,0.2065
1631.00,0.2066
1630.00,0.2042
1629.00,0.1989
1628.00,0.1913
1627.00,0.1826
1626.00,0.1737
1625.00,0.1646
1624.00,0.1547
1623.00,0.1439
1622.00,0.1334
1621.00,0.1240
1620.00,0.1154
1619.00,0.1072
1618.00,0.0988
1617.00,0.0904
1616.00,0.0830
1615.00,0.0773
1614.00,0.0731
1613.00,0.0697
1612.00,0.0665
1611.00,0.0636
1610.00,0.0611
1609.00,0.0593
1608.00,0.0579
1607.00,0.0568
1606.00,0.0562
1605.00,0.0560
1604.00,0.0561
1603.00,0.0566
1602.00,0.0575
1601.00,0.0590
1600.00,0.0609
1599.00,0.0632
1598.00,0.0663
1597.00,0.0703
1596.00,0.0755
1595.00,0.0819
1594.00,0.0899
1593.00,0.0996
1592.00,0.1110
1591.00,0.1239
1590.00,0.1379
1589.00,0.1525
1588.00,0.1670
1587.00,0.1808
1586.00,0.1934
1585.00,0.2051
1584.00,0.2158
1583.00,0.2250
1582.00,0.2323
1581.00,0.2375
1580.00,0.2408
1579.00,0.2419
1578.00,0.2411
1577.00,0.2391
1576.00,0.2365
1575.00,0.2332
1574.00,0.2289
1573.00,0.2242
1572.00,0.2193
1571.00,0.2135
1570.00,0.2065
1569.00,0.1991
1568.00,0.1923
1567.00,0.1858
1566.00,0.1787
1565.00,0.1710
1564.00,0.1636
1563.00,0.1570
1562.00,0.1508
1561.00,0.1444
1560.00,0.1364
1559.00,0.1264
1558.00,0.1174
1557.00,0.1113
1556.00,0.1065
1555.00,0.1016
1554.00,0.0965
1553.00,0.0916
1552.00,0.0874
1551.00,0.0835
1550.00,0.0795
1549.00,0.0758
1548.00,0.0726
1547.00,0.0699
1546.00,0.0673
1545.00,0.0648
1544.00,0.0624
1543.00,0.0602
1542.00,0.0583
1541.00,0.0565
1540.00,0.0551
1539.00,0.0540
1538.00,0.0532
1537.00,0.0525
1536.00,0.0520
1535.00,0.0516
1534.00,0.0516
1533.00,0.0520
1532.00,0.0526
1531.00,0.0534
1530.00,0.0545
1529.00,0.0560
1528.00,0.0580
1527.00,0.0602
1526.00,0.0621
1525.00,0.0634
1524.00,0.0641
1523.00,0.0642
1522.00,0.0640
1521.00,0.0632
1520.00,0.0620
1519.00,0.0604
1518.00,0.0584
1517.00,0.0563
1516.00,0.0542
1515.00,0.0523
1514.00,0.0505
1513.00,0.0488
1512.00,0.0471
1511.00,0.0454
1510.00,0.0438
1509.00,0.0423
1508.00,0.0408
1507.00,0.0391
1506.00,0.0376
1505.00,0.0364
1504.00,0.0356
1503.00,0.0349
1502.00,0.0341
1501.00,0.0332
1500.00,0.0324
1499.00,0.0316
1498.00,0.0309
1497.00,0.0303
1496.00,0.0299
1495.00,0.0295
1494.00,0.0290
1493.00,0.0287
1492.00,0.0286
1491.00,0.0285
1490.00,0.0283
1489.00,0.0281
1488.00,0.0282
1487.00,0.0282
1486.00,0.0284
1485.00,0.0287
1484.00,0.0291
1483.00,0.0298
1482.00,0.0305
1481.00,0.0316
1480.00,0.0329
1479.00,0.0342
1478.00,0.0357
1477.00,0.0374
1476.00,0.0392
1475.00,0.0412
1474.00,0.0436
1473.00,0.0475
1472.00,0.0531
1471.00,0.0592
1470.00,0.0648
1469.00,0.0696
1468.00,0.0731
1467.00,0.0749
1466.00,0.0752
1465.00,0.0753
1464.00,0.0762
1463.00,0.0783
1462.00,0.0814
1461.00,0.0854
1460.00,0.0903
1459.00,0.0966
1458.00,0.1056
1457.00,0.1177
1456.00,0.1297
1455.00,0.1394
1454.00,0.1484
1453.00,0.1591
1452.00,0.1720
1451.00,0.1861
1450.00,0.2008
1449.00,0.2163
1448.00,0.2319
1447.00,0.2455
1446.00,0.2561
1445.00,0.2641
1444.00,0.2692
1443.00,0.2709
1442.00,0.2691
1441.00,0.2643
1440.00,0.2571
1439.00,0.2482
1438.00,0.2379
1437.00,0.2269
1436.00,0.2159
1435.00,0.2060
1434.00,0.1973
1433.00,0.1887
1432.00,0.1792
1431.00,0.1684
1430.00,0.1568
1429.00,0.1453
1428.00,0.1345
1427.00,0.1251
1426.00,0.1167
1425.00,0.1091
1424.00,0.1023
1423.00,0.0968
1422.00,0.0927
1421.00,0.0895
1420.00,0.0869
1419.00,0.0849
1418.00,0.0835
1417.00,0.0824
1416.00,0.0815
1415.00,0.0810
1414.00,0.0807
1413.00,0.0804
1412.00,0.0804
1411.00,0.0805
1410.00,0.0808
1409.00,0.0811
1408.00,0.0816
1407.00,0.0823
1406.00,0.0832
1405.00,0.0842
1404.00,0.0851
1403.00,0.0859
1402.00,0.0865
1401.00,0.0869
1400.00,0.0870
1399.00,0.0870
1398.00,0.0865
1397.00,0.0857
1396.00,0.0844
1395.00,0.0828
1394.00,0.0810
1393.00,0.0791
1392.00,0.0772
1391.00,0.0755
1390.00,0.0741
1389.00,0.0728
1388.00,0.0717
1387.00,0.0712
1386.00,0.0714
1385.00,0.0725
1384.00,0.0749
1383.00,0.0791
1382.00,0.0855
1381.00,0.0936
1380.00,0.1028
1379.00,0.1117
1378.00,0.1186
1377.00,0.1225
1376.00,0.1230
1375.00,0.1203
1374.00,0.1153
1373.00,0.1098
1372.00,0.1055
1371.00,0.1031
1370.00,0.1023
1369.00,0.1027
1368.00,0.1035
1367.00,0.1038
1366.00,0.1030
1365.00,0.1012
1364.00,0.0987
1363.00,0.0962
1362.00,0.0941
1361.00,0.0928
1360.00,0.0923
1359.00,0.0926
1358.00,0.0938
1357.00,0.0961
1356.00,0.0994
1355.00,0.1037
1354.00,0.1086
1353.00,0.1134
1352.00,0.1179
1351.00,0.1215
1350.00,0.1242
1349.00,0.1253
1348.00,0.1247
1347.00,0.1226
1346.00,0.1194
1345.00,0.1159
1344.00,0.1126
1343.00,0.1101
1342.00,0.1084
1341.00,0.1076
1340.00,0.1079
1339.00,0.1090
1338.00,0.1107
1337.00,0.1124
1336.00,0.1134
1335.00,0.1132
1334.00,0.1116
1333.00,0.1087
1332.00,0.1053
1331.00,0.1023
1330.00,0.1005
1329.00,0.1002
1328.00,0.1017
1327.00,0.1049
1326.00,0.1098
1325.00,0.1161
1324.00,0.1237
1323.00,0.1321
1322.00,0.1408
1321.00,0.1489
1320.00,0.1552
1319.00,0.1586
1318.00,0.1583
1317.00,0.1547
1316.00,0.1488
1315.00,0.1421
1314.00,0.1353
1313.00,0.1291
1312.00,0.1236
1311.00,0.1192
1310.00,0.1159
1309.00,0.1139
1308.00,0.1135
1307.00,0.1144
1306.00,0.1157
1305.00,0.1166
1304.00,0.1163
1303.00,0.1147
1302.00,0.1121
1301.00,0.1095
1300.00,0.1073
1299.00,0.1060
1298.00,0.1055
1297.00,0.1055
1296.00,0.1056
1295.00,0.1058
1294.00,0.1062
1293.00,0.1073
1292.00,0.1094
1291.00,0.1125
1290.00,0.1165
1289.00,0.1209
1288.00,0.1255
1287.00,0.1300
1286.00,0.1347
1285.00,0.1399
1284.00,0.1456
1283.00,0.1517
1282.00,0.1571
1281.00,0.1610
1280.00,0.1622
1279.00,0.1601
1278.00,0.1547
1277.00,0.1469
1276.00,0.1376
1275.00,0.1278
1274.00,0.1182
1273.00,0.1093
1272.00,0.1013
1271.00,0.0942
1270.00,0.0878
1269.00,0.0820
1268.00,0.0768
1267.00,0.0723
1266.00,0.0683
1265.00,0.0648
1264.00,0.0620
1263.00,0.0597
1262.00,0.0580
1261.00,0.0568
1260.00,0.0563
1259.00,0.0566
1258.00,0.0579
1257.00,0.0603
1256.00,0.0640
1255.00,0.0687
1254.00,0.0738
1253.00,0.0787
1252.00,0.0829
1251.00,0.0864
1250.00,0.0900
1249.00,0.0946
1248.00,0.1008
1247.00,0.1084
1246.00,0.1164
1245.00,0.1236
1244.00,0.1286
1243.00,0.1309
1242.00,0.1307
1241.00,0.1284
1240.00,0.1251
1239.00,0.1213
1238.00,0.1173
1237.00,0.1131
1236.00,0.1089
1235.00,0.1050
1234.00,0.1017
1233.00,0.0995
1232.00,0.0988
1231.00,0.0997
1230.00,0.1018
1229.00,0.1044
1228.00,0.1068
1227.00,0.1084
1226.00,0.1092
1225.00,0.1095
1224.00,0.1100
1223.00,0.1112
1222.00,0.1137
1221.00,0.1176
1220.00,0.1227
1219.00,0.1282
1218.00,0.1332
1217.00,0.1368
1216.00,0.1384
1215.00,0.1378
1214.00,0.1354
1213.00,0.1319
1212.00,0.1284
1211.00,0.1263
1210.00,0.1270
1209.00,0.1312
1208.00,0.1386
1207.00,0.1472
1206.00,0.1536
1205.00,0.1552
1204.00,0.1507
1203.00,0.1412
1202.00,0.1288
1201.00,0.1157
1200.00,0.1033
1199.00,0.0925
1198.00,0.0834
1197.00,0.0762
1196.00,0.0706
1195.00,0.0665
1194.00,0.0638
1193.00,0.0624
1192.00,0.0619
1191.00,0.0621
1190.00,0.0626
1189.00,0.0629
1188.00,0.0630
1187.00,0.0629
1186.00,0.0628
1185.00,0.0628
1184.00,0.0630
1183.00,0.0635
1182.00,0.0647
1181.00,0.0669
1180.00,0.0704
1179.00,0.0756
1178.00,0.0825
1177.00,0.0907
1176.00,0.0996
1175.00,0.1091
1174.00,0.1188
1173.00,0.1277
1172.00,0.1339
1171.00,0.1354
1170.00,0.1314
1169.00,0.1230
1168.00,0.1123
1167.00,0.1012
1166.00,0.0910
1165.00,0.0821
1164.00,0.0748
1163.00,0.0689
1162.00,0.0644
1161.00,0.0611
1160.00,0.0588
1159.00,0.0575
1158.00,0.0570
1157.00,0.0574
1156.00,0.0589
1155.00,0.0619
1154.00,0.0669
1153.00,0.0747
1152.00,0.0853
1151.00,0.0976
1150.00,0.1088
1149.00,0.1151
1148.00,0.1136
1147.00,0.1042
1146.00,0.0899
1145.00,0.0746
1144.00,0.0615
1143.00,0.0517
1142.00,0.0451
1141.00,0.0409
1140.00,0.0385
1139.00,0.0373
1138.00,0.0370
1137.00,0.0369
1136.00,0.0369
1135.00,0.0365
1134.00,0.0357
1133.00,0.0344
1132.00,0.0327
1131.00,0.0308
1130.00,0.0289
1129.00,0.0272
1128.00,0.0257
1127.00,0.0244
1126.00,0.0233
1125.00,0.0224
1124.00,0.0216
1123.00,0.0211
1122.00,0.0207
1121.00,0.0205
1120.00,0.0203
1119.00,0.0203
1118.00,0.0204
1117.00,0.0206
1116.00,0.0209
1115.00,0.0214
1114.00,0.0220
1113.00,0.0228
1112.00,0.0238
1111.00,0.0249
1110.00,0.0262
1109.00,0.0276
1108.00,0.0291
1107.00,0.0307
1106.00,0.0324
1105.00,0.0343
1104.00,0.0365
1103.00,0.0389
1102.00,0.0415
1101.00,0.0439
1100.00,0.0455
1099.00,0.0461
1098.00,0.0455
1097.00,0.0437
1096.00,0.0414
1095.00,0.0390
1094.00,0.0369
1093.00,0.0351
1092.00,0.0334
1091.00,0.0320
1090.00,0.0308
1089.00,0.0300
1088.00,0.0297
1087.00,0.0298
1086.00,0.0304
1085.00,0.0314
1084.00,0.0325
1083.00,0.0337
1082.00,0.0347
1081.00,0.0355
1080.00,0.0357
1079.00,0.0353
1078.00,0.0343
1077.00,0.0329
1076.00,0.0314
1075.00,0.0301
1074.00,0.0290
1073.00,0.0282
1072.00,0.0277
1071.00,0.0273
1070.00,0.0273
1069.00,0.0275
1068.00,0.0280
1067.00,0.0289
1066.00,0.0302
1065.00,0.0321
1064.00,0.0346
1063.00,0.0379
1062.00,0.0422
1061.00,0.0476
1060.00,0.0544
1059.00,0.0629
1058.00,0.0735
1057.00,0.0864
1056.00,0.1012
1055.00,0.1161
1054.00,0.1277
1053.00,0.1331
1052.00,0.1311
1051.00,0.1230
1050.00,0.1117
1049.00,0.1000
1048.00,0.0896
1047.00,0.0817
1046.00,0.0766
1045.00,0.0742
1044.00,0.0741
1043.00,0.0758
1042.00,0.0791
1041.00,0.0837
1040.00,0.0899
1039.00,0.0979
1038.00,0.1077
1037.00,0.1194
1036.00,0.1322
1035.00,0.1449
1034.00,0.1562
1033.00,0.1649
1032.00,0.1701
1031.00,0.1720
1030.00,0.1707
1029.00,0.1669
1028.00,0.1611
1027.00,0.1542
1026.00,0.1467
1025.00,0.1394
1024.00,0.1327
1023.00,0.1272
1022.00,0.1231
1021.00,0.1201
1020.00,0.1177
1019.00,0.1148
1018.00,0.1107
1017.00,0.1053
1016.00,0.0990
1015.00,0.0926
1014.00,0.0867
1013.00,0.0815
1012.00,0.0773
1011.00,0.0742
1010.00,0.0718
1009.00,0.0700
1008.00,0.0683
1007.00,0.0666
1006.00,0.0650
1005.00,0.0639
1004.00,0.0634
1003.00,0.0639
1002.00,0.0654
1001.00,0.0677
1000.00,0.0698
999.00,0.0705
998.00,0.0687
997.00,0.0646
996.00,0.0594
995.00,0.0545
994.00,0.0508
993.00,0.0483
992.00,0.0470
991.00,0.0468
990.00,0.0473
989.00,0.0483
988.00,0.0495
987.00,0.0506
986.00,0.0513
985.00,0.0513
984.00,0.0503
983.00,0.0484
982.00,0.0459
981.00,0.0433
980.00,0.0410
979.00,0.0391
978.00,0.0377
977.00,0.0366
976.00,0.0358
975.00,0.0353
974.00,0.0350
973.00,0.0351
972.00,0.0356
971.00,0.0363
970.00,0.0371
969.00,0.0382
968.00,0.0394
967.00,0.0409
966.00,0.0430
965.00,0.0458
964.00,0.0493
963.00,0.0533
962.00,0.0572
961.00,0.0603
960.00,0.0619
959.00,0.0620
958.00,0.0606
957.00,0.0583
956.00,0.0554
955.00,0.0525
954.00,0.0497
953.00,0.0475
952.00,0.0457
951.00,0.0442
950.00,0.0430
949.00,0.0421
948.00,0.0414
947.00,0.0411
946.00,0.0410
945.00,0.0412
944.00,0.0416
943.00,0.0420
942.00,0.0422
941.00,0.0419
940.00,0.0410
939.00,0.0397
938.00,0.0383
937.00,0.0370
936.00,0.0359
935.00,0.0352
934.00,0.0350
933.00,0.0352
932.00,0.0359
931.00,0.0370
930.00,0.0383
929.00,0.0398
928.00,0.0414
927.00,0.0429
926.00,0.0441
925.00,0.0452
924.00,0.0460
923.00,0.0470
922.00,0.0484
921.00,0.0503
920.00,0.0527
919.00,0.0553
918.00,0.0579
917.00,0.0604
916.00,0.0627
915.00,0.0646
914.00,0.0654
913.00,0.0647
912.00,0.0625
911.00,0.0597
910.00,0.0572
909.00,0.0559
908.00,0.0562
907.00,0.0582
906.00,0.0618
905.00,0.0668
904.00,0.0725
903.00,0.0781
902.00,0.0830
901.00,0.0869
900.00,0.0898
899.00,0.0920
898.00,0.0937
897.00,0.0951
896.00,0.0967
895.00,0.0996
894.00,0.1059
893.00,0.1174
892.00,0.1342
891.00,0.1532
890.00,0.1679
889.00,0.1740
888.00,0.1727
887.00,0.1704
886.00,0.1719
885.00,0.1759
884.00,0.1763
883.00,0.1680
882.00,0.1520
881.00,0.1335
880.00,0.1172
879.00,0.1050
878.00,0.0966
877.00,0.0907
876.00,0.0864
875.00,0.0832
874.00,0.0811
873.00,0.0800
872.00,0.0801
871.00,0.0812
870.00,0.0829
869.00,0.0851
868.00,0.0881
867.00,0.0923
866.00,0.0988
865.00,0.1078
864.00,0.1189
863.00,0.1307
862.00,0.1408
861.00,0.1473
860.00,0.1500
859.00,0.1503
858.00,0.1502
857.00,0.1506
856.00,0.1509
855.00,0.1499
854.00,0.1468
853.00,0.1421
852.00,0.1369
851.00,0.1323
850.00,0.1286
849.00,0.1261
848.00,0.1246
847.00,0.1240
846.00,0.1242
845.00,0.1250
844.00,0.1258
843.00,0.1262
842.00,0.1263
841.00,0.1269
840.00,0.1284
839.00,0.1301
838.00,0.1302
837.00,0.1276
836.00,0.1226
835.00,0.1167
834.00,0.1117
833.00,0.1084
832.00,0.1073
831.00,0.1081
830.00,0.1101
829.00,0.1121
828.00,0.1125
827.00,0.1100
826.00,0.1047
825.00,0.0974
824.00,0.0898
823.00,0.0829
822.00,0.0771
821.00,0.0723
820.00,0.0682
819.00,0.0647
818.00,0.0618
817.00,0.0595
816.00,0.0580
815.00,0.0572
814.00,0.0569
813.00,0.0572
812.00,0.0578
811.00,0.0587
810.00,0.0603
809.00,0.0632
808.00,0.0683
807.00,0.0760
806.00,0.0857
805.00,0.0951
804.00,0.1012
803.00,0.1024
802.00,0.0995
801.00,0.0950
800.00,0.0914
799.00,0.0900
798.00,0.0910
797.00,0.0936
796.00,0.0966
795.00,0.0983
794.00,0.0975
793.00,0.0940
792.00,0.0883
791.00,0.0818
790.00,0.0757
789.00,0.0706
788.00,0.0668
787.00,0.0643
786.00,0.0625
785.00,0.0612
784.00,0.0598
783.00,0.0585
782.00,0.0573
781.00,0.0563
780.00,0.0559
779.00,0.0559
778.00,0.0563
777.00,0.0570
776.00,0.0579
775.00,0.0591
774.00,0.0605
773.00,0.0619
772.00,0.0632
771.00,0.0640
770.00,0.0644
769.00,0.0642
768.00,0.0635
767.00,0.0625
766.00,0.0612
765.00,0.0598
764.00,0.0585
763.00,0.0573
762.00,0.0563
761.00,0.0555
760.00,0.0551
759.00,0.0551
758.00,0.0554
757.00,0.0559
756.00,0.0567
755.00,0.0575
754.00,0.0579
753.00,0.0577
752.00,0.0567
751.00,0.0554
750.00,0.0542
749.00,0.0534
748.00,0.0527
747.00,0.0520
746.00,0.0511
745.00,0.0502
744.00,0.0495
743.00,0.0493
742.00,0.0496
741.00,0.0504
740.00,0.0519
739.00,0.0541
738.00,0.0568
737.00,0.0602
736.00,0.0641
735.00,0.0683
734.00,0.0720
733.00,0.0745
732.00,0.0747
731.00,0.0727
730.00,0.0692
729.00,0.0652
728.00,0.0617
727.00,0.0590
726.00,0.0571
725.00,0.0557
724.00,0.0547
723.00,0.0537
722.00,0.0529
721.00,0.0522
720.00,0.0517
719.00,0.0513
718.00,0.0509
717.00,0.0507
716.00,0.0505
715.00,0.0504
714.00,0.0506
713.00,0.0507
712.00,0.0508
711.00,0.0507
710.00,0.0504
709.00,0.0500
708.00,0.0496
707.00,0.0492
706.00,0.0488
705.00,0.0485
704.00,0.0484
703.00,0.0484
702.00,0.0484
701.00,0.0485
700.00,0.0486
699.00,0.0488
698.00,0.0490
697.00,0.0493
696.00,0.0496
695.00,0.0500
694.00,0.0504
693.00,0.0509
692.00,0.0516
691.00,0.0524
690.00,0.0534
689.00,0.0546
688.00,0.0559
687.00,0.0574
686.00,0.0591
685.00,0.0611
684.00,0.0632
683.00,0.0653
682.00,0.0675
681.00,0.0695
680.00,0.0714
679.00,0.0729
678.00,0.0740
677.00,0.0746
676.00,0.0747
675.00,0.0744
674.00,0.0741
673.00,0.0739
672.00,0.0741
671.00,0.0745
670.00,0.0747
669.00,0.0742
668.00,0.0723
667.00,0.0693
666.00,0.0661
665.00,0.0633
664.00,0.0609
663.00,0.0590
662.00,0.0576
661.00,0.0569
660.00,0.0565
659.00,0.0562
658.00,0.0560
657.00,0.0556
656.00,0.0552
655.00,0.0550
654.00,0.0552
653.00,0.0557
652.00,0.0566
651.00,0.0578
650.00,0.0588
649.00,0.0593
648.00,0.0591
647.00,0.0582
646.00,0.0570
645.00,0.0558
644.00,0.0548
643.00,0.0542
642.00,0.0540
641.00,0.0542
640.00,0.0546
639.00,0.0552
638.00,0.0560
637.00,0.0568
636.00,0.0576
635.00,0.0584
634.00,0.0589
633.00,0.0591
632.00,0.0591
631.00,0.0588
630.00,0.0583
629.00,0.0576
628.00,0.0568
627.00,0.0559
626.00,0.0551
625.00,0.0543
624.00,0.0536
623.00,0.0531
622.00,0.0526
621.00,0.0522
620.00,0.0521
619.00,0.0526
618.00,0.0539
617.00,0.0560
616.00,0.0583
615.00,0.0605
614.00,0.0620
613.00,0.0630
612.00,0.0641
611.00,0.0653
610.00,0.0659
609.00,0.0655
608.00,0.0642
607.00,0.0629
606.00,0.0623
605.00,0.0621
604.00,0.0620
603.00,0.0621
602.00,0.0623
601.00,0.0628
600.00,0.0634
599.00,0.0639
598.00,0.0646
597.00,0.0652
596.00,0.0659
595.00,0.0666
594.00,0.0671
593.00,0.0674
592.00,0.0675
591.00,0.0674
590.00,0.0673
589.00,0.0672
588.00,0.0670
587.00,0.0667
586.00,0.0666
585.00,0.0669
584.00,0.0681
583.00,0.0708
582.00,0.0760
581.00,0.0838
580.00,0.0932
579.00,0.1011
578.00,0.1044
577.00,0.1012
576.00,0.0930
575.00,0.0828
574.00,0.0737
573.00,0.0667
572.00,0.0618
571.00,0.0585
570.00,0.0563
569.00,0.0548
568.00,0.0537
567.00,0.0530
566.00,0.0528
565.00,0.0528
564.00,0.0532
563.00,0.0540
562.00,0.0552
561.00,0.0569
560.00,0.0588
559.00,0.0613
558.00,0.0647
557.00,0.0693
556.00,0.0758
555.00,0.0845
554.00,0.0945
553.00,0.1037
552.00,0.1094
551.00,0.1098
550.00,0.1053
549.00,0.0982
548.00,0.0913
547.00,0.0864
546.00,0.0838
545.00,0.0831
544.00,0.0833
543.00,0.0836
542.00,0.0841
541.00,0.0851
540.00,0.0875
539.00,0.0920
538.00,0.0987
537.00,0.1070
536.00,0.1152
535.00,0.1205
534.00,0.1210
533.00,0.1167
532.00,0.1094
531.00,0.1021
530.00,0.0972
529.00,0.0962
528.00,0.0991
527.00,0.1043
526.00,0.1091
525.00,0.1113
524.00,0.1113
523.00,0.1102
522.00,0.1080
521.00,0.1039
520.00,0.0972
519.00,0.0891
518.00,0.0814
517.00,0.0755
516.00,0.0715
515.00,0.0692
514.00,0.0680
513.00,0.0677
512.00,0.0679
511.00,0.0683
510.00,0.0691
509.00,0.0703
508.00,0.0720
507.00,0.0741
506.00,0.0765
505.00,0.0792
504.00,0.0825
503.00,0.0867
502.00,0.0918
501.00,0.0975
500.00,0.1034
499.00,0.1096
498.00,0.1163
497.00,0.1234
496.00,0.1306
495.00,0.1379
494.00,0.1451
493.00,0.1519
492.00,0.1582
491.00,0.1637
490.00,0.1683
489.00,0.1719
488.00,0.1746
487.00,0.1761
486.00,0.1765
485.00,0.1760
484.00,0.1752
483.00,0.1746
482.00,0.1744
481.00,0.1744
480.00,0.1746
479.00,0.1746
478.00,0.1746
477.00,0.1748
476.00,0.1750
475.00,0.1750
474.00,0.1745
473.00,0.1736
472.00,0.1726
471.00,0.1716
470.00,0.1708
469.00,0.1702
468.00,0.1699
467.00,0.1695
466.00,0.1689
465.00,0.1678
464.00,0.1658
463.00,0.1620
462.00,0.1565
461.00,0.1506
460.00,0.1455
459.00,0.1416
458.00,0.1390
457.00,0.1374
456.00,0.1361
455.00,0.1351
454.00,0.1342
453.00,0.1336
452.00,0.1331
451.00,0.1324
450.00,0.1311
449.00,0.1296
448.00,0.1281
447.00,0.1268
446.00,0.1254
445.00,0.1238
444.00,0.1220
443.00,0.1204
442.00,0.1190
441.00,0.1180
440.00,0.1174
439.00,0.1172
438.00,0.1172
437.00,0.1172
436.00,0.1168
435.00,0.1159
434.00,0.1142
433.00,0.1119
432.00,0.1092
431.00,0.1067
430.00,0.1045
429.00,0.1028
428.00,0.1016
427.00,0.1009
426.00,0.1004
425.00,0.0998
424.00,0.0992
423.00,0.0987
422.00,0.0983
421.00,0.0978
420.00,0.0970
419.00,0.0955
418.00,0.0939
417.00,0.0923
416.00,0.0909
415.00,0.0900
414.00,0.0897
413.00,0.0895
412.00,0.0892
411.00,0.0887
410.00,0.0881
409.00,0.0876
408.00,0.0875
407.00,0.0877
406.00,0.0882
405.00,0.0888
404.00,0.0894
403.00,0.0900
402.00,0.0907
401.00,0.0919
400.00,0.0937
