Created as New Dataset,Sample 799 By YargerLab Date Wednesday, July 09 2025
cm-1,A
4000.00,0.0052
3999.00,0.0052
3998.00,0.0052
3997.00,0.0052
3996.00,0.0052
3995.00,0.0052
3994.00,0.0052
3993.00,0.0052
3992.00,0.0052
3991.00,0.0052
3990.00,0.0053
3989.00,0.0052
3988.00,0.0052
3987.00,0.0052
3986.00,0.0052
3985.00,0.0052
3984.00,0.0052
3983.00,0.0052
3982.00,0.0052
3981.00,0.0052
3980.00,0.0052
3979.00,0.0053
3978.00,0.0053
3977.00,0.0053
3976.00,0.0053
3975.00,0.0053
3974.00,0.0053
3973.00,0.0053
3972.00,0.0053
3971.00,0.0053
3970.00,0.0053
3969.00,0.0053
3968.00,0.0054
3967.00,0.0054
3966.00,0.0054
3965.00,0.0054
3964.00,0.0054
3963.00,0.0054
3962.00,0.0054
3961.00,0.0054
3960.00,0.0054
3959.00,0.0054
3958.00,0.0054
3957.00,0.0054
3956.00,0.0054
3955.00,0.0054
3954.00,0.0054
3953.00,0.0054
3952.00,0.0054
3951.00,0.0054
3950.00,0.0054
3949.00,0.0054
3948.00,0.0054
3947.00,0.0054
3946.00,0.0054
3945.00,0.0054
3944.00,0.0054
3943.00,0.0054
3942.00,0.0054
3941.00,0.0054
3940.00,0.0054
3939.00,0.0054
3938.00,0.0054
3937.00,0.0054
3936.00,0.0054
3935.00,0.0054
3934.00,0.0054
3933.00,0.0054
3932.00,0.0054
3931.00,0.0054
3930.00,0.0055
3929.00,0.0055
3928.00,0.0055
3927.00,0.0055
3926.00,0.0055
3925.00,0.0055
3924.00,0.0055
3923.00,0.0055
3922.00,0.0055
3921.00,0.0055
3920.00,0.0055
3919.00,0.0055
3918.00,0.0055
3917.00,0.0055
3916.00,0.0054
3915.00,0.0054
3914.00,0.0054
3913.00,0.0054
3912.00,0.0054
3911.00,0.0054
3910.00,0.0054
3909.00,0.0053
3908.00,0.0053
3907.00,0.0053
3906.00,0.0053
3905.00,0.0053
3904.00,0.0053
3903.00,0.0053
3902.00,0.0053
3901.00,0.0052
3900.00,0.0052
3899.00,0.0052
3898.00,0.0052
3897.00,0.0052
3896.00,0.0052
3895.00,0.0052
3894.00,0.0052
3893.00,0.0052
3892.00,0.0052
3891.00,0.0052
3890.00,0.0052
3889.00,0.0052
3888.00,0.0052
3887.00,0.0052
3886.00,0.0052
3885.00,0.0052
3884.00,0.0052
3883.00,0.0052
3882.00,0.0052
3881.00,0.0052
3880.00,0.0052
3879.00,0.0052
3878.00,0.0052
3877.00,0.0052
3876.00,0.0052
3875.00,0.0052
3874.00,0.0052
3873.00,0.0052
3872.00,0.0051
3871.00,0.0051
3870.00,0.0051
3869.00,0.0051
3868.00,0.0051
3867.00,0.0051
3866.00,0.0051
3865.00,0.0051
3864.00,0.0051
3863.00,0.0051
3862.00,0.0051
3861.00,0.0051
3860.00,0.0051
3859.00,0.0051
3858.00,0.0051
3857.00,0.0050
3856.00,0.0050
3855.00,0.0049
3854.00,0.0049
3853.00,0.0048
3852.00,0.0049
3851.00,0.0049
3850.00,0.0049
3849.00,0.0050
3848.00,0.0051
3847.00,0.0051
3846.00,0.0051
3845.00,0.0051
3844.00,0.0051
3843.00,0.0051
3842.00,0.0051
3841.00,0.0050
3840.00,0.0050
3839.00,0.0050
3838.00,0.0050
3837.00,0.0050
3836.00,0.0050
3835.00,0.0050
3834.00,0.0050
3833.00,0.0050
3832.00,0.0050
3831.00,0.0050
3830.00,0.0050
3829.00,0.0050
3828.00,0.0050
3827.00,0.0050
3826.00,0.0050
3825.00,0.0050
3824.00,0.0050
3823.00,0.0050
3822.00,0.0049
3821.00,0.0050
3820.00,0.0050
3819.00,0.0050
3818.00,0.0049
3817.00,0.0049
3816.00,0.0049
3815.00,0.0049
3814.00,0.0049
3813.00,0.0049
3812.00,0.0049
3811.00,0.0050
3810.00,0.0050
3809.00,0.0050
3808.00,0.0050
3807.00,0.0050
3806.00,0.0049
3805.00,0.0049
3804.00,0.0048
3803.00,0.0048
3802.00,0.0048
3801.00,0.0048
3800.00,0.0048
3799.00,0.0048
3798.00,0.0049
3797.00,0.0049
3796.00,0.0049
3795.00,0.0050
3794.00,0.0050
3793.00,0.0050
3792.00,0.0050
3791.00,0.0050
3790.00,0.0050
3789.00,0.0050
3788.00,0.0050
3787.00,0.0050
3786.00,0.0050
3785.00,0.0050
3784.00,0.0050
3783.00,0.0049
3782.00,0.0049
3781.00,0.0049
3780.00,0.0049
3779.00,0.0049
3778.00,0.0050
3777.00,0.0050
3776.00,0.0050
3775.00,0.0050
3774.00,0.0050
3773.00,0.0051
3772.00,0.0050
3771.00,0.0050
3770.00,0.0050
3769.00,0.0050
3768.00,0.0050
3767.00,0.0050
3766.00,0.0050
3765.00,0.0049
3764.00,0.0049
3763.00,0.0049
3762.00,0.0050
3761.00,0.0050
3760.00,0.0050
3759.00,0.0050
3758.00,0.0049
3757.00,0.0049
3756.00,0.0049
3755.00,0.0049
3754.00,0.0049
3753.00,0.0049
3752.00,0.0049
3751.00,0.0049
3750.00,0.0049
3749.00,0.0048
3748.00,0.0048
3747.00,0.0047
3746.00,0.0047
3745.00,0.0047
3744.00,0.0047
3743.00,0.0047
3742.00,0.0047
3741.00,0.0047
3740.00,0.0047
3739.00,0.0047
3738.00,0.0048
3737.00,0.0048
3736.00,0.0048
3735.00,0.0048
3734.00,0.0047
3733.00,0.0047
3732.00,0.0046
3731.00,0.0046
3730.00,0.0046
3729.00,0.0046
3728.00,0.0046
3727.00,0.0046
3726.00,0.0046
3725.00,0.0047
3724.00,0.0047
3723.00,0.0047
3722.00,0.0046
3721.00,0.0046
3720.00,0.0047
3719.00,0.0047
3718.00,0.0047
3717.00,0.0047
3716.00,0.0047
3715.00,0.0047
3714.00,0.0047
3713.00,0.0047
3712.00,0.0047
3711.00,0.0046
3710.00,0.0046
3709.00,0.0046
3708.00,0.0046
3707.00,0.0046
3706.00,0.0046
3705.00,0.0046
3704.00,0.0047
3703.00,0.0046
3702.00,0.0046
3701.00,0.0046
3700.00,0.0046
3699.00,0.0046
3698.00,0.0046
3697.00,0.0046
3696.00,0.0046
3695.00,0.0046
3694.00,0.0046
3693.00,0.0046
3692.00,0.0046
3691.00,0.0046
3690.00,0.0046
3689.00,0.0046
3688.00,0.0046
3687.00,0.0046
3686.00,0.0046
3685.00,0.0046
3684.00,0.0046
3683.00,0.0046
3682.00,0.0046
3681.00,0.0047
3680.00,0.0047
3679.00,0.0047
3678.00,0.0047
3677.00,0.0047
3676.00,0.0046
3675.00,0.0046
3674.00,0.0045
3673.00,0.0045
3672.00,0.0045
3671.00,0.0045
3670.00,0.0045
3669.00,0.0046
3668.00,0.0046
3667.00,0.0046
3666.00,0.0046
3665.00,0.0046
3664.00,0.0046
3663.00,0.0046
3662.00,0.0046
3661.00,0.0046
3660.00,0.0047
3659.00,0.0047
3658.00,0.0047
3657.00,0.0047
3656.00,0.0047
3655.00,0.0047
3654.00,0.0046
3653.00,0.0046
3652.00,0.0046
3651.00,0.0046
3650.00,0.0045
3649.00,0.0045
3648.00,0.0044
3647.00,0.0044
3646.00,0.0044
3645.00,0.0044
3644.00,0.0045
3643.00,0.0045
3642.00,0.0045
3641.00,0.0045
3640.00,0.0045
3639.00,0.0046
3638.00,0.0046
3637.00,0.0046
3636.00,0.0046
3635.00,0.0046
3634.00,0.0045
3633.00,0.0045
3632.00,0.0045
3631.00,0.0045
3630.00,0.0045
3629.00,0.0045
3628.00,0.0045
3627.00,0.0045
3626.00,0.0045
3625.00,0.0045
3624.00,0.0046
3623.00,0.0046
3622.00,0.0046
3621.00,0.0046
3620.00,0.0046
3619.00,0.0046
3618.00,0.0046
3617.00,0.0046
3616.00,0.0046
3615.00,0.0046
3614.00,0.0047
3613.00,0.0047
3612.00,0.0048
3611.00,0.0048
3610.00,0.0048
3609.00,0.0048
3608.00,0.0048
3607.00,0.0048
3606.00,0.0047
3605.00,0.0047
3604.00,0.0048
3603.00,0.0048
3602.00,0.0048
3601.00,0.0049
3600.00,0.0049
3599.00,0.0049
3598.00,0.0049
3597.00,0.0049
3596.00,0.0049
3595.00,0.0049
3594.00,0.0049
3593.00,0.0049
3592.00,0.0049
3591.00,0.0049
3590.00,0.0050
3589.00,0.0050
3588.00,0.0050
3587.00,0.0050
3586.00,0.0051
3585.00,0.0051
3584.00,0.0052
3583.00,0.0052
3582.00,0.0053
3581.00,0.0053
3580.00,0.0054
3579.00,0.0054
3578.00,0.0055
3577.00,0.0055
3576.00,0.0056
3575.00,0.0056
3574.00,0.0057
3573.00,0.0057
3572.00,0.0058
3571.00,0.0058
3570.00,0.0059
3569.00,0.0060
3568.00,0.0060
3567.00,0.0061
3566.00,0.0061
3565.00,0.0062
3564.00,0.0063
3563.00,0.0064
3562.00,0.0065
3561.00,0.0066
3560.00,0.0067
3559.00,0.0069
3558.00,0.0070
3557.00,0.0071
3556.00,0.0072
3555.00,0.0074
3554.00,0.0076
3553.00,0.0078
3552.00,0.0080
3551.00,0.0082
3550.00,0.0084
3549.00,0.0086
3548.00,0.0089
3547.00,0.0091
3546.00,0.0095
3545.00,0.0098
3544.00,0.0102
3543.00,0.0107
3542.00,0.0111
3541.00,0.0117
3540.00,0.0122
3539.00,0.0129
3538.00,0.0137
3537.00,0.0145
3536.00,0.0155
3535.00,0.0166
3534.00,0.0178
3533.00,0.0191
3532.00,0.0208
3531.00,0.0227
3530.00,0.0250
3529.00,0.0277
3528.00,0.0307
3527.00,0.0338
3526.00,0.0371
3525.00,0.0403
3524.00,0.0433
3523.00,0.0459
3522.00,0.0479
3521.00,0.0493
3520.00,0.0499
3519.00,0.0499
3518.00,0.0493
3517.00,0.0482
3516.00,0.0467
3515.00,0.0448
3514.00,0.0427
3513.00,0.0405
3512.00,0.0383
3511.00,0.0361
3510.00,0.0341
3509.00,0.0323
3508.00,0.0307
3507.00,0.0293
3506.00,0.0281
3505.00,0.0270
3504.00,0.0262
3503.00,0.0255
3502.00,0.0249
3501.00,0.0245
3500.00,0.0241
3499.00,0.0239
3498.00,0.0237
3497.00,0.0235
3496.00,0.0235
3495.00,0.0235
3494.00,0.0235
3493.00,0.0236
3492.00,0.0237
3491.00,0.0238
3490.00,0.0240
3489.00,0.0242
3488.00,0.0245
3487.00,0.0247
3486.00,0.0250
3485.00,0.0253
3484.00,0.0256
3483.00,0.0259
3482.00,0.0263
3481.00,0.0267
3480.00,0.0271
3479.00,0.0276
3478.00,0.0280
3477.00,0.0284
3476.00,0.0289
3475.00,0.0294
3474.00,0.0300
3473.00,0.0305
3472.00,0.0311
3471.00,0.0317
3470.00,0.0323
3469.00,0.0330
3468.00,0.0336
3467.00,0.0343
3466.00,0.0349
3465.00,0.0356
3464.00,0.0363
3463.00,0.0370
3462.00,0.0378
3461.00,0.0385
3460.00,0.0393
3459.00,0.0400
3458.00,0.0407
3457.00,0.0414
3456.00,0.0421
3455.00,0.0428
3454.00,0.0435
3453.00,0.0443
3452.00,0.0449
3451.00,0.0456
3450.00,0.0462
3449.00,0.0469
3448.00,0.0476
3447.00,0.0483
3446.00,0.0490
3445.00,0.0497
3444.00,0.0503
3443.00,0.0509
3442.00,0.0516
3441.00,0.0522
3440.00,0.0529
3439.00,0.0536
3438.00,0.0542
3437.00,0.0548
3436.00,0.0554
3435.00,0.0560
3434.00,0.0566
3433.00,0.0572
3432.00,0.0578
3431.00,0.0584
3430.00,0.0590
3429.00,0.0596
3428.00,0.0603
3427.00,0.0609
3426.00,0.0615
3425.00,0.0622
3424.00,0.0630
3423.00,0.0638
3422.00,0.0646
3421.00,0.0656
3420.00,0.0666
3419.00,0.0677
3418.00,0.0688
3417.00,0.0699
3416.00,0.0710
3415.00,0.0721
3414.00,0.0732
3413.00,0.0742
3412.00,0.0751
3411.00,0.0759
3410.00,0.0765
3409.00,0.0769
3408.00,0.0771
3407.00,0.0769
3406.00,0.0766
3405.00,0.0759
3404.00,0.0750
3403.00,0.0738
3402.00,0.0724
3401.00,0.0707
3400.00,0.0688
3399.00,0.0667
3398.00,0.0645
3397.00,0.0623
3396.00,0.0600
3395.00,0.0579
3394.00,0.0557
3393.00,0.0537
3392.00,0.0517
3391.00,0.0498
3390.00,0.0480
3389.00,0.0463
3388.00,0.0447
3387.00,0.0432
3386.00,0.0418
3385.00,0.0406
3384.00,0.0394
3383.00,0.0383
3382.00,0.0372
3381.00,0.0363
3380.00,0.0353
3379.00,0.0345
3378.00,0.0336
3377.00,0.0328
3376.00,0.0320
3375.00,0.0312
3374.00,0.0305
3373.00,0.0298
3372.00,0.0292
3371.00,0.0286
3370.00,0.0281
3369.00,0.0275
3368.00,0.0270
3367.00,0.0264
3366.00,0.0259
3365.00,0.0253
3364.00,0.0248
3363.00,0.0243
3362.00,0.0238
3361.00,0.0234
3360.00,0.0229
3359.00,0.0225
3358.00,0.0221
3357.00,0.0218
3356.00,0.0214
3355.00,0.0210
3354.00,0.0207
3353.00,0.0203
3352.00,0.0200
3351.00,0.0197
3350.00,0.0194
3349.00,0.0191
3348.00,0.0188
3347.00,0.0185
3346.00,0.0182
3345.00,0.0179
3344.00,0.0177
3343.00,0.0175
3342.00,0.0172
3341.00,0.0170
3340.00,0.0168
3339.00,0.0165
3338.00,0.0163
3337.00,0.0161
3336.00,0.0159
3335.00,0.0158
3334.00,0.0156
3333.00,0.0154
3332.00,0.0153
3331.00,0.0151
3330.00,0.0149
3329.00,0.0147
3328.00,0.0146
3327.00,0.0144
3326.00,0.0143
3325.00,0.0141
3324.00,0.0140
3323.00,0.0139
3322.00,0.0137
3321.00,0.0136
3320.00,0.0134
3319.00,0.0133
3318.00,0.0131
3317.00,0.0130
3316.00,0.0129
3315.00,0.0128
3314.00,0.0127
3313.00,0.0126
3312.00,0.0125
3311.00,0.0124
3310.00,0.0123
3309.00,0.0122
3308.00,0.0120
3307.00,0.0119
3306.00,0.0118
3305.00,0.0117
3304.00,0.0116
3303.00,0.0115
3302.00,0.0115
3301.00,0.0114
3300.00,0.0113
3299.00,0.0112
3298.00,0.0110
3297.00,0.0109
3296.00,0.0108
3295.00,0.0107
3294.00,0.0106
3293.00,0.0106
3292.00,0.0105
3291.00,0.0104
3290.00,0.0104
3289.00,0.0103
3288.00,0.0103
3287.00,0.0102
3286.00,0.0101
3285.00,0.0101
3284.00,0.0100
3283.00,0.0099
3282.00,0.0098
3281.00,0.0097
3280.00,0.0097
3279.00,0.0096
3278.00,0.0095
3277.00,0.0095
3276.00,0.0094
3275.00,0.0094
3274.00,0.0093
3273.00,0.0092
3272.00,0.0092
3271.00,0.0091
3270.00,0.0091
3269.00,0.0091
3268.00,0.0092
3267.00,0.0092
3266.00,0.0091
3265.00,0.0091
3264.00,0.0091
3263.00,0.0091
3262.00,0.0090
3261.00,0.0090
3260.00,0.0090
3259.00,0.0089
3258.00,0.0089
3257.00,0.0088
3256.00,0.0088
3255.00,0.0088
3254.00,0.0088
3253.00,0.0089
3252.00,0.0088
3251.00,0.0088
3250.00,0.0087
3249.00,0.0086
3248.00,0.0086
3247.00,0.0085
3246.00,0.0085
3245.00,0.0086
3244.00,0.0086
3243.00,0.0086
3242.00,0.0085
3241.00,0.0085
3240.00,0.0085
3239.00,0.0084
3238.00,0.0083
3237.00,0.0082
3236.00,0.0082
3235.00,0.0081
3234.00,0.0080
3233.00,0.0080
3232.00,0.0080
3231.00,0.0080
3230.00,0.0080
3229.00,0.0080
3228.00,0.0080
3227.00,0.0080
3226.00,0.0080
3225.00,0.0079
3224.00,0.0079
3223.00,0.0079
3222.00,0.0079
3221.00,0.0079
3220.00,0.0079
3219.00,0.0079
3218.00,0.0078
3217.00,0.0078
3216.00,0.0078
3215.00,0.0078
3214.00,0.0078
3213.00,0.0078
3212.00,0.0078
3211.00,0.0078
3210.00,0.0078
3209.00,0.0078
3208.00,0.0078
3207.00,0.0078
3206.00,0.0078
3205.00,0.0077
3204.00,0.0077
3203.00,0.0077
3202.00,0.0077
3201.00,0.0077
3200.00,0.0077
3199.00,0.0076
3198.00,0.0076
3197.00,0.0076
3196.00,0.0076
3195.00,0.0075
3194.00,0.0075
3193.00,0.0075
3192.00,0.0075
3191.00,0.0075
3190.00,0.0075
3189.00,0.0075
3188.00,0.0075
3187.00,0.0075
3186.00,0.0075
3185.00,0.0076
3184.00,0.0076
3183.00,0.0075
3182.00,0.0075
3181.00,0.0075
3180.00,0.0075
3179.00,0.0075
3178.00,0.0075
3177.00,0.0075
3176.00,0.0076
3175.00,0.0076
3174.00,0.0076
3173.00,0.0076
3172.00,0.0076
3171.00,0.0076
3170.00,0.0076
3169.00,0.0076
3168.00,0.0076
3167.00,0.0077
3166.00,0.0077
3165.00,0.0077
3164.00,0.0078
3163.00,0.0078
3162.00,0.0077
3161.00,0.0077
3160.00,0.0077
3159.00,0.0077
3158.00,0.0076
3157.00,0.0075
3156.00,0.0075
3155.00,0.0074
3154.00,0.0073
3153.00,0.0073
3152.00,0.0073
3151.00,0.0073
3150.00,0.0074
3149.00,0.0074
3148.00,0.0074
3147.00,0.0074
3146.00,0.0074
3145.00,0.0073
3144.00,0.0073
3143.00,0.0073
3142.00,0.0073
3141.00,0.0072
3140.00,0.0072
3139.00,0.0072
3138.00,0.0072
3137.00,0.0072
3136.00,0.0073
3135.00,0.0072
3134.00,0.0072
3133.00,0.0072
3132.00,0.0072
3131.00,0.0072
3130.00,0.0072
3129.00,0.0072
3128.00,0.0072
3127.00,0.0072
3126.00,0.0072
3125.00,0.0072
3124.00,0.0072
3123.00,0.0071
3122.00,0.0071
3121.00,0.0071
3120.00,0.0071
3119.00,0.0071
3118.00,0.0071
3117.00,0.0071
3116.00,0.0071
3115.00,0.0071
3114.00,0.0071
3113.00,0.0071
3112.00,0.0071
3111.00,0.0071
3110.00,0.0071
3109.00,0.0071
3108.00,0.0071
3107.00,0.0071
3106.00,0.0072
3105.00,0.0072
3104.00,0.0072
3103.00,0.0072
3102.00,0.0072
3101.00,0.0072
3100.00,0.0073
3099.00,0.0073
3098.00,0.0074
3097.00,0.0074
3096.00,0.0074
3095.00,0.0075
3094.00,0.0075
3093.00,0.0075
3092.00,0.0076
3091.00,0.0076
3090.00,0.0077
3089.00,0.0078
3088.00,0.0079
3087.00,0.0081
3086.00,0.0083
3085.00,0.0086
3084.00,0.0089
3083.00,0.0093
3082.00,0.0099
3081.00,0.0107
3080.00,0.0117
3079.00,0.0129
3078.00,0.0142
3077.00,0.0155
3076.00,0.0165
3075.00,0.0170
3074.00,0.0170
3073.00,0.0163
3072.00,0.0153
3071.00,0.0141
3070.00,0.0129
3069.00,0.0119
3068.00,0.0110
3067.00,0.0104
3066.00,0.0099
3065.00,0.0095
3064.00,0.0092
3063.00,0.0090
3062.00,0.0088
3061.00,0.0086
3060.00,0.0085
3059.00,0.0084
3058.00,0.0084
3057.00,0.0083
3056.00,0.0082
3055.00,0.0082
3054.00,0.0082
3053.00,0.0081
3052.00,0.0081
3051.00,0.0082
3050.00,0.0082
3049.00,0.0083
3048.00,0.0084
3047.00,0.0086
3046.00,0.0087
3045.00,0.0088
3044.00,0.0090
3043.00,0.0091
3042.00,0.0092
3041.00,0.0094
3040.00,0.0095
3039.00,0.0096
3038.00,0.0098
3037.00,0.0100
3036.00,0.0102
3035.00,0.0105
3034.00,0.0106
3033.00,0.0107
3032.00,0.0108
3031.00,0.0107
3030.00,0.0106
3029.00,0.0104
3028.00,0.0102
3027.00,0.0099
3026.00,0.0097
3025.00,0.0096
3024.00,0.0094
3023.00,0.0094
3022.00,0.0093
3021.00,0.0092
3020.00,0.0092
3019.00,0.0092
3018.00,0.0092
3017.00,0.0092
3016.00,0.0092
3015.00,0.0093
3014.00,0.0094
3013.00,0.0095
3012.00,0.0096
3011.00,0.0098
3010.00,0.0099
3009.00,0.0101
3008.00,0.0102
3007.00,0.0104
3006.00,0.0105
3005.00,0.0106
3004.00,0.0108
3003.00,0.0109
3002.00,0.0111
3001.00,0.0112
3000.00,0.0114
2999.00,0.0116
2998.00,0.0118
2997.00,0.0120
2996.00,0.0123
2995.00,0.0125
2994.00,0.0128
2993.00,0.0132
2992.00,0.0136
2991.00,0.0141
2990.00,0.0145
2989.00,0.0148
2988.00,0.0152
2987.00,0.0155
2986.00,0.0158
2985.00,0.0161
2984.00,0.0165
2983.00,0.0170
2982.00,0.0176
2981.00,0.0184
2980.00,0.0194
2979.00,0.0205
2978.00,0.0219
2977.00,0.0235
2976.00,0.0253
2975.00,0.0274
2974.00,0.0297
2973.00,0.0321
2972.00,0.0347
2971.00,0.0373
2970.00,0.0399
2969.00,0.0422
2968.00,0.0442
2967.00,0.0458
2966.00,0.0469
2965.00,0.0475
2964.00,0.0477
2963.00,0.0476
2962.00,0.0473
2961.00,0.0468
2960.00,0.0461
2959.00,0.0452
2958.00,0.0440
2957.00,0.0428
2956.00,0.0414
2955.00,0.0401
2954.00,0.0390
2953.00,0.0380
2952.00,0.0372
2951.00,0.0368
2950.00,0.0368
2949.00,0.0373
2948.00,0.0383
2947.00,0.0398
2946.00,0.0417
2945.00,0.0440
2944.00,0.0463
2943.00,0.0486
2942.00,0.0507
2941.00,0.0527
2940.00,0.0547
2939.00,0.0566
2938.00,0.0586
2937.00,0.0608
2936.00,0.0633
2935.00,0.0658
2934.00,0.0685
2933.00,0.0713
2932.00,0.0741
2931.00,0.0770
2930.00,0.0798
2929.00,0.0825
2928.00,0.0850
2927.00,0.0870
2926.00,0.0885
2925.00,0.0892
2924.00,0.0893
2923.00,0.0888
2922.00,0.0880
2921.00,0.0872
2920.00,0.0863
2919.00,0.0856
2918.00,0.0849
2917.00,0.0841
2916.00,0.0832
2915.00,0.0820
2914.00,0.0804
2913.00,0.0785
2912.00,0.0762
2911.00,0.0736
2910.00,0.0710
2909.00,0.0683
2908.00,0.0657
2907.00,0.0632
2906.00,0.0609
2905.00,0.0589
2904.00,0.0571
2903.00,0.0556
2902.00,0.0542
2901.00,0.0529
2900.00,0.0516
2899.00,0.0502
2898.00,0.0486
2897.00,0.0470
2896.00,0.0454
2895.00,0.0439
2894.00,0.0424
2893.00,0.0411
2892.00,0.0400
2891.00,0.0392
2890.00,0.0385
2889.00,0.0379
2888.00,0.0375
2887.00,0.0372
2886.00,0.0369
2885.00,0.0367
2884.00,0.0366
2883.00,0.0366
2882.00,0.0366
2881.00,0.0368
2880.00,0.0370
2879.00,0.0374
2878.00,0.0379
2877.00,0.0386
2876.00,0.0393
2875.00,0.0401
2874.00,0.0408
2873.00,0.0414
2872.00,0.0418
2871.00,0.0419
2870.00,0.0417
2869.00,0.0412
2868.00,0.0408
2867.00,0.0405
2866.00,0.0405
2865.00,0.0411
2864.00,0.0423
2863.00,0.0442
2862.00,0.0468
2861.00,0.0501
2860.00,0.0540
2859.00,0.0581
2858.00,0.0618
2857.00,0.0647
2856.00,0.0661
2855.00,0.0658
2854.00,0.0639
2853.00,0.0607
2852.00,0.0567
2851.00,0.0523
2850.00,0.0480
2849.00,0.0440
2848.00,0.0402
2847.00,0.0369
2846.00,0.0340
2845.00,0.0315
2844.00,0.0294
2843.00,0.0276
2842.00,0.0262
2841.00,0.0251
2840.00,0.0243
2839.00,0.0238
2838.00,0.0237
2837.00,0.0240
2836.00,0.0247
2835.00,0.0260
2834.00,0.0277
2833.00,0.0298
2832.00,0.0321
2831.00,0.0341
2830.00,0.0354
2829.00,0.0356
2828.00,0.0345
2827.00,0.0325
2826.00,0.0298
2825.00,0.0270
2824.00,0.0244
2823.00,0.0221
2822.00,0.0203
2821.00,0.0188
2820.00,0.0176
2819.00,0.0167
2818.00,0.0159
2817.00,0.0153
2816.00,0.0148
2815.00,0.0144
2814.00,0.0140
2813.00,0.0137
2812.00,0.0134
2811.00,0.0131
2810.00,0.0129
2809.00,0.0127
2808.00,0.0125
2807.00,0.0123
2806.00,0.0121
2805.00,0.0119
2804.00,0.0117
2803.00,0.0115
2802.00,0.0114
2801.00,0.0112
2800.00,0.0111
2799.00,0.0109
2798.00,0.0108
2797.00,0.0107
2796.00,0.0105
2795.00,0.0104
2794.00,0.0104
2793.00,0.0103
2792.00,0.0102
2791.00,0.0101
2790.00,0.0100
2789.00,0.0099
2788.00,0.0098
2787.00,0.0097
2786.00,0.0096
2785.00,0.0095
2784.00,0.0095
2783.00,0.0094
2782.00,0.0093
2781.00,0.0092
2780.00,0.0092
2779.00,0.0091
2778.00,0.0090
2777.00,0.0090
2776.00,0.0089
2775.00,0.0088
2774.00,0.0088
2773.00,0.0087
2772.00,0.0087
2771.00,0.0087
2770.00,0.0087
2769.00,0.0086
2768.00,0.0086
2767.00,0.0085
2766.00,0.0084
2765.00,0.0084
2764.00,0.0084
2763.00,0.0083
2762.00,0.0083
2761.00,0.0083
2760.00,0.0083
2759.00,0.0083
2758.00,0.0082
2757.00,0.0082
2756.00,0.0082
2755.00,0.0082
2754.00,0.0081
2753.00,0.0081
2752.00,0.0081
2751.00,0.0081
2750.00,0.0081
2749.00,0.0082
2748.00,0.0082
2747.00,0.0082
2746.00,0.0082
2745.00,0.0083
2744.00,0.0083
2743.00,0.0084
2742.00,0.0084
2741.00,0.0085
2740.00,0.0085
2739.00,0.0086
2738.00,0.0087
2737.00,0.0088
2736.00,0.0089
2735.00,0.0091
2734.00,0.0092
2733.00,0.0094
2732.00,0.0096
2731.00,0.0098
2730.00,0.0099
2729.00,0.0100
2728.00,0.0100
2727.00,0.0099
2726.00,0.0097
2725.00,0.0096
2724.00,0.0094
2723.00,0.0092
2722.00,0.0090
2721.00,0.0088
2720.00,0.0087
2719.00,0.0086
2718.00,0.0085
2717.00,0.0084
2716.00,0.0083
2715.00,0.0082
2714.00,0.0081
2713.00,0.0081
2712.00,0.0080
2711.00,0.0080
2710.00,0.0079
2709.00,0.0078
2708.00,0.0078
2707.00,0.0078
2706.00,0.0077
2705.00,0.0077
2704.00,0.0077
2703.00,0.0077
2702.00,0.0076
2701.00,0.0076
2700.00,0.0076
2699.00,0.0075
2698.00,0.0075
2697.00,0.0075
2696.00,0.0075
2695.00,0.0075
2694.00,0.0075
2693.00,0.0075
2692.00,0.0075
2691.00,0.0075
2690.00,0.0076
2689.00,0.0076
2688.00,0.0076
2687.00,0.0077
2686.00,0.0077
2685.00,0.0077
2684.00,0.0078
2683.00,0.0078
2682.00,0.0078
2681.00,0.0078
2680.00,0.0079
2679.00,0.0079
2678.00,0.0080
2677.00,0.0080
2676.00,0.0080
2675.00,0.0081
2674.00,0.0081
2673.00,0.0082
2672.00,0.0082
2671.00,0.0082
2670.00,0.0083
2669.00,0.0083
2668.00,0.0083
2667.00,0.0083
2666.00,0.0084
2665.00,0.0084
2664.00,0.0084
2663.00,0.0085
2662.00,0.0084
2661.00,0.0084
2660.00,0.0084
2659.00,0.0085
2658.00,0.0085
2657.00,0.0085
2656.00,0.0085
2655.00,0.0085
2654.00,0.0085
2653.00,0.0084
2652.00,0.0084
2651.00,0.0083
2650.00,0.0083
2649.00,0.0082
2648.00,0.0082
2647.00,0.0081
2646.00,0.0081
2645.00,0.0081
2644.00,0.0081
2643.00,0.0080
2642.00,0.0080
2641.00,0.0080
2640.00,0.0080
2639.00,0.0080
2638.00,0.0079
2637.00,0.0079
2636.00,0.0079
2635.00,0.0079
2634.00,0.0079
2633.00,0.0079
2632.00,0.0079
2631.00,0.0079
2630.00,0.0079
2629.00,0.0079
2628.00,0.0079
2627.00,0.0078
2626.00,0.0078
2625.00,0.0078
2624.00,0.0078
2623.00,0.0079
2622.00,0.0079
2621.00,0.0079
2620.00,0.0078
2619.00,0.0078
2618.00,0.0078
2617.00,0.0078
2616.00,0.0078
2615.00,0.0077
2614.00,0.0077
2613.00,0.0077
2612.00,0.0077
2611.00,0.0077
2610.00,0.0077
2609.00,0.0077
2608.00,0.0077
2607.00,0.0077
2606.00,0.0077
2605.00,0.0076
2604.00,0.0076
2603.00,0.0076
2602.00,0.0076
2601.00,0.0076
2600.00,0.0075
2599.00,0.0075
2598.00,0.0075
2597.00,0.0075
2596.00,0.0074
2595.00,0.0074
2594.00,0.0074
2593.00,0.0074
2592.00,0.0074
2591.00,0.0074
2590.00,0.0074
2589.00,0.0073
2588.00,0.0073
2587.00,0.0073
2586.00,0.0073
2585.00,0.0073
2584.00,0.0073
2583.00,0.0073
2582.00,0.0073
2581.00,0.0073
2580.00,0.0073
2579.00,0.0073
2578.00,0.0073
2577.00,0.0073
2576.00,0.0073
2575.00,0.0073
2574.00,0.0073
2573.00,0.0073
2572.00,0.0073
2571.00,0.0073
2570.00,0.0073
2569.00,0.0073
2568.00,0.0073
2567.00,0.0073
2566.00,0.0073
2565.00,0.0073
2564.00,0.0073
2563.00,0.0073
2562.00,0.0073
2561.00,0.0073
2560.00,0.0072
2559.00,0.0072
2558.00,0.0072
2557.00,0.0072
2556.00,0.0072
2555.00,0.0072
2554.00,0.0072
2553.00,0.0072
2552.00,0.0071
2551.00,0.0071
2550.00,0.0071
2549.00,0.0071
2548.00,0.0071
2547.00,0.0071
2546.00,0.0071
2545.00,0.0070
2544.00,0.0070
2543.00,0.0070
2542.00,0.0070
2541.00,0.0070
2540.00,0.0070
2539.00,0.0070
2538.00,0.0070
2537.00,0.0070
2536.00,0.0070
2535.00,0.0070
2534.00,0.0070
2533.00,0.0070
2532.00,0.0070
2531.00,0.0070
2530.00,0.0070
2529.00,0.0070
2528.00,0.0070
2527.00,0.0071
2526.00,0.0071
2525.00,0.0070
2524.00,0.0070
2523.00,0.0070
2522.00,0.0069
2521.00,0.0069
2520.00,0.0069
2519.00,0.0069
2518.00,0.0069
2517.00,0.0070
2516.00,0.0070
2515.00,0.0070
2514.00,0.0070
2513.00,0.0070
2512.00,0.0070
2511.00,0.0070
2510.00,0.0069
2509.00,0.0069
2508.00,0.0069
2507.00,0.0069
2506.00,0.0069
2505.00,0.0069
2504.00,0.0069
2503.00,0.0069
2502.00,0.0069
2501.00,0.0069
2500.00,0.0069
2499.00,0.0070
2498.00,0.0070
2497.00,0.0070
2496.00,0.0070
2495.00,0.0070
2494.00,0.0070
2493.00,0.0069
2492.00,0.0070
2491.00,0.0070
2490.00,0.0070
2489.00,0.0070
2488.00,0.0070
2487.00,0.0070
2486.00,0.0070
2485.00,0.0071
2484.00,0.0071
2483.00,0.0070
2482.00,0.0070
2481.00,0.0070
2480.00,0.0070
2479.00,0.0070
2478.00,0.0071
2477.00,0.0071
2476.00,0.0071
2475.00,0.0071
2474.00,0.0071
2473.00,0.0071
2472.00,0.0071
2471.00,0.0070
2470.00,0.0070
2469.00,0.0070
2468.00,0.0070
2467.00,0.0070
2466.00,0.0070
2465.00,0.0070
2464.00,0.0070
2463.00,0.0070
2462.00,0.0070
2461.00,0.0071
2460.00,0.0071
2459.00,0.0072
2458.00,0.0073
2457.00,0.0073
2456.00,0.0074
2455.00,0.0074
2454.00,0.0073
2453.00,0.0073
2452.00,0.0073
2451.00,0.0073
2450.00,0.0072
2449.00,0.0072
2448.00,0.0072
2447.00,0.0072
2446.00,0.0071
2445.00,0.0071
2444.00,0.0070
2443.00,0.0069
2442.00,0.0069
2441.00,0.0068
2440.00,0.0067
2439.00,0.0066
2438.00,0.0066
2437.00,0.0065
2436.00,0.0065
2435.00,0.0064
2434.00,0.0064
2433.00,0.0063
2432.00,0.0063
2431.00,0.0062
2430.00,0.0062
2429.00,0.0062
2428.00,0.0062
2427.00,0.0062
2426.00,0.0062
2425.00,0.0061
2424.00,0.0061
2423.00,0.0061
2422.00,0.0061
2421.00,0.0061
2420.00,0.0060
2419.00,0.0060
2418.00,0.0059
2417.00,0.0059
2416.00,0.0059
2415.00,0.0059
2414.00,0.0059
2413.00,0.0060
2412.00,0.0060
2411.00,0.0059
2410.00,0.0059
2409.00,0.0058
2408.00,0.0058
2407.00,0.0057
2406.00,0.0057
2405.00,0.0057
2404.00,0.0057
2403.00,0.0057
2402.00,0.0057
2401.00,0.0057
2400.00,0.0057
2399.00,0.0057
2398.00,0.0057
2397.00,0.0057
2396.00,0.0057
2395.00,0.0057
2394.00,0.0057
2393.00,0.0057
2392.00,0.0057
2391.00,0.0057
2390.00,0.0057
2389.00,0.0057
2388.00,0.0057
2387.00,0.0057
2386.00,0.0057
2385.00,0.0056
2384.00,0.0056
2383.00,0.0055
2382.00,0.0054
2381.00,0.0053
2380.00,0.0052
2379.00,0.0052
2378.00,0.0052
2377.00,0.0052
2376.00,0.0052
2375.00,0.0053
2374.00,0.0053
2373.00,0.0052
2372.00,0.0052
2371.00,0.0052
2370.00,0.0052
2369.00,0.0052
2368.00,0.0052
2367.00,0.0052
2366.00,0.0052
2365.00,0.0052
2364.00,0.0052
2363.00,0.0052
2362.00,0.0052
2361.00,0.0052
2360.00,0.0052
2359.00,0.0052
2358.00,0.0052
2357.00,0.0053
2356.00,0.0053
2355.00,0.0053
2354.00,0.0052
2353.00,0.0052
2352.00,0.0052
2351.00,0.0051
2350.00,0.0051
2349.00,0.0052
2348.00,0.0054
2347.00,0.0055
2346.00,0.0056
2345.00,0.0055
2344.00,0.0054
2343.00,0.0053
2342.00,0.0053
2341.00,0.0054
2340.00,0.0055
2339.00,0.0056
2338.00,0.0056
2337.00,0.0056
2336.00,0.0056
2335.00,0.0055
2334.00,0.0055
2333.00,0.0055
2332.00,0.0055
2331.00,0.0055
2330.00,0.0055
2329.00,0.0057
2328.00,0.0061
2327.00,0.0066
2326.00,0.0069
2325.00,0.0070
2324.00,0.0069
2323.00,0.0067
2322.00,0.0064
2321.00,0.0062
2320.00,0.0061
2319.00,0.0061
2318.00,0.0060
2317.00,0.0060
2316.00,0.0059
2315.00,0.0059
2314.00,0.0058
2313.00,0.0058
2312.00,0.0057
2311.00,0.0057
2310.00,0.0057
2309.00,0.0056
2308.00,0.0056
2307.00,0.0057
2306.00,0.0057
2305.00,0.0057
2304.00,0.0057
2303.00,0.0057
2302.00,0.0057
2301.00,0.0057
2300.00,0.0058
2299.00,0.0058
2298.00,0.0058
2297.00,0.0059
2296.00,0.0060
2295.00,0.0061
2294.00,0.0062
2293.00,0.0063
2292.00,0.0064
2291.00,0.0065
2290.00,0.0065
2289.00,0.0065
2288.00,0.0066
2287.00,0.0066
2286.00,0.0067
2285.00,0.0067
2284.00,0.0066
2283.00,0.0066
2282.00,0.0065
2281.00,0.0064
2280.00,0.0063
2279.00,0.0063
2278.00,0.0062
2277.00,0.0062
2276.00,0.0062
2275.00,0.0061
2274.00,0.0061
2273.00,0.0060
2272.00,0.0060
2271.00,0.0059
2270.00,0.0058
2269.00,0.0058
2268.00,0.0057
2267.00,0.0057
2266.00,0.0057
2265.00,0.0057
2264.00,0.0057
2263.00,0.0057
2262.00,0.0058
2261.00,0.0058
2260.00,0.0059
2259.00,0.0059
2258.00,0.0058
2257.00,0.0057
2256.00,0.0057
2255.00,0.0056
2254.00,0.0056
2253.00,0.0057
2252.00,0.0058
2251.00,0.0059
2250.00,0.0059
2249.00,0.0059
2248.00,0.0058
2247.00,0.0057
2246.00,0.0057
2245.00,0.0057
2244.00,0.0057
2243.00,0.0057
2242.00,0.0057
2241.00,0.0057
2240.00,0.0057
2239.00,0.0057
2238.00,0.0058
2237.00,0.0058
2236.00,0.0059
2235.00,0.0059
2234.00,0.0058
2233.00,0.0058
2232.00,0.0057
2231.00,0.0056
2230.00,0.0056
2229.00,0.0056
2228.00,0.0056
2227.00,0.0057
2226.00,0.0057
2225.00,0.0057
2224.00,0.0056
2223.00,0.0055
2222.00,0.0054
2221.00,0.0054
2220.00,0.0054
2219.00,0.0055
2218.00,0.0055
2217.00,0.0056
2216.00,0.0056
2215.00,0.0056
2214.00,0.0054
2213.00,0.0053
2212.00,0.0052
2211.00,0.0052
2210.00,0.0052
2209.00,0.0052
2208.00,0.0053
2207.00,0.0054
2206.00,0.0055
2205.00,0.0055
2204.00,0.0055
2203.00,0.0054
2202.00,0.0053
2201.00,0.0053
2200.00,0.0053
2199.00,0.0053
2198.00,0.0053
2197.00,0.0054
2196.00,0.0055
2195.00,0.0055
2194.00,0.0056
2193.00,0.0056
2192.00,0.0057
2191.00,0.0058
2190.00,0.0058
2189.00,0.0058
2188.00,0.0058
2187.00,0.0058
2186.00,0.0058
2185.00,0.0056
2184.00,0.0054
2183.00,0.0051
2182.00,0.0049
2181.00,0.0049
2180.00,0.0051
2179.00,0.0052
2178.00,0.0052
2177.00,0.0050
2176.00,0.0048
2175.00,0.0047
2174.00,0.0048
2173.00,0.0050
2172.00,0.0053
2171.00,0.0056
2170.00,0.0058
2169.00,0.0060
2168.00,0.0061
2167.00,0.0063
2166.00,0.0063
2165.00,0.0064
2164.00,0.0065
2163.00,0.0063
2162.00,0.0056
2161.00,0.0044
2160.00,0.0030
2159.00,0.0019
2158.00,0.0014
2157.00,0.0015
2156.00,0.0019
2155.00,0.0022
2154.00,0.0024
2153.00,0.0027
2152.00,0.0029
2151.00,0.0031
2150.00,0.0032
2149.00,0.0032
2148.00,0.0032
2147.00,0.0031
2146.00,0.0032
2145.00,0.0032
2144.00,0.0032
2143.00,0.0032
2142.00,0.0031
2141.00,0.0031
2140.00,0.0031
2139.00,0.0031
2138.00,0.0030
2137.00,0.0028
2136.00,0.0025
2135.00,0.0024
2134.00,0.0023
2133.00,0.0025
2132.00,0.0028
2131.00,0.0031
2130.00,0.0033
2129.00,0.0035
2128.00,0.0036
2127.00,0.0037
2126.00,0.0038
2125.00,0.0039
2124.00,0.0040
2123.00,0.0041
2122.00,0.0041
2121.00,0.0042
2120.00,0.0043
2119.00,0.0044
2118.00,0.0045
2117.00,0.0047
2116.00,0.0048
2115.00,0.0048
2114.00,0.0048
2113.00,0.0048
2112.00,0.0048
2111.00,0.0048
2110.00,0.0047
2109.00,0.0047
2108.00,0.0047
2107.00,0.0047
2106.00,0.0046
2105.00,0.0046
2104.00,0.0045
2103.00,0.0045
2102.00,0.0045
2101.00,0.0045
2100.00,0.0045
2099.00,0.0045
2098.00,0.0045
2097.00,0.0044
2096.00,0.0042
2095.00,0.0042
2094.00,0.0041
2093.00,0.0042
2092.00,0.0043
2091.00,0.0044
2090.00,0.0045
2089.00,0.0046
2088.00,0.0048
2087.00,0.0049
2086.00,0.0049
2085.00,0.0049
2084.00,0.0049
2083.00,0.0049
2082.00,0.0049
2081.00,0.0049
2080.00,0.0049
2079.00,0.0049
2078.00,0.0048
2077.00,0.0048
2076.00,0.0048
2075.00,0.0047
2074.00,0.0047
2073.00,0.0046
2072.00,0.0046
2071.00,0.0045
2070.00,0.0045
2069.00,0.0044
2068.00,0.0044
2067.00,0.0044
2066.00,0.0044
2065.00,0.0043
2064.00,0.0043
2063.00,0.0042
2062.00,0.0041
2061.00,0.0041
2060.00,0.0042
2059.00,0.0042
2058.00,0.0042
2057.00,0.0042
2056.00,0.0042
2055.00,0.0044
2054.00,0.0047
2053.00,0.0052
2052.00,0.0056
2051.00,0.0056
2050.00,0.0052
2049.00,0.0047
2048.00,0.0043
2047.00,0.0042
2046.00,0.0040
2045.00,0.0040
2044.00,0.0039
2043.00,0.0040
2042.00,0.0040
2041.00,0.0041
2040.00,0.0042
2039.00,0.0042
2038.00,0.0042
2037.00,0.0041
2036.00,0.0038
2035.00,0.0035
2034.00,0.0032
2033.00,0.0030
2032.00,0.0030
2031.00,0.0030
2030.00,0.0030
2029.00,0.0031
2028.00,0.0032
2027.00,0.0033
2026.00,0.0032
2025.00,0.0031
2024.00,0.0031
2023.00,0.0031
2022.00,0.0031
2021.00,0.0031
2020.00,0.0032
2019.00,0.0033
2018.00,0.0034
2017.00,0.0035
2016.00,0.0036
2015.00,0.0036
2014.00,0.0035
2013.00,0.0034
2012.00,0.0034
2011.00,0.0034
2010.00,0.0033
2009.00,0.0032
2008.00,0.0029
2007.00,0.0027
2006.00,0.0026
2005.00,0.0027
2004.00,0.0029
2003.00,0.0031
2002.00,0.0032
2001.00,0.0033
2000.00,0.0034
1999.00,0.0034
1998.00,0.0035
1997.00,0.0036
1996.00,0.0038
1995.00,0.0040
1994.00,0.0041
1993.00,0.0042
1992.00,0.0042
1991.00,0.0042
1990.00,0.0043
1989.00,0.0043
1988.00,0.0045
1987.00,0.0046
1986.00,0.0048
1985.00,0.0049
1984.00,0.0052
1983.00,0.0056
1982.00,0.0058
1981.00,0.0058
1980.00,0.0054
1979.00,0.0045
1978.00,0.0035
1977.00,0.0028
1976.00,0.0026
1975.00,0.0026
1974.00,0.0027
1973.00,0.0029
1972.00,0.0031
1971.00,0.0032
1970.00,0.0032
1969.00,0.0031
1968.00,0.0032
1967.00,0.0032
1966.00,0.0031
1965.00,0.0031
1964.00,0.0031
1963.00,0.0030
1962.00,0.0029
1961.00,0.0028
1960.00,0.0029
1959.00,0.0029
1958.00,0.0030
1957.00,0.0031
1956.00,0.0032
1955.00,0.0032
1954.00,0.0032
1953.00,0.0032
1952.00,0.0032
1951.00,0.0033
1950.00,0.0033
1949.00,0.0033
1948.00,0.0034
1947.00,0.0034
1946.00,0.0034
1945.00,0.0033
1944.00,0.0034
1943.00,0.0033
1942.00,0.0033
1941.00,0.0033
1940.00,0.0033
1939.00,0.0034
1938.00,0.0035
1937.00,0.0036
1936.00,0.0037
1935.00,0.0037
1934.00,0.0037
1933.00,0.0037
1932.00,0.0037
1931.00,0.0036
1930.00,0.0036
1929.00,0.0036
1928.00,0.0036
1927.00,0.0036
1926.00,0.0037
1925.00,0.0037
1924.00,0.0038
1923.00,0.0039
1922.00,0.0040
1921.00,0.0040
1920.00,0.0039
1919.00,0.0039
1918.00,0.0038
1917.00,0.0038
1916.00,0.0039
1915.00,0.0040
1914.00,0.0041
1913.00,0.0041
1912.00,0.0041
1911.00,0.0041
1910.00,0.0041
1909.00,0.0041
1908.00,0.0042
1907.00,0.0042
1906.00,0.0043
1905.00,0.0043
1904.00,0.0043
1903.00,0.0043
1902.00,0.0043
1901.00,0.0043
1900.00,0.0044
1899.00,0.0044
1898.00,0.0043
1897.00,0.0043
1896.00,0.0043
1895.00,0.0043
1894.00,0.0043
1893.00,0.0044
1892.00,0.0044
1891.00,0.0044
1890.00,0.0044
1889.00,0.0044
1888.00,0.0044
1887.00,0.0045
1886.00,0.0045
1885.00,0.0045
1884.00,0.0045
1883.00,0.0045
1882.00,0.0045
1881.00,0.0045
1880.00,0.0045
1879.00,0.0045
1878.00,0.0045
1877.00,0.0045
1876.00,0.0045
1875.00,0.0046
1874.00,0.0046
1873.00,0.0046
1872.00,0.0046
1871.00,0.0046
1870.00,0.0045
1869.00,0.0045
1868.00,0.0045
1867.00,0.0045
1866.00,0.0045
1865.00,0.0045
1864.00,0.0045
1863.00,0.0046
1862.00,0.0046
1861.00,0.0046
1860.00,0.0046
1859.00,0.0046
1858.00,0.0046
1857.00,0.0045
1856.00,0.0045
1855.00,0.0045
1854.00,0.0045
1853.00,0.0045
1852.00,0.0046
1851.00,0.0046
1850.00,0.0046
1849.00,0.0045
1848.00,0.0046
1847.00,0.0046
1846.00,0.0046
1845.00,0.0045
1844.00,0.0045
1843.00,0.0046
1842.00,0.0046
1841.00,0.0046
1840.00,0.0047
1839.00,0.0047
1838.00,0.0047
1837.00,0.0047
1836.00,0.0047
1835.00,0.0047
1834.00,0.0047
1833.00,0.0048
1832.00,0.0048
1831.00,0.0048
1830.00,0.0048
1829.00,0.0048
1828.00,0.0049
1827.00,0.0049
1826.00,0.0049
1825.00,0.0050
1824.00,0.0050
1823.00,0.0051
1822.00,0.0051
1821.00,0.0050
1820.00,0.0050
1819.00,0.0049
1818.00,0.0048
1817.00,0.0048
1816.00,0.0048
1815.00,0.0049
1814.00,0.0050
1813.00,0.0051
1812.00,0.0052
1811.00,0.0053
1810.00,0.0054
1809.00,0.0055
1808.00,0.0057
1807.00,0.0058
1806.00,0.0059
1805.00,0.0060
1804.00,0.0061
1803.00,0.0061
1802.00,0.0061
1801.00,0.0061
1800.00,0.0061
1799.00,0.0061
1798.00,0.0060
1797.00,0.0060
1796.00,0.0059
1795.00,0.0059
1794.00,0.0058
1793.00,0.0057
1792.00,0.0056
1791.00,0.0056
1790.00,0.0055
1789.00,0.0055
1788.00,0.0056
1787.00,0.0056
1786.00,0.0056
1785.00,0.0056
1784.00,0.0056
1783.00,0.0057
1782.00,0.0057
1781.00,0.0058
1780.00,0.0059
1779.00,0.0059
1778.00,0.0060
1777.00,0.0061
1776.00,0.0062
1775.00,0.0063
1774.00,0.0065
1773.00,0.0066
1772.00,0.0066
1771.00,0.0066
1770.00,0.0066
1769.00,0.0065
1768.00,0.0064
1767.00,0.0062
1766.00,0.0061
1765.00,0.0060
1764.00,0.0060
1763.00,0.0059
1762.00,0.0058
1761.00,0.0058
1760.00,0.0057
1759.00,0.0057
1758.00,0.0057
1757.00,0.0057
1756.00,0.0057
1755.00,0.0057
1754.00,0.0057
1753.00,0.0057
1752.00,0.0057
1751.00,0.0057
1750.00,0.0056
1749.00,0.0057
1748.00,0.0057
1747.00,0.0057
1746.00,0.0056
1745.00,0.0056
1744.00,0.0057
1743.00,0.0057
1742.00,0.0058
1741.00,0.0058
1740.00,0.0059
1739.00,0.0059
1738.00,0.0059
1737.00,0.0059
1736.00,0.0060
1735.00,0.0060
1734.00,0.0060
1733.00,0.0060
1732.00,0.0060
1731.00,0.0061
1730.00,0.0061
1729.00,0.0062
1728.00,0.0062
1727.00,0.0063
1726.00,0.0063
1725.00,0.0063
1724.00,0.0064
1723.00,0.0064
1722.00,0.0065
1721.00,0.0065
1720.00,0.0065
1719.00,0.0066
1718.00,0.0066
1717.00,0.0066
1716.00,0.0067
1715.00,0.0068
1714.00,0.0068
1713.00,0.0069
1712.00,0.0070
1711.00,0.0070
1710.00,0.0071
1709.00,0.0071
1708.00,0.0072
1707.00,0.0073
1706.00,0.0074
1705.00,0.0075
1704.00,0.0076
1703.00,0.0076
1702.00,0.0076
1701.00,0.0077
1700.00,0.0078
1699.00,0.0079
1698.00,0.0080
1697.00,0.0080
1696.00,0.0081
1695.00,0.0082
1694.00,0.0081
1693.00,0.0081
1692.00,0.0082
1691.00,0.0082
1690.00,0.0083
1689.00,0.0083
1688.00,0.0083
1687.00,0.0083
1686.00,0.0083
1685.00,0.0083
1684.00,0.0084
1683.00,0.0085
1682.00,0.0086
1681.00,0.0086
1680.00,0.0088
1679.00,0.0089
1678.00,0.0090
1677.00,0.0092
1676.00,0.0094
1675.00,0.0097
1674.00,0.0100
1673.00,0.0102
1672.00,0.0105
1671.00,0.0108
1670.00,0.0113
1669.00,0.0117
1668.00,0.0123
1667.00,0.0127
1666.00,0.0131
1665.00,0.0134
1664.00,0.0138
1663.00,0.0142
1662.00,0.0144
1661.00,0.0144
1660.00,0.0144
1659.00,0.0144
1658.00,0.0143
1657.00,0.0143
1656.00,0.0144
1655.00,0.0146
1654.00,0.0154
1653.00,0.0167
1652.00,0.0182
1651.00,0.0194
1650.00,0.0206
1649.00,0.0225
1648.00,0.0261
1647.00,0.0319
1646.00,0.0383
1645.00,0.0433
1644.00,0.0458
1643.00,0.0462
1642.00,0.0450
1641.00,0.0430
1640.00,0.0413
1639.00,0.0404
1638.00,0.0409
1637.00,0.0434
1636.00,0.0488
1635.00,0.0555
1634.00,0.0612
1633.00,0.0652
1632.00,0.0683
1631.00,0.0707
1630.00,0.0728
1629.00,0.0748
1628.00,0.0773
1627.00,0.0804
1626.00,0.0839
1625.00,0.0875
1624.00,0.0910
1623.00,0.0927
1622.00,0.0911
1621.00,0.0867
1620.00,0.0806
1619.00,0.0736
1618.00,0.0655
1617.00,0.0570
1616.00,0.0493
1615.00,0.0437
1614.00,0.0398
1613.00,0.0367
1612.00,0.0339
1611.00,0.0314
1610.00,0.0292
1609.00,0.0274
1608.00,0.0259
1607.00,0.0246
1606.00,0.0237
1605.00,0.0230
1604.00,0.0225
1603.00,0.0222
1602.00,0.0222
1601.00,0.0224
1600.00,0.0229
1599.00,0.0236
1598.00,0.0246
1597.00,0.0259
1596.00,0.0277
1595.00,0.0302
1594.00,0.0333
1593.00,0.0375
1592.00,0.0429
1591.00,0.0495
1590.00,0.0574
1589.00,0.0660
1588.00,0.0750
1587.00,0.0836
1586.00,0.0915
1585.00,0.0985
1584.00,0.1045
1583.00,0.1092
1582.00,0.1116
1581.00,0.1112
1580.00,0.1084
1579.00,0.1036
1578.00,0.0966
1577.00,0.0874
1576.00,0.0772
1575.00,0.0683
1574.00,0.0616
1573.00,0.0563
1572.00,0.0516
1571.00,0.0468
1570.00,0.0418
1569.00,0.0371
1568.00,0.0334
1567.00,0.0305
1566.00,0.0280
1565.00,0.0257
1564.00,0.0237
1563.00,0.0222
1562.00,0.0211
1561.00,0.0201
1560.00,0.0190
1559.00,0.0179
1558.00,0.0171
1557.00,0.0166
1556.00,0.0162
1555.00,0.0158
1554.00,0.0154
1553.00,0.0150
1552.00,0.0147
1551.00,0.0143
1550.00,0.0140
1549.00,0.0137
1548.00,0.0134
1547.00,0.0131
1546.00,0.0129
1545.00,0.0127
1544.00,0.0125
1543.00,0.0123
1542.00,0.0122
1541.00,0.0122
1540.00,0.0122
1539.00,0.0123
1538.00,0.0123
1537.00,0.0123
1536.00,0.0123
1535.00,0.0123
1534.00,0.0123
1533.00,0.0124
1532.00,0.0124
1531.00,0.0125
1530.00,0.0126
1529.00,0.0128
1528.00,0.0130
1527.00,0.0132
1526.00,0.0136
1525.00,0.0140
1524.00,0.0146
1523.00,0.0154
1522.00,0.0170
1521.00,0.0191
1520.00,0.0212
1519.00,0.0231
1518.00,0.0249
1517.00,0.0270
1516.00,0.0287
1515.00,0.0297
1514.00,0.0299
1513.00,0.0295
1512.00,0.0283
1511.00,0.0268
1510.00,0.0253
1509.00,0.0238
1508.00,0.0224
1507.00,0.0209
1506.00,0.0198
1505.00,0.0192
1504.00,0.0187
1503.00,0.0184
1502.00,0.0180
1501.00,0.0176
1500.00,0.0172
1499.00,0.0167
1498.00,0.0162
1497.00,0.0156
1496.00,0.0151
1495.00,0.0145
1494.00,0.0141
1493.00,0.0137
1492.00,0.0134
1491.00,0.0130
1490.00,0.0127
1489.00,0.0124
1488.00,0.0122
1487.00,0.0121
1486.00,0.0120
1485.00,0.0120
1484.00,0.0120
1483.00,0.0121
1482.00,0.0122
1481.00,0.0124
1480.00,0.0126
1479.00,0.0129
1478.00,0.0132
1477.00,0.0137
1476.00,0.0143
1475.00,0.0149
1474.00,0.0159
1473.00,0.0176
1472.00,0.0202
1471.00,0.0232
1470.00,0.0266
1469.00,0.0301
1468.00,0.0337
1467.00,0.0367
1466.00,0.0390
1465.00,0.0408
1464.00,0.0424
1463.00,0.0438
1462.00,0.0451
1461.00,0.0464
1460.00,0.0475
1459.00,0.0485
1458.00,0.0500
1457.00,0.0527
1456.00,0.0560
1455.00,0.0592
1454.00,0.0628
1453.00,0.0676
1452.00,0.0737
1451.00,0.0807
1450.00,0.0887
1449.00,0.0980
1448.00,0.1082
1447.00,0.1179
1446.00,0.1257
1445.00,0.1313
1444.00,0.1347
1443.00,0.1360
1442.00,0.1359
1441.00,0.1347
1440.00,0.1328
1439.00,0.1303
1438.00,0.1272
1437.00,0.1236
1436.00,0.1194
1435.00,0.1149
1434.00,0.1104
1433.00,0.1058
1432.00,0.1007
1431.00,0.0947
1430.00,0.0876
1429.00,0.0796
1428.00,0.0711
1427.00,0.0629
1426.00,0.0554
1425.00,0.0485
1424.00,0.0424
1423.00,0.0376
1422.00,0.0341
1421.00,0.0313
1420.00,0.0287
1419.00,0.0264
1418.00,0.0246
1417.00,0.0232
1416.00,0.0220
1415.00,0.0211
1414.00,0.0203
1413.00,0.0196
1412.00,0.0189
1411.00,0.0184
1410.00,0.0180
1409.00,0.0177
1408.00,0.0173
1407.00,0.0171
1406.00,0.0169
1405.00,0.0168
1404.00,0.0166
1403.00,0.0164
1402.00,0.0163
1401.00,0.0161
1400.00,0.0159
1399.00,0.0158
1398.00,0.0158
1397.00,0.0157
1396.00,0.0156
1395.00,0.0155
1394.00,0.0154
1393.00,0.0153
1392.00,0.0152
1391.00,0.0152
1390.00,0.0154
1389.00,0.0156
1388.00,0.0160
1387.00,0.0166
1386.00,0.0176
1385.00,0.0187
1384.00,0.0203
1383.00,0.0225
1382.00,0.0255
1381.00,0.0294
1380.00,0.0343
1379.00,0.0403
1378.00,0.0467
1377.00,0.0527
1376.00,0.0571
1375.00,0.0593
1374.00,0.0587
1373.00,0.0559
1372.00,0.0523
1371.00,0.0486
1370.00,0.0452
1369.00,0.0420
1368.00,0.0393
1367.00,0.0371
1366.00,0.0352
1365.00,0.0333
1364.00,0.0315
1363.00,0.0298
1362.00,0.0284
1361.00,0.0273
1360.00,0.0265
1359.00,0.0259
1358.00,0.0256
1357.00,0.0254
1356.00,0.0253
1355.00,0.0254
1354.00,0.0255
1353.00,0.0257
1352.00,0.0259
1351.00,0.0261
1350.00,0.0266
1349.00,0.0271
1348.00,0.0278
1347.00,0.0287
1346.00,0.0296
1345.00,0.0305
1344.00,0.0314
1343.00,0.0320
1342.00,0.0323
1341.00,0.0322
1340.00,0.0315
1339.00,0.0305
1338.00,0.0293
1337.00,0.0284
1336.00,0.0279
1335.00,0.0278
1334.00,0.0283
1333.00,0.0291
1332.00,0.0302
1331.00,0.0315
1330.00,0.0328
1329.00,0.0341
1328.00,0.0353
1327.00,0.0365
1326.00,0.0378
1325.00,0.0389
1324.00,0.0395
1323.00,0.0394
1322.00,0.0385
1321.00,0.0371
1320.00,0.0358
1319.00,0.0352
1318.00,0.0357
1317.00,0.0375
1316.00,0.0406
1315.00,0.0447
1314.00,0.0494
1313.00,0.0536
1312.00,0.0567
1311.00,0.0580
1310.00,0.0576
1309.00,0.0563
1308.00,0.0548
1307.00,0.0538
1306.00,0.0538
1305.00,0.0546
1304.00,0.0560
1303.00,0.0574
1302.00,0.0584
1301.00,0.0589
1300.00,0.0587
1299.00,0.0581
1298.00,0.0572
1297.00,0.0560
1296.00,0.0546
1295.00,0.0530
1294.00,0.0513
1293.00,0.0496
1292.00,0.0479
1291.00,0.0464
1290.00,0.0452
1289.00,0.0445
1288.00,0.0443
1287.00,0.0450
1286.00,0.0465
1285.00,0.0485
1284.00,0.0509
1283.00,0.0534
1282.00,0.0557
1281.00,0.0577
1280.00,0.0590
1279.00,0.0598
1278.00,0.0598
1277.00,0.0591
1276.00,0.0577
1275.00,0.0557
1274.00,0.0531
1273.00,0.0499
1272.00,0.0464
1271.00,0.0428
1270.00,0.0391
1269.00,0.0357
1268.00,0.0326
1267.00,0.0300
1266.00,0.0278
1265.00,0.0260
1264.00,0.0245
1263.00,0.0233
1262.00,0.0223
1261.00,0.0214
1260.00,0.0207
1259.00,0.0202
1258.00,0.0199
1257.00,0.0197
1256.00,0.0196
1255.00,0.0198
1254.00,0.0203
1253.00,0.0211
1252.00,0.0223
1251.00,0.0238
1250.00,0.0254
1249.00,0.0269
1248.00,0.0279
1247.00,0.0288
1246.00,0.0297
1245.00,0.0312
1244.00,0.0336
1243.00,0.0373
1242.00,0.0423
1241.00,0.0483
1240.00,0.0550
1239.00,0.0614
1238.00,0.0668
1237.00,0.0703
1236.00,0.0718
1235.00,0.0716
1234.00,0.0704
1233.00,0.0683
1232.00,0.0657
1231.00,0.0631
1230.00,0.0613
1229.00,0.0611
1228.00,0.0629
1227.00,0.0667
1226.00,0.0719
1225.00,0.0778
1224.00,0.0841
1223.00,0.0908
1222.00,0.0981
1221.00,0.1065
1220.00,0.1165
1219.00,0.1280
1218.00,0.1405
1217.00,0.1525
1216.00,0.1624
1215.00,0.1685
1214.00,0.1700
1213.00,0.1669
1212.00,0.1601
1211.00,0.1507
1210.00,0.1403
1209.00,0.1299
1208.00,0.1203
1207.00,0.1118
1206.00,0.1042
1205.00,0.0972
1204.00,0.0902
1203.00,0.0831
1202.00,0.0760
1201.00,0.0690
1200.00,0.0625
1199.00,0.0568
1198.00,0.0519
1197.00,0.0480
1196.00,0.0449
1195.00,0.0426
1194.00,0.0412
1193.00,0.0404
1192.00,0.0403
1191.00,0.0407
1190.00,0.0414
1189.00,0.0424
1188.00,0.0434
1187.00,0.0446
1186.00,0.0459
1185.00,0.0473
1184.00,0.0487
1183.00,0.0499
1182.00,0.0510
1181.00,0.0518
1180.00,0.0525
1179.00,0.0531
1178.00,0.0538
1177.00,0.0543
1176.00,0.0550
1175.00,0.0563
1174.00,0.0585
1173.00,0.0609
1172.00,0.0620
1171.00,0.0606
1170.00,0.0565
1169.00,0.0506
1168.00,0.0445
1167.00,0.0392
1166.00,0.0349
1165.00,0.0316
1164.00,0.0291
1163.00,0.0273
1162.00,0.0260
1161.00,0.0252
1160.00,0.0248
1159.00,0.0249
1158.00,0.0257
1157.00,0.0272
1156.00,0.0299
1155.00,0.0343
1154.00,0.0409
1153.00,0.0492
1152.00,0.0577
1151.00,0.0638
1150.00,0.0650
1149.00,0.0608
1148.00,0.0529
1147.00,0.0441
1146.00,0.0366
1145.00,0.0311
1144.00,0.0273
1143.00,0.0249
1142.00,0.0234
1141.00,0.0225
1140.00,0.0222
1139.00,0.0224
1138.00,0.0230
1137.00,0.0237
1136.00,0.0243
1135.00,0.0246
1134.00,0.0245
1133.00,0.0239
1132.00,0.0228
1131.00,0.0215
1130.00,0.0203
1129.00,0.0191
1128.00,0.0180
1127.00,0.0172
1126.00,0.0166
1125.00,0.0162
1124.00,0.0158
1123.00,0.0155
1122.00,0.0154
1121.00,0.0153
1120.00,0.0153
1119.00,0.0153
1118.00,0.0155
1117.00,0.0158
1116.00,0.0160
1115.00,0.0163
1114.00,0.0167
1113.00,0.0170
1112.00,0.0173
1111.00,0.0177
1110.00,0.0183
1109.00,0.0190
1108.00,0.0198
1107.00,0.0208
1106.00,0.0220
1105.00,0.0232
1104.00,0.0246
1103.00,0.0261
1102.00,0.0280
1101.00,0.0299
1100.00,0.0315
1099.00,0.0323
1098.00,0.0321
1097.00,0.0308
1096.00,0.0287
1095.00,0.0266
1094.00,0.0247
1093.00,0.0232
1092.00,0.0220
1091.00,0.0211
1090.00,0.0204
1089.00,0.0200
1088.00,0.0197
1087.00,0.0199
1086.00,0.0205
1085.00,0.0217
1084.00,0.0233
1083.00,0.0255
1082.00,0.0280
1081.00,0.0304
1080.00,0.0320
1079.00,0.0324
1078.00,0.0318
1077.00,0.0301
1076.00,0.0281
1075.00,0.0261
1074.00,0.0245
1073.00,0.0232
1072.00,0.0221
1071.00,0.0213
1070.00,0.0207
1069.00,0.0203
1068.00,0.0200
1067.00,0.0199
1066.00,0.0200
1065.00,0.0202
1064.00,0.0206
1063.00,0.0213
1062.00,0.0223
1061.00,0.0236
1060.00,0.0255
1059.00,0.0283
1058.00,0.0324
1057.00,0.0381
1056.00,0.0456
1055.00,0.0541
1054.00,0.0625
1053.00,0.0691
1052.00,0.0731
1051.00,0.0744
1050.00,0.0731
1049.00,0.0693
1048.00,0.0635
1047.00,0.0567
1046.00,0.0505
1045.00,0.0456
1044.00,0.0426
1043.00,0.0412
1042.00,0.0411
1041.00,0.0419
1040.00,0.0434
1039.00,0.0456
1038.00,0.0489
1037.00,0.0537
1036.00,0.0600
1035.00,0.0676
1034.00,0.0756
1033.00,0.0823
1032.00,0.0859
1031.00,0.0860
1030.00,0.0829
1029.00,0.0780
1028.00,0.0728
1027.00,0.0689
1026.00,0.0671
1025.00,0.0680
1024.00,0.0716
1023.00,0.0779
1022.00,0.0863
1021.00,0.0952
1020.00,0.1027
1019.00,0.1067
1018.00,0.1062
1017.00,0.1018
1016.00,0.0950
1015.00,0.0873
1014.00,0.0797
1013.00,0.0728
1012.00,0.0669
1011.00,0.0627
1010.00,0.0602
1009.00,0.0593
1008.00,0.0595
1007.00,0.0610
1006.00,0.0636
1005.00,0.0669
1004.00,0.0702
1003.00,0.0727
1002.00,0.0737
1001.00,0.0727
1000.00,0.0695
999.00,0.0645
998.00,0.0584
997.00,0.0522
996.00,0.0467
995.00,0.0423
994.00,0.0393
993.00,0.0374
992.00,0.0365
991.00,0.0366
990.00,0.0375
989.00,0.0389
988.00,0.0403
987.00,0.0417
986.00,0.0426
985.00,0.0430
984.00,0.0424
983.00,0.0408
982.00,0.0386
981.00,0.0361
980.00,0.0341
979.00,0.0327
978.00,0.0319
977.00,0.0312
976.00,0.0306
975.00,0.0299
974.00,0.0294
973.00,0.0292
972.00,0.0294
971.00,0.0301
970.00,0.0313
969.00,0.0328
968.00,0.0345
967.00,0.0364
966.00,0.0385
965.00,0.0410
964.00,0.0438
963.00,0.0466
962.00,0.0489
961.00,0.0496
960.00,0.0483
959.00,0.0454
958.00,0.0414
957.00,0.0371
956.00,0.0332
955.00,0.0299
954.00,0.0274
953.00,0.0255
952.00,0.0240
951.00,0.0229
950.00,0.0220
949.00,0.0214
948.00,0.0208
947.00,0.0203
946.00,0.0199
945.00,0.0196
944.00,0.0193
943.00,0.0190
942.00,0.0188
941.00,0.0187
940.00,0.0185
939.00,0.0183
938.00,0.0182
937.00,0.0182
936.00,0.0182
935.00,0.0183
934.00,0.0186
933.00,0.0191
932.00,0.0196
931.00,0.0201
930.00,0.0207
929.00,0.0211
928.00,0.0213
927.00,0.0212
926.00,0.0212
925.00,0.0212
924.00,0.0211
923.00,0.0210
922.00,0.0211
921.00,0.0213
920.00,0.0217
919.00,0.0225
918.00,0.0236
917.00,0.0247
916.00,0.0257
915.00,0.0262
914.00,0.0264
913.00,0.0262
912.00,0.0259
911.00,0.0259
910.00,0.0264
909.00,0.0275
908.00,0.0292
907.00,0.0317
906.00,0.0349
905.00,0.0387
904.00,0.0429
903.00,0.0479
902.00,0.0541
901.00,0.0620
900.00,0.0718
899.00,0.0832
898.00,0.0945
897.00,0.1029
896.00,0.1062
895.00,0.1036
894.00,0.0967
893.00,0.0877
892.00,0.0789
891.00,0.0719
890.00,0.0676
889.00,0.0669
888.00,0.0704
887.00,0.0786
886.00,0.0908
885.00,0.1046
884.00,0.1158
883.00,0.1202
882.00,0.1159
881.00,0.1047
880.00,0.0904
879.00,0.0768
878.00,0.0658
877.00,0.0578
876.00,0.0524
875.00,0.0493
874.00,0.0482
873.00,0.0487
872.00,0.0506
871.00,0.0530
870.00,0.0549
869.00,0.0552
868.00,0.0542
867.00,0.0529
866.00,0.0529
865.00,0.0550
864.00,0.0588
863.00,0.0632
862.00,0.0668
861.00,0.0686
860.00,0.0685
859.00,0.0675
858.00,0.0670
857.00,0.0675
856.00,0.0689
855.00,0.0709
854.00,0.0730
853.00,0.0749
852.00,0.0763
851.00,0.0771
850.00,0.0768
849.00,0.0750
848.00,0.0721
847.00,0.0690
846.00,0.0663
845.00,0.0644
844.00,0.0630
843.00,0.0618
842.00,0.0604
841.00,0.0588
840.00,0.0572
839.00,0.0563
838.00,0.0561
837.00,0.0567
836.00,0.0579
835.00,0.0597
834.00,0.0621
833.00,0.0648
832.00,0.0676
831.00,0.0703
830.00,0.0727
829.00,0.0746
828.00,0.0755
827.00,0.0752
826.00,0.0734
825.00,0.0701
824.00,0.0656
823.00,0.0606
822.00,0.0556
821.00,0.0506
820.00,0.0459
819.00,0.0417
818.00,0.0384
817.00,0.0358
816.00,0.0340
815.00,0.0326
814.00,0.0316
813.00,0.0308
812.00,0.0302
811.00,0.0302
810.00,0.0313
809.00,0.0341
808.00,0.0391
807.00,0.0464
806.00,0.0546
805.00,0.0610
804.00,0.0632
803.00,0.0609
802.00,0.0556
801.00,0.0493
800.00,0.0436
799.00,0.0390
798.00,0.0355
797.00,0.0329
796.00,0.0310
795.00,0.0298
794.00,0.0292
793.00,0.0289
792.00,0.0286
791.00,0.0282
790.00,0.0279
789.00,0.0277
788.00,0.0276
787.00,0.0277
786.00,0.0279
785.00,0.0278
784.00,0.0272
783.00,0.0262
782.00,0.0253
781.00,0.0247
780.00,0.0243
779.00,0.0242
778.00,0.0243
777.00,0.0242
776.00,0.0240
775.00,0.0237
774.00,0.0235
773.00,0.0236
772.00,0.0237
771.00,0.0239
770.00,0.0240
769.00,0.0237
768.00,0.0230
767.00,0.0221
766.00,0.0211
765.00,0.0202
764.00,0.0194
763.00,0.0188
762.00,0.0185
761.00,0.0183
760.00,0.0182
759.00,0.0183
758.00,0.0187
757.00,0.0194
756.00,0.0204
755.00,0.0221
754.00,0.0243
753.00,0.0266
752.00,0.0286
751.00,0.0301
750.00,0.0312
749.00,0.0318
748.00,0.0315
747.00,0.0300
746.00,0.0278
745.00,0.0253
744.00,0.0231
743.00,0.0214
742.00,0.0203
741.00,0.0195
740.00,0.0191
739.00,0.0189
738.00,0.0191
737.00,0.0196
736.00,0.0203
735.00,0.0216
734.00,0.0234
733.00,0.0256
732.00,0.0276
731.00,0.0289
730.00,0.0289
729.00,0.0277
728.00,0.0260
727.00,0.0244
726.00,0.0234
725.00,0.0228
724.00,0.0223
723.00,0.0220
722.00,0.0218
721.00,0.0215
720.00,0.0212
719.00,0.0207
718.00,0.0202
717.00,0.0195
716.00,0.0187
715.00,0.0180
714.00,0.0176
713.00,0.0175
712.00,0.0174
711.00,0.0173
710.00,0.0172
709.00,0.0168
708.00,0.0163
707.00,0.0157
706.00,0.0153
705.00,0.0150
704.00,0.0148
703.00,0.0146
702.00,0.0145
701.00,0.0145
700.00,0.0144
699.00,0.0144
698.00,0.0145
697.00,0.0146
696.00,0.0145
695.00,0.0145
694.00,0.0145
693.00,0.0145
692.00,0.0145
691.00,0.0145
690.00,0.0147
689.00,0.0148
688.00,0.0149
687.00,0.0150
686.00,0.0151
685.00,0.0153
684.00,0.0154
683.00,0.0156
682.00,0.0159
681.00,0.0162
680.00,0.0165
679.00,0.0169
678.00,0.0175
677.00,0.0181
676.00,0.0187
675.00,0.0195
674.00,0.0205
673.00,0.0218
672.00,0.0232
671.00,0.0248
670.00,0.0265
669.00,0.0281
668.00,0.0293
667.00,0.0301
666.00,0.0305
665.00,0.0307
664.00,0.0310
663.00,0.0313
662.00,0.0316
661.00,0.0317
660.00,0.0317
659.00,0.0317
658.00,0.0317
657.00,0.0315
656.00,0.0311
655.00,0.0307
654.00,0.0306
653.00,0.0309
652.00,0.0315
651.00,0.0325
650.00,0.0336
649.00,0.0342
648.00,0.0341
647.00,0.0334
646.00,0.0322
645.00,0.0307
644.00,0.0290
643.00,0.0274
642.00,0.0261
641.00,0.0251
640.00,0.0244
639.00,0.0241
638.00,0.0241
637.00,0.0242
636.00,0.0244
635.00,0.0246
634.00,0.0250
633.00,0.0255
632.00,0.0260
631.00,0.0266
630.00,0.0273
629.00,0.0281
628.00,0.0287
627.00,0.0295
626.00,0.0302
625.00,0.0309
624.00,0.0312
623.00,0.0312
622.00,0.0309
621.00,0.0300
620.00,0.0285
619.00,0.0268
618.00,0.0254
617.00,0.0244
616.00,0.0243
615.00,0.0255
614.00,0.0280
613.00,0.0314
612.00,0.0344
611.00,0.0363
610.00,0.0368
609.00,0.0362
608.00,0.0352
607.00,0.0347
606.00,0.0350
605.00,0.0357
604.00,0.0366
603.00,0.0375
602.00,0.0386
601.00,0.0400
600.00,0.0414
599.00,0.0427
598.00,0.0434
597.00,0.0433
596.00,0.0428
595.00,0.0426
594.00,0.0432
593.00,0.0445
592.00,0.0464
591.00,0.0488
590.00,0.0517
589.00,0.0547
588.00,0.0570
587.00,0.0586
586.00,0.0590
585.00,0.0581
584.00,0.0560
583.00,0.0534
582.00,0.0508
581.00,0.0482
580.00,0.0457
579.00,0.0438
578.00,0.0426
577.00,0.0420
576.00,0.0416
575.00,0.0417
574.00,0.0423
573.00,0.0430
572.00,0.0437
571.00,0.0444
570.00,0.0451
569.00,0.0457
568.00,0.0461
567.00,0.0466
566.00,0.0472
565.00,0.0477
564.00,0.0480
563.00,0.0480
562.00,0.0481
561.00,0.0480
560.00,0.0478
559.00,0.0477
558.00,0.0478
557.00,0.0479
556.00,0.0478
555.00,0.0479
554.00,0.0485
553.00,0.0495
552.00,0.0509
551.00,0.0526
550.00,0.0544
549.00,0.0558
548.00,0.0568
547.00,0.0582
546.00,0.0602
545.00,0.0621
544.00,0.0632
543.00,0.0637
542.00,0.0643
541.00,0.0654
540.00,0.0674
539.00,0.0706
538.00,0.0746
537.00,0.0785
536.00,0.0809
535.00,0.0815
534.00,0.0807
533.00,0.0791
532.00,0.0771
531.00,0.0756
530.00,0.0748
529.00,0.0746
528.00,0.0757
527.00,0.0786
526.00,0.0833
525.00,0.0889
524.00,0.0942
523.00,0.0987
522.00,0.1012
521.00,0.1000
520.00,0.0946
519.00,0.0866
518.00,0.0786
517.00,0.0719
516.00,0.0668
515.00,0.0636
514.00,0.0619
513.00,0.0612
512.00,0.0611
511.00,0.0616
510.00,0.0629
509.00,0.0646
508.00,0.0665
507.00,0.0692
506.00,0.0727
505.00,0.0767
504.00,0.0807
503.00,0.0850
502.00,0.0896
501.00,0.0940
500.00,0.0976
499.00,0.1007
498.00,0.1038
497.00,0.1065
496.00,0.1082
495.00,0.1092
494.00,0.1097
493.00,0.1096
492.00,0.1088
491.00,0.1080
490.00,0.1076
489.00,0.1072
488.00,0.1068
487.00,0.1064
486.00,0.1063
485.00,0.1061
484.00,0.1052
483.00,0.1039
482.00,0.1023
481.00,0.1000
480.00,0.0968
479.00,0.0938
478.00,0.0916
477.00,0.0902
476.00,0.0894
475.00,0.0895
474.00,0.0904
473.00,0.0916
472.00,0.0926
471.00,0.0940
470.00,0.0960
469.00,0.0979
468.00,0.0993
467.00,0.1004
466.00,0.1013
465.00,0.1017
464.00,0.1013
463.00,0.1007
462.00,0.1006
461.00,0.1003
460.00,0.0993
459.00,0.0983
458.00,0.0979
457.00,0.0978
456.00,0.0972
455.00,0.0968
454.00,0.0969
453.00,0.0969
452.00,0.0959
451.00,0.0946
450.00,0.0933
449.00,0.0918
448.00,0.0897
447.00,0.0878
446.00,0.0865
445.00,0.0852
444.00,0.0832
443.00,0.0814
442.00,0.0802
441.00,0.0793
440.00,0.0782
439.00,0.0776
438.00,0.0778
437.00,0.0780
436.00,0.0777
435.00,0.0776
434.00,0.0779
433.00,0.0781
432.00,0.0779
431.00,0.0787
430.00,0.0816
429.00,0.0858
428.00,0.0899
427.00,0.0941
426.00,0.0984
425.00,0.1015
424.00,0.1023
423.00,0.1017
422.00,0.1010
421.00,0.1000
420.00,0.0981
419.00,0.0963
418.00,0.0957
417.00,0.0953
416.00,0.0944
415.00,0.0939
414.00,0.0948
413.00,0.0961
412.00,0.0970
411.00,0.0984
410.00,0.1011
409.00,0.1037
408.00,0.1048
407.00,0.1058
406.00,0.1078
405.00,0.1097
404.00,0.1106
403.00,0.1119
402.00,0.1147
401.00,0.1178
400.00,0.1199
