Created as New Dataset,Sample 130 By YargerLab Date Wednesday, June 05 2024
cm-1,A
4000.00,0.0063
3999.00,0.0063
3998.00,0.0063
3997.00,0.0062
3996.00,0.0062
3995.00,0.0062
3994.00,0.0063
3993.00,0.0063
3992.00,0.0063
3991.00,0.0063
3990.00,0.0063
3989.00,0.0063
3988.00,0.0063
3987.00,0.0063
3986.00,0.0063
3985.00,0.0063
3984.00,0.0063
3983.00,0.0063
3982.00,0.0063
3981.00,0.0063
3980.00,0.0063
3979.00,0.0063
3978.00,0.0063
3977.00,0.0063
3976.00,0.0063
3975.00,0.0063
3974.00,0.0063
3973.00,0.0063
3972.00,0.0063
3971.00,0.0063
3970.00,0.0063
3969.00,0.0063
3968.00,0.0063
3967.00,0.0063
3966.00,0.0063
3965.00,0.0063
3964.00,0.0063
3963.00,0.0063
3962.00,0.0063
3961.00,0.0063
3960.00,0.0063
3959.00,0.0063
3958.00,0.0063
3957.00,0.0063
3956.00,0.0063
3955.00,0.0063
3954.00,0.0063
3953.00,0.0063
3952.00,0.0063
3951.00,0.0063
3950.00,0.0064
3949.00,0.0064
3948.00,0.0065
3947.00,0.0065
3946.00,0.0065
3945.00,0.0065
3944.00,0.0064
3943.00,0.0064
3942.00,0.0063
3941.00,0.0063
3940.00,0.0064
3939.00,0.0064
3938.00,0.0064
3937.00,0.0064
3936.00,0.0064
3935.00,0.0065
3934.00,0.0065
3933.00,0.0065
3932.00,0.0065
3931.00,0.0064
3930.00,0.0064
3929.00,0.0064
3928.00,0.0064
3927.00,0.0064
3926.00,0.0063
3925.00,0.0063
3924.00,0.0063
3923.00,0.0064
3922.00,0.0065
3921.00,0.0066
3920.00,0.0066
3919.00,0.0066
3918.00,0.0066
3917.00,0.0066
3916.00,0.0065
3915.00,0.0065
3914.00,0.0064
3913.00,0.0064
3912.00,0.0064
3911.00,0.0063
3910.00,0.0063
3909.00,0.0063
3908.00,0.0063
3907.00,0.0063
3906.00,0.0064
3905.00,0.0065
3904.00,0.0067
3903.00,0.0069
3902.00,0.0070
3901.00,0.0070
3900.00,0.0069
3899.00,0.0067
3898.00,0.0066
3897.00,0.0066
3896.00,0.0066
3895.00,0.0066
3894.00,0.0065
3893.00,0.0065
3892.00,0.0064
3891.00,0.0065
3890.00,0.0065
3889.00,0.0066
3888.00,0.0067
3887.00,0.0068
3886.00,0.0068
3885.00,0.0067
3884.00,0.0067
3883.00,0.0067
3882.00,0.0067
3881.00,0.0067
3880.00,0.0066
3879.00,0.0066
3878.00,0.0067
3877.00,0.0067
3876.00,0.0067
3875.00,0.0066
3874.00,0.0065
3873.00,0.0066
3872.00,0.0067
3871.00,0.0068
3870.00,0.0069
3869.00,0.0068
3868.00,0.0068
3867.00,0.0069
3866.00,0.0069
3865.00,0.0069
3864.00,0.0068
3863.00,0.0068
3862.00,0.0068
3861.00,0.0069
3860.00,0.0069
3859.00,0.0067
3858.00,0.0065
3857.00,0.0063
3856.00,0.0062
3855.00,0.0062
3854.00,0.0063
3853.00,0.0065
3852.00,0.0066
3851.00,0.0067
3850.00,0.0068
3849.00,0.0068
3848.00,0.0068
3847.00,0.0068
3846.00,0.0067
3845.00,0.0067
3844.00,0.0067
3843.00,0.0068
3842.00,0.0068
3841.00,0.0069
3840.00,0.0069
3839.00,0.0069
3838.00,0.0069
3837.00,0.0069
3836.00,0.0069
3835.00,0.0068
3834.00,0.0068
3833.00,0.0068
3832.00,0.0068
3831.00,0.0068
3830.00,0.0068
3829.00,0.0067
3828.00,0.0067
3827.00,0.0067
3826.00,0.0067
3825.00,0.0067
3824.00,0.0068
3823.00,0.0069
3822.00,0.0069
3821.00,0.0069
3820.00,0.0068
3819.00,0.0068
3818.00,0.0069
3817.00,0.0069
3816.00,0.0068
3815.00,0.0067
3814.00,0.0066
3813.00,0.0065
3812.00,0.0065
3811.00,0.0065
3810.00,0.0065
3809.00,0.0065
3808.00,0.0066
3807.00,0.0067
3806.00,0.0067
3805.00,0.0068
3804.00,0.0069
3803.00,0.0069
3802.00,0.0069
3801.00,0.0068
3800.00,0.0067
3799.00,0.0067
3798.00,0.0068
3797.00,0.0067
3796.00,0.0067
3795.00,0.0066
3794.00,0.0065
3793.00,0.0064
3792.00,0.0064
3791.00,0.0063
3790.00,0.0063
3789.00,0.0062
3788.00,0.0063
3787.00,0.0063
3786.00,0.0063
3785.00,0.0063
3784.00,0.0063
3783.00,0.0064
3782.00,0.0065
3781.00,0.0065
3780.00,0.0065
3779.00,0.0064
3778.00,0.0064
3777.00,0.0064
3776.00,0.0064
3775.00,0.0064
3774.00,0.0064
3773.00,0.0064
3772.00,0.0064
3771.00,0.0065
3770.00,0.0065
3769.00,0.0066
3768.00,0.0066
3767.00,0.0066
3766.00,0.0066
3765.00,0.0066
3764.00,0.0066
3763.00,0.0066
3762.00,0.0067
3761.00,0.0067
3760.00,0.0067
3759.00,0.0067
3758.00,0.0067
3757.00,0.0068
3756.00,0.0068
3755.00,0.0069
3754.00,0.0070
3753.00,0.0071
3752.00,0.0072
3751.00,0.0073
3750.00,0.0074
3749.00,0.0074
3748.00,0.0073
3747.00,0.0073
3746.00,0.0073
3745.00,0.0073
3744.00,0.0072
3743.00,0.0071
3742.00,0.0071
3741.00,0.0072
3740.00,0.0074
3739.00,0.0074
3738.00,0.0075
3737.00,0.0075
3736.00,0.0074
3735.00,0.0073
3734.00,0.0072
3733.00,0.0072
3732.00,0.0071
3731.00,0.0069
3730.00,0.0068
3729.00,0.0067
3728.00,0.0067
3727.00,0.0067
3726.00,0.0067
3725.00,0.0066
3724.00,0.0066
3723.00,0.0066
3722.00,0.0065
3721.00,0.0065
3720.00,0.0064
3719.00,0.0064
3718.00,0.0064
3717.00,0.0064
3716.00,0.0064
3715.00,0.0065
3714.00,0.0065
3713.00,0.0066
3712.00,0.0066
3711.00,0.0066
3710.00,0.0066
3709.00,0.0066
3708.00,0.0065
3707.00,0.0065
3706.00,0.0064
3705.00,0.0063
3704.00,0.0062
3703.00,0.0062
3702.00,0.0061
3701.00,0.0061
3700.00,0.0061
3699.00,0.0061
3698.00,0.0061
3697.00,0.0061
3696.00,0.0061
3695.00,0.0061
3694.00,0.0062
3693.00,0.0062
3692.00,0.0062
3691.00,0.0062
3690.00,0.0063
3689.00,0.0064
3688.00,0.0065
3687.00,0.0065
3686.00,0.0064
3685.00,0.0064
3684.00,0.0064
3683.00,0.0064
3682.00,0.0064
3681.00,0.0064
3680.00,0.0065
3679.00,0.0065
3678.00,0.0066
3677.00,0.0068
3676.00,0.0069
3675.00,0.0069
3674.00,0.0068
3673.00,0.0069
3672.00,0.0070
3671.00,0.0070
3670.00,0.0068
3669.00,0.0067
3668.00,0.0066
3667.00,0.0066
3666.00,0.0066
3665.00,0.0065
3664.00,0.0065
3663.00,0.0064
3662.00,0.0064
3661.00,0.0064
3660.00,0.0064
3659.00,0.0065
3658.00,0.0066
3657.00,0.0066
3656.00,0.0067
3655.00,0.0068
3654.00,0.0069
3653.00,0.0071
3652.00,0.0073
3651.00,0.0074
3650.00,0.0075
3649.00,0.0075
3648.00,0.0075
3647.00,0.0074
3646.00,0.0073
3645.00,0.0072
3644.00,0.0070
3643.00,0.0070
3642.00,0.0069
3641.00,0.0068
3640.00,0.0068
3639.00,0.0068
3638.00,0.0068
3637.00,0.0069
3636.00,0.0070
3635.00,0.0070
3634.00,0.0071
3633.00,0.0071
3632.00,0.0072
3631.00,0.0073
3630.00,0.0074
3629.00,0.0075
3628.00,0.0075
3627.00,0.0075
3626.00,0.0076
3625.00,0.0076
3624.00,0.0076
3623.00,0.0076
3622.00,0.0075
3621.00,0.0075
3620.00,0.0074
3619.00,0.0075
3618.00,0.0076
3617.00,0.0077
3616.00,0.0079
3615.00,0.0080
3614.00,0.0080
3613.00,0.0080
3612.00,0.0081
3611.00,0.0081
3610.00,0.0082
3609.00,0.0082
3608.00,0.0081
3607.00,0.0080
3606.00,0.0079
3605.00,0.0079
3604.00,0.0079
3603.00,0.0080
3602.00,0.0080
3601.00,0.0080
3600.00,0.0080
3599.00,0.0081
3598.00,0.0081
3597.00,0.0082
3596.00,0.0082
3595.00,0.0082
3594.00,0.0082
3593.00,0.0083
3592.00,0.0084
3591.00,0.0085
3590.00,0.0086
3589.00,0.0086
3588.00,0.0086
3587.00,0.0086
3586.00,0.0086
3585.00,0.0086
3584.00,0.0086
3583.00,0.0086
3582.00,0.0086
3581.00,0.0086
3580.00,0.0086
3579.00,0.0086
3578.00,0.0086
3577.00,0.0086
3576.00,0.0087
3575.00,0.0087
3574.00,0.0088
3573.00,0.0089
3572.00,0.0090
3571.00,0.0091
3570.00,0.0093
3569.00,0.0094
3568.00,0.0094
3567.00,0.0095
3566.00,0.0095
3565.00,0.0095
3564.00,0.0095
3563.00,0.0095
3562.00,0.0095
3561.00,0.0095
3560.00,0.0095
3559.00,0.0095
3558.00,0.0095
3557.00,0.0096
3556.00,0.0096
3555.00,0.0097
3554.00,0.0097
3553.00,0.0098
3552.00,0.0098
3551.00,0.0099
3550.00,0.0100
3549.00,0.0101
3548.00,0.0102
3547.00,0.0103
3546.00,0.0103
3545.00,0.0103
3544.00,0.0103
3543.00,0.0103
3542.00,0.0104
3541.00,0.0104
3540.00,0.0104
3539.00,0.0104
3538.00,0.0104
3537.00,0.0105
3536.00,0.0105
3535.00,0.0106
3534.00,0.0106
3533.00,0.0107
3532.00,0.0108
3531.00,0.0108
3530.00,0.0109
3529.00,0.0109
3528.00,0.0110
3527.00,0.0111
3526.00,0.0112
3525.00,0.0112
3524.00,0.0112
3523.00,0.0112
3522.00,0.0112
3521.00,0.0113
3520.00,0.0113
3519.00,0.0113
3518.00,0.0114
3517.00,0.0114
3516.00,0.0115
3515.00,0.0115
3514.00,0.0116
3513.00,0.0116
3512.00,0.0117
3511.00,0.0117
3510.00,0.0117
3509.00,0.0118
3508.00,0.0119
3507.00,0.0120
3506.00,0.0120
3505.00,0.0121
3504.00,0.0121
3503.00,0.0121
3502.00,0.0122
3501.00,0.0122
3500.00,0.0123
3499.00,0.0124
3498.00,0.0124
3497.00,0.0124
3496.00,0.0124
3495.00,0.0125
3494.00,0.0125
3493.00,0.0126
3492.00,0.0126
3491.00,0.0127
3490.00,0.0127
3489.00,0.0128
3488.00,0.0128
3487.00,0.0129
3486.00,0.0129
3485.00,0.0130
3484.00,0.0130
3483.00,0.0131
3482.00,0.0131
3481.00,0.0132
3480.00,0.0132
3479.00,0.0133
3478.00,0.0133
3477.00,0.0134
3476.00,0.0134
3475.00,0.0134
3474.00,0.0135
3473.00,0.0135
3472.00,0.0136
3471.00,0.0137
3470.00,0.0137
3469.00,0.0138
3468.00,0.0138
3467.00,0.0138
3466.00,0.0139
3465.00,0.0139
3464.00,0.0140
3463.00,0.0140
3462.00,0.0141
3461.00,0.0141
3460.00,0.0142
3459.00,0.0142
3458.00,0.0142
3457.00,0.0142
3456.00,0.0143
3455.00,0.0143
3454.00,0.0144
3453.00,0.0144
3452.00,0.0145
3451.00,0.0145
3450.00,0.0146
3449.00,0.0147
3448.00,0.0147
3447.00,0.0147
3446.00,0.0148
3445.00,0.0149
3444.00,0.0149
3443.00,0.0150
3442.00,0.0150
3441.00,0.0150
3440.00,0.0151
3439.00,0.0152
3438.00,0.0152
3437.00,0.0153
3436.00,0.0153
3435.00,0.0154
3434.00,0.0154
3433.00,0.0155
3432.00,0.0155
3431.00,0.0156
3430.00,0.0156
3429.00,0.0157
3428.00,0.0157
3427.00,0.0157
3426.00,0.0158
3425.00,0.0158
3424.00,0.0159
3423.00,0.0159
3422.00,0.0160
3421.00,0.0160
3420.00,0.0161
3419.00,0.0161
3418.00,0.0162
3417.00,0.0162
3416.00,0.0163
3415.00,0.0163
3414.00,0.0164
3413.00,0.0164
3412.00,0.0165
3411.00,0.0165
3410.00,0.0166
3409.00,0.0166
3408.00,0.0167
3407.00,0.0167
3406.00,0.0168
3405.00,0.0168
3404.00,0.0169
3403.00,0.0170
3402.00,0.0170
3401.00,0.0171
3400.00,0.0172
3399.00,0.0172
3398.00,0.0173
3397.00,0.0173
3396.00,0.0174
3395.00,0.0174
3394.00,0.0175
3393.00,0.0175
3392.00,0.0176
3391.00,0.0176
3390.00,0.0177
3389.00,0.0177
3388.00,0.0177
3387.00,0.0178
3386.00,0.0178
3385.00,0.0179
3384.00,0.0179
3383.00,0.0180
3382.00,0.0181
3381.00,0.0182
3380.00,0.0182
3379.00,0.0183
3378.00,0.0183
3377.00,0.0184
3376.00,0.0185
3375.00,0.0185
3374.00,0.0186
3373.00,0.0187
3372.00,0.0188
3371.00,0.0189
3370.00,0.0190
3369.00,0.0191
3368.00,0.0192
3367.00,0.0192
3366.00,0.0193
3365.00,0.0194
3364.00,0.0195
3363.00,0.0195
3362.00,0.0196
3361.00,0.0197
3360.00,0.0198
3359.00,0.0199
3358.00,0.0199
3357.00,0.0200
3356.00,0.0201
3355.00,0.0202
3354.00,0.0203
3353.00,0.0204
3352.00,0.0205
3351.00,0.0206
3350.00,0.0207
3349.00,0.0208
3348.00,0.0209
3347.00,0.0210
3346.00,0.0211
3345.00,0.0212
3344.00,0.0213
3343.00,0.0214
3342.00,0.0215
3341.00,0.0217
3340.00,0.0218
3339.00,0.0219
3338.00,0.0220
3337.00,0.0221
3336.00,0.0222
3335.00,0.0223
3334.00,0.0223
3333.00,0.0225
3332.00,0.0226
3331.00,0.0227
3330.00,0.0228
3329.00,0.0230
3328.00,0.0231
3327.00,0.0232
3326.00,0.0233
3325.00,0.0235
3324.00,0.0236
3323.00,0.0237
3322.00,0.0238
3321.00,0.0240
3320.00,0.0241
3319.00,0.0242
3318.00,0.0243
3317.00,0.0245
3316.00,0.0246
3315.00,0.0248
3314.00,0.0249
3313.00,0.0251
3312.00,0.0252
3311.00,0.0254
3310.00,0.0255
3309.00,0.0256
3308.00,0.0258
3307.00,0.0259
3306.00,0.0260
3305.00,0.0262
3304.00,0.0263
3303.00,0.0265
3302.00,0.0266
3301.00,0.0267
3300.00,0.0269
3299.00,0.0270
3298.00,0.0271
3297.00,0.0273
3296.00,0.0274
3295.00,0.0276
3294.00,0.0277
3293.00,0.0278
3292.00,0.0279
3291.00,0.0280
3290.00,0.0281
3289.00,0.0282
3288.00,0.0283
3287.00,0.0284
3286.00,0.0285
3285.00,0.0286
3284.00,0.0287
3283.00,0.0288
3282.00,0.0288
3281.00,0.0289
3280.00,0.0290
3279.00,0.0290
3278.00,0.0291
3277.00,0.0291
3276.00,0.0292
3275.00,0.0292
3274.00,0.0292
3273.00,0.0292
3272.00,0.0292
3271.00,0.0292
3270.00,0.0291
3269.00,0.0291
3268.00,0.0290
3267.00,0.0290
3266.00,0.0289
3265.00,0.0288
3264.00,0.0288
3263.00,0.0287
3262.00,0.0286
3261.00,0.0285
3260.00,0.0284
3259.00,0.0283
3258.00,0.0282
3257.00,0.0281
3256.00,0.0280
3255.00,0.0278
3254.00,0.0277
3253.00,0.0275
3252.00,0.0274
3251.00,0.0273
3250.00,0.0272
3249.00,0.0270
3248.00,0.0269
3247.00,0.0268
3246.00,0.0267
3245.00,0.0265
3244.00,0.0264
3243.00,0.0262
3242.00,0.0261
3241.00,0.0260
3240.00,0.0258
3239.00,0.0257
3238.00,0.0256
3237.00,0.0255
3236.00,0.0254
3235.00,0.0252
3234.00,0.0251
3233.00,0.0250
3232.00,0.0249
3231.00,0.0248
3230.00,0.0247
3229.00,0.0246
3228.00,0.0245
3227.00,0.0244
3226.00,0.0243
3225.00,0.0242
3224.00,0.0241
3223.00,0.0240
3222.00,0.0239
3221.00,0.0238
3220.00,0.0237
3219.00,0.0237
3218.00,0.0236
3217.00,0.0235
3216.00,0.0234
3215.00,0.0234
3214.00,0.0233
3213.00,0.0232
3212.00,0.0231
3211.00,0.0231
3210.00,0.0230
3209.00,0.0229
3208.00,0.0228
3207.00,0.0228
3206.00,0.0227
3205.00,0.0226
3204.00,0.0225
3203.00,0.0224
3202.00,0.0224
3201.00,0.0223
3200.00,0.0222
3199.00,0.0221
3198.00,0.0221
3197.00,0.0220
3196.00,0.0219
3195.00,0.0218
3194.00,0.0217
3193.00,0.0217
3192.00,0.0216
3191.00,0.0215
3190.00,0.0214
3189.00,0.0213
3188.00,0.0212
3187.00,0.0211
3186.00,0.0210
3185.00,0.0209
3184.00,0.0208
3183.00,0.0207
3182.00,0.0206
3181.00,0.0206
3180.00,0.0205
3179.00,0.0204
3178.00,0.0203
3177.00,0.0202
3176.00,0.0201
3175.00,0.0200
3174.00,0.0199
3173.00,0.0198
3172.00,0.0197
3171.00,0.0196
3170.00,0.0195
3169.00,0.0194
3168.00,0.0193
3167.00,0.0192
3166.00,0.0191
3165.00,0.0190
3164.00,0.0189
3163.00,0.0188
3162.00,0.0187
3161.00,0.0186
3160.00,0.0186
3159.00,0.0185
3158.00,0.0184
3157.00,0.0183
3156.00,0.0182
3155.00,0.0181
3154.00,0.0181
3153.00,0.0180
3152.00,0.0179
3151.00,0.0178
3150.00,0.0177
3149.00,0.0176
3148.00,0.0175
3147.00,0.0174
3146.00,0.0173
3145.00,0.0173
3144.00,0.0172
3143.00,0.0171
3142.00,0.0171
3141.00,0.0170
3140.00,0.0169
3139.00,0.0169
3138.00,0.0168
3137.00,0.0167
3136.00,0.0166
3135.00,0.0166
3134.00,0.0165
3133.00,0.0165
3132.00,0.0164
3131.00,0.0164
3130.00,0.0163
3129.00,0.0163
3128.00,0.0162
3127.00,0.0162
3126.00,0.0161
3125.00,0.0161
3124.00,0.0161
3123.00,0.0160
3122.00,0.0160
3121.00,0.0160
3120.00,0.0160
3119.00,0.0159
3118.00,0.0159
3117.00,0.0159
3116.00,0.0158
3115.00,0.0158
3114.00,0.0158
3113.00,0.0157
3112.00,0.0157
3111.00,0.0157
3110.00,0.0156
3109.00,0.0156
3108.00,0.0156
3107.00,0.0156
3106.00,0.0156
3105.00,0.0156
3104.00,0.0156
3103.00,0.0156
3102.00,0.0156
3101.00,0.0156
3100.00,0.0156
3099.00,0.0156
3098.00,0.0156
3097.00,0.0156
3096.00,0.0156
3095.00,0.0156
3094.00,0.0156
3093.00,0.0156
3092.00,0.0156
3091.00,0.0156
3090.00,0.0157
3089.00,0.0157
3088.00,0.0157
3087.00,0.0157
3086.00,0.0157
3085.00,0.0157
3084.00,0.0157
3083.00,0.0157
3082.00,0.0157
3081.00,0.0158
3080.00,0.0158
3079.00,0.0158
3078.00,0.0158
3077.00,0.0159
3076.00,0.0159
3075.00,0.0158
3074.00,0.0158
3073.00,0.0159
3072.00,0.0159
3071.00,0.0159
3070.00,0.0158
3069.00,0.0158
3068.00,0.0158
3067.00,0.0159
3066.00,0.0159
3065.00,0.0159
3064.00,0.0159
3063.00,0.0159
3062.00,0.0159
3061.00,0.0158
3060.00,0.0158
3059.00,0.0158
3058.00,0.0158
3057.00,0.0157
3056.00,0.0157
3055.00,0.0157
3054.00,0.0157
3053.00,0.0156
3052.00,0.0156
3051.00,0.0156
3050.00,0.0155
3049.00,0.0155
3048.00,0.0155
3047.00,0.0154
3046.00,0.0154
3045.00,0.0153
3044.00,0.0153
3043.00,0.0152
3042.00,0.0152
3041.00,0.0152
3040.00,0.0151
3039.00,0.0151
3038.00,0.0150
3037.00,0.0150
3036.00,0.0149
3035.00,0.0149
3034.00,0.0148
3033.00,0.0148
3032.00,0.0148
3031.00,0.0147
3030.00,0.0147
3029.00,0.0146
3028.00,0.0146
3027.00,0.0145
3026.00,0.0145
3025.00,0.0144
3024.00,0.0143
3023.00,0.0143
3022.00,0.0142
3021.00,0.0142
3020.00,0.0141
3019.00,0.0140
3018.00,0.0140
3017.00,0.0139
3016.00,0.0139
3015.00,0.0139
3014.00,0.0138
3013.00,0.0138
3012.00,0.0138
3011.00,0.0138
3010.00,0.0138
3009.00,0.0138
3008.00,0.0138
3007.00,0.0138
3006.00,0.0138
3005.00,0.0138
3004.00,0.0138
3003.00,0.0138
3002.00,0.0138
3001.00,0.0139
3000.00,0.0139
2999.00,0.0139
2998.00,0.0139
2997.00,0.0140
2996.00,0.0140
2995.00,0.0140
2994.00,0.0141
2993.00,0.0142
2992.00,0.0142
2991.00,0.0143
2990.00,0.0144
2989.00,0.0144
2988.00,0.0145
2987.00,0.0146
2986.00,0.0147
2985.00,0.0148
2984.00,0.0150
2983.00,0.0151
2982.00,0.0152
2981.00,0.0153
2980.00,0.0154
2979.00,0.0154
2978.00,0.0155
2977.00,0.0155
2976.00,0.0156
2975.00,0.0156
2974.00,0.0157
2973.00,0.0158
2972.00,0.0158
2971.00,0.0159
2970.00,0.0159
2969.00,0.0160
2968.00,0.0160
2967.00,0.0160
2966.00,0.0161
2965.00,0.0161
2964.00,0.0161
2963.00,0.0162
2962.00,0.0162
2961.00,0.0161
2960.00,0.0161
2959.00,0.0161
2958.00,0.0161
2957.00,0.0161
2956.00,0.0161
2955.00,0.0160
2954.00,0.0160
2953.00,0.0159
2952.00,0.0159
2951.00,0.0158
2950.00,0.0158
2949.00,0.0158
2948.00,0.0158
2947.00,0.0158
2946.00,0.0158
2945.00,0.0158
2944.00,0.0159
2943.00,0.0159
2942.00,0.0160
2941.00,0.0160
2940.00,0.0161
2939.00,0.0162
2938.00,0.0163
2937.00,0.0164
2936.00,0.0164
2935.00,0.0165
2934.00,0.0166
2933.00,0.0167
2932.00,0.0167
2931.00,0.0168
2930.00,0.0168
2929.00,0.0168
2928.00,0.0168
2927.00,0.0168
2926.00,0.0168
2925.00,0.0167
2924.00,0.0167
2923.00,0.0166
2922.00,0.0165
2921.00,0.0164
2920.00,0.0163
2919.00,0.0162
2918.00,0.0161
2917.00,0.0160
2916.00,0.0159
2915.00,0.0157
2914.00,0.0156
2913.00,0.0155
2912.00,0.0154
2911.00,0.0153
2910.00,0.0152
2909.00,0.0151
2908.00,0.0151
2907.00,0.0150
2906.00,0.0149
2905.00,0.0149
2904.00,0.0148
2903.00,0.0148
2902.00,0.0147
2901.00,0.0146
2900.00,0.0146
2899.00,0.0146
2898.00,0.0145
2897.00,0.0145
2896.00,0.0145
2895.00,0.0144
2894.00,0.0144
2893.00,0.0144
2892.00,0.0144
2891.00,0.0144
2890.00,0.0144
2889.00,0.0144
2888.00,0.0144
2887.00,0.0144
2886.00,0.0144
2885.00,0.0144
2884.00,0.0144
2883.00,0.0145
2882.00,0.0145
2881.00,0.0145
2880.00,0.0146
2879.00,0.0146
2878.00,0.0146
2877.00,0.0146
2876.00,0.0147
2875.00,0.0147
2874.00,0.0146
2873.00,0.0146
2872.00,0.0146
2871.00,0.0145
2870.00,0.0144
2869.00,0.0144
2868.00,0.0143
2867.00,0.0142
2866.00,0.0142
2865.00,0.0141
2864.00,0.0140
2863.00,0.0139
2862.00,0.0139
2861.00,0.0139
2860.00,0.0138
2859.00,0.0138
2858.00,0.0138
2857.00,0.0137
2856.00,0.0137
2855.00,0.0137
2854.00,0.0136
2853.00,0.0136
2852.00,0.0135
2851.00,0.0134
2850.00,0.0134
2849.00,0.0133
2848.00,0.0133
2847.00,0.0132
2846.00,0.0131
2845.00,0.0130
2844.00,0.0130
2843.00,0.0129
2842.00,0.0128
2841.00,0.0128
2840.00,0.0127
2839.00,0.0127
2838.00,0.0126
2837.00,0.0126
2836.00,0.0125
2835.00,0.0125
2834.00,0.0125
2833.00,0.0124
2832.00,0.0124
2831.00,0.0123
2830.00,0.0123
2829.00,0.0123
2828.00,0.0123
2827.00,0.0122
2826.00,0.0122
2825.00,0.0122
2824.00,0.0122
2823.00,0.0122
2822.00,0.0122
2821.00,0.0121
2820.00,0.0121
2819.00,0.0121
2818.00,0.0121
2817.00,0.0121
2816.00,0.0120
2815.00,0.0120
2814.00,0.0120
2813.00,0.0120
2812.00,0.0120
2811.00,0.0120
2810.00,0.0120
2809.00,0.0119
2808.00,0.0119
2807.00,0.0119
2806.00,0.0119
2805.00,0.0119
2804.00,0.0118
2803.00,0.0118
2802.00,0.0118
2801.00,0.0118
2800.00,0.0118
2799.00,0.0118
2798.00,0.0118
2797.00,0.0117
2796.00,0.0117
2795.00,0.0117
2794.00,0.0117
2793.00,0.0117
2792.00,0.0117
2791.00,0.0117
2790.00,0.0116
2789.00,0.0116
2788.00,0.0116
2787.00,0.0116
2786.00,0.0115
2785.00,0.0115
2784.00,0.0115
2783.00,0.0115
2782.00,0.0115
2781.00,0.0115
2780.00,0.0115
2779.00,0.0115
2778.00,0.0114
2777.00,0.0114
2776.00,0.0114
2775.00,0.0114
2774.00,0.0114
2773.00,0.0114
2772.00,0.0114
2771.00,0.0113
2770.00,0.0113
2769.00,0.0113
2768.00,0.0113
2767.00,0.0113
2766.00,0.0113
2765.00,0.0113
2764.00,0.0112
2763.00,0.0112
2762.00,0.0112
2761.00,0.0112
2760.00,0.0112
2759.00,0.0112
2758.00,0.0112
2757.00,0.0112
2756.00,0.0111
2755.00,0.0111
2754.00,0.0111
2753.00,0.0111
2752.00,0.0111
2751.00,0.0111
2750.00,0.0111
2749.00,0.0111
2748.00,0.0111
2747.00,0.0110
2746.00,0.0110
2745.00,0.0110
2744.00,0.0110
2743.00,0.0109
2742.00,0.0109
2741.00,0.0109
2740.00,0.0109
2739.00,0.0109
2738.00,0.0109
2737.00,0.0109
2736.00,0.0109
2735.00,0.0108
2734.00,0.0108
2733.00,0.0108
2732.00,0.0108
2731.00,0.0108
2730.00,0.0108
2729.00,0.0108
2728.00,0.0108
2727.00,0.0108
2726.00,0.0107
2725.00,0.0107
2724.00,0.0107
2723.00,0.0107
2722.00,0.0107
2721.00,0.0107
2720.00,0.0106
2719.00,0.0106
2718.00,0.0106
2717.00,0.0106
2716.00,0.0105
2715.00,0.0105
2714.00,0.0105
2713.00,0.0105
2712.00,0.0105
2711.00,0.0105
2710.00,0.0105
2709.00,0.0105
2708.00,0.0104
2707.00,0.0104
2706.00,0.0104
2705.00,0.0104
2704.00,0.0104
2703.00,0.0104
2702.00,0.0104
2701.00,0.0104
2700.00,0.0104
2699.00,0.0104
2698.00,0.0103
2697.00,0.0103
2696.00,0.0103
2695.00,0.0103
2694.00,0.0103
2693.00,0.0103
2692.00,0.0103
2691.00,0.0103
2690.00,0.0103
2689.00,0.0102
2688.00,0.0102
2687.00,0.0103
2686.00,0.0102
2685.00,0.0102
2684.00,0.0102
2683.00,0.0102
2682.00,0.0102
2681.00,0.0102
2680.00,0.0102
2679.00,0.0102
2678.00,0.0102
2677.00,0.0102
2676.00,0.0102
2675.00,0.0102
2674.00,0.0102
2673.00,0.0101
2672.00,0.0101
2671.00,0.0101
2670.00,0.0101
2669.00,0.0101
2668.00,0.0102
2667.00,0.0102
2666.00,0.0102
2665.00,0.0103
2664.00,0.0103
2663.00,0.0104
2662.00,0.0104
2661.00,0.0105
2660.00,0.0105
2659.00,0.0105
2658.00,0.0105
2657.00,0.0105
2656.00,0.0106
2655.00,0.0106
2654.00,0.0106
2653.00,0.0106
2652.00,0.0105
2651.00,0.0105
2650.00,0.0105
2649.00,0.0105
2648.00,0.0105
2647.00,0.0105
2646.00,0.0105
2645.00,0.0105
2644.00,0.0105
2643.00,0.0105
2642.00,0.0105
2641.00,0.0105
2640.00,0.0104
2639.00,0.0104
2638.00,0.0104
2637.00,0.0104
2636.00,0.0104
2635.00,0.0104
2634.00,0.0104
2633.00,0.0104
2632.00,0.0103
2631.00,0.0103
2630.00,0.0103
2629.00,0.0103
2628.00,0.0103
2627.00,0.0102
2626.00,0.0102
2625.00,0.0102
2624.00,0.0102
2623.00,0.0102
2622.00,0.0102
2621.00,0.0102
2620.00,0.0102
2619.00,0.0101
2618.00,0.0101
2617.00,0.0101
2616.00,0.0101
2615.00,0.0100
2614.00,0.0100
2613.00,0.0100
2612.00,0.0100
2611.00,0.0100
2610.00,0.0100
2609.00,0.0100
2608.00,0.0100
2607.00,0.0099
2606.00,0.0099
2605.00,0.0099
2604.00,0.0099
2603.00,0.0099
2602.00,0.0098
2601.00,0.0098
2600.00,0.0098
2599.00,0.0098
2598.00,0.0098
2597.00,0.0097
2596.00,0.0097
2595.00,0.0097
2594.00,0.0097
2593.00,0.0097
2592.00,0.0097
2591.00,0.0097
2590.00,0.0097
2589.00,0.0096
2588.00,0.0096
2587.00,0.0096
2586.00,0.0096
2585.00,0.0096
2584.00,0.0096
2583.00,0.0095
2582.00,0.0095
2581.00,0.0095
2580.00,0.0095
2579.00,0.0095
2578.00,0.0095
2577.00,0.0095
2576.00,0.0095
2575.00,0.0095
2574.00,0.0094
2573.00,0.0094
2572.00,0.0094
2571.00,0.0094
2570.00,0.0094
2569.00,0.0094
2568.00,0.0094
2567.00,0.0093
2566.00,0.0093
2565.00,0.0093
2564.00,0.0093
2563.00,0.0093
2562.00,0.0093
2561.00,0.0093
2560.00,0.0093
2559.00,0.0093
2558.00,0.0093
2557.00,0.0093
2556.00,0.0092
2555.00,0.0092
2554.00,0.0092
2553.00,0.0092
2552.00,0.0092
2551.00,0.0092
2550.00,0.0091
2549.00,0.0091
2548.00,0.0091
2547.00,0.0092
2546.00,0.0092
2545.00,0.0092
2544.00,0.0091
2543.00,0.0091
2542.00,0.0091
2541.00,0.0091
2540.00,0.0091
2539.00,0.0091
2538.00,0.0091
2537.00,0.0091
2536.00,0.0091
2535.00,0.0091
2534.00,0.0091
2533.00,0.0090
2532.00,0.0090
2531.00,0.0090
2530.00,0.0090
2529.00,0.0090
2528.00,0.0090
2527.00,0.0090
2526.00,0.0090
2525.00,0.0090
2524.00,0.0090
2523.00,0.0089
2522.00,0.0089
2521.00,0.0089
2520.00,0.0089
2519.00,0.0089
2518.00,0.0089
2517.00,0.0089
2516.00,0.0089
2515.00,0.0089
2514.00,0.0089
2513.00,0.0089
2512.00,0.0089
2511.00,0.0089
2510.00,0.0089
2509.00,0.0089
2508.00,0.0089
2507.00,0.0089
2506.00,0.0088
2505.00,0.0088
2504.00,0.0088
2503.00,0.0088
2502.00,0.0088
2501.00,0.0088
2500.00,0.0088
2499.00,0.0088
2498.00,0.0088
2497.00,0.0088
2496.00,0.0088
2495.00,0.0088
2494.00,0.0088
2493.00,0.0088
2492.00,0.0088
2491.00,0.0088
2490.00,0.0088
2489.00,0.0088
2488.00,0.0088
2487.00,0.0087
2486.00,0.0087
2485.00,0.0087
2484.00,0.0087
2483.00,0.0087
2482.00,0.0087
2481.00,0.0087
2480.00,0.0087
2479.00,0.0087
2478.00,0.0087
2477.00,0.0087
2476.00,0.0087
2475.00,0.0087
2474.00,0.0086
2473.00,0.0087
2472.00,0.0087
2471.00,0.0087
2470.00,0.0087
2469.00,0.0087
2468.00,0.0087
2467.00,0.0087
2466.00,0.0087
2465.00,0.0087
2464.00,0.0087
2463.00,0.0087
2462.00,0.0087
2461.00,0.0087
2460.00,0.0087
2459.00,0.0088
2458.00,0.0088
2457.00,0.0088
2456.00,0.0088
2455.00,0.0088
2454.00,0.0088
2453.00,0.0088
2452.00,0.0088
2451.00,0.0087
2450.00,0.0087
2449.00,0.0087
2448.00,0.0087
2447.00,0.0087
2446.00,0.0086
2445.00,0.0086
2444.00,0.0086
2443.00,0.0086
2442.00,0.0086
2441.00,0.0086
2440.00,0.0086
2439.00,0.0085
2438.00,0.0085
2437.00,0.0085
2436.00,0.0085
2435.00,0.0085
2434.00,0.0085
2433.00,0.0085
2432.00,0.0084
2431.00,0.0084
2430.00,0.0084
2429.00,0.0084
2428.00,0.0084
2427.00,0.0084
2426.00,0.0084
2425.00,0.0084
2424.00,0.0083
2423.00,0.0083
2422.00,0.0083
2421.00,0.0083
2420.00,0.0083
2419.00,0.0083
2418.00,0.0083
2417.00,0.0083
2416.00,0.0083
2415.00,0.0083
2414.00,0.0083
2413.00,0.0083
2412.00,0.0083
2411.00,0.0083
2410.00,0.0083
2409.00,0.0082
2408.00,0.0082
2407.00,0.0081
2406.00,0.0081
2405.00,0.0081
2404.00,0.0081
2403.00,0.0081
2402.00,0.0080
2401.00,0.0080
2400.00,0.0080
2399.00,0.0080
2398.00,0.0080
2397.00,0.0080
2396.00,0.0081
2395.00,0.0080
2394.00,0.0080
2393.00,0.0080
2392.00,0.0080
2391.00,0.0080
2390.00,0.0079
2389.00,0.0079
2388.00,0.0079
2387.00,0.0079
2386.00,0.0079
2385.00,0.0079
2384.00,0.0078
2383.00,0.0078
2382.00,0.0077
2381.00,0.0077
2380.00,0.0077
2379.00,0.0077
2378.00,0.0077
2377.00,0.0077
2376.00,0.0077
2375.00,0.0077
2374.00,0.0078
2373.00,0.0078
2372.00,0.0077
2371.00,0.0077
2370.00,0.0077
2369.00,0.0077
2368.00,0.0077
2367.00,0.0077
2366.00,0.0077
2365.00,0.0077
2364.00,0.0078
2363.00,0.0078
2362.00,0.0078
2361.00,0.0078
2360.00,0.0079
2359.00,0.0079
2358.00,0.0079
2357.00,0.0079
2356.00,0.0079
2355.00,0.0079
2354.00,0.0079
2353.00,0.0078
2352.00,0.0078
2351.00,0.0078
2350.00,0.0079
2349.00,0.0080
2348.00,0.0082
2347.00,0.0083
2346.00,0.0084
2345.00,0.0084
2344.00,0.0083
2343.00,0.0082
2342.00,0.0082
2341.00,0.0082
2340.00,0.0083
2339.00,0.0083
2338.00,0.0083
2337.00,0.0083
2336.00,0.0083
2335.00,0.0082
2334.00,0.0082
2333.00,0.0082
2332.00,0.0082
2331.00,0.0082
2330.00,0.0082
2329.00,0.0084
2328.00,0.0087
2327.00,0.0091
2326.00,0.0095
2325.00,0.0097
2324.00,0.0096
2323.00,0.0094
2322.00,0.0092
2321.00,0.0090
2320.00,0.0089
2319.00,0.0088
2318.00,0.0087
2317.00,0.0087
2316.00,0.0086
2315.00,0.0086
2314.00,0.0085
2313.00,0.0085
2312.00,0.0084
2311.00,0.0084
2310.00,0.0084
2309.00,0.0084
2308.00,0.0084
2307.00,0.0084
2306.00,0.0084
2305.00,0.0084
2304.00,0.0084
2303.00,0.0085
2302.00,0.0085
2301.00,0.0085
2300.00,0.0086
2299.00,0.0086
2298.00,0.0087
2297.00,0.0087
2296.00,0.0088
2295.00,0.0089
2294.00,0.0089
2293.00,0.0090
2292.00,0.0091
2291.00,0.0091
2290.00,0.0092
2289.00,0.0093
2288.00,0.0093
2287.00,0.0093
2286.00,0.0093
2285.00,0.0092
2284.00,0.0091
2283.00,0.0091
2282.00,0.0090
2281.00,0.0090
2280.00,0.0089
2279.00,0.0089
2278.00,0.0088
2277.00,0.0088
2276.00,0.0087
2275.00,0.0087
2274.00,0.0087
2273.00,0.0087
2272.00,0.0086
2271.00,0.0086
2270.00,0.0086
2269.00,0.0086
2268.00,0.0085
2267.00,0.0085
2266.00,0.0084
2265.00,0.0084
2264.00,0.0084
2263.00,0.0084
2262.00,0.0084
2261.00,0.0084
2260.00,0.0084
2259.00,0.0084
2258.00,0.0084
2257.00,0.0083
2256.00,0.0082
2255.00,0.0081
2254.00,0.0080
2253.00,0.0081
2252.00,0.0081
2251.00,0.0082
2250.00,0.0082
2249.00,0.0082
2248.00,0.0082
2247.00,0.0082
2246.00,0.0082
2245.00,0.0082
2244.00,0.0082
2243.00,0.0082
2242.00,0.0082
2241.00,0.0082
2240.00,0.0083
2239.00,0.0083
2238.00,0.0083
2237.00,0.0083
2236.00,0.0083
2235.00,0.0082
2234.00,0.0082
2233.00,0.0082
2232.00,0.0082
2231.00,0.0082
2230.00,0.0082
2229.00,0.0082
2228.00,0.0082
2227.00,0.0081
2226.00,0.0081
2225.00,0.0080
2224.00,0.0080
2223.00,0.0081
2222.00,0.0081
2221.00,0.0081
2220.00,0.0081
2219.00,0.0081
2218.00,0.0080
2217.00,0.0080
2216.00,0.0079
2215.00,0.0079
2214.00,0.0079
2213.00,0.0080
2212.00,0.0080
2211.00,0.0080
2210.00,0.0080
2209.00,0.0080
2208.00,0.0080
2207.00,0.0080
2206.00,0.0080
2205.00,0.0080
2204.00,0.0081
2203.00,0.0081
2202.00,0.0082
2201.00,0.0082
2200.00,0.0082
2199.00,0.0082
2198.00,0.0081
2197.00,0.0081
2196.00,0.0081
2195.00,0.0081
2194.00,0.0081
2193.00,0.0082
2192.00,0.0082
2191.00,0.0083
2190.00,0.0083
2189.00,0.0083
2188.00,0.0083
2187.00,0.0084
2186.00,0.0084
2185.00,0.0082
2184.00,0.0080
2183.00,0.0077
2182.00,0.0076
2181.00,0.0076
2180.00,0.0077
2179.00,0.0078
2178.00,0.0076
2177.00,0.0074
2176.00,0.0073
2175.00,0.0072
2174.00,0.0073
2173.00,0.0075
2172.00,0.0077
2171.00,0.0080
2170.00,0.0083
2169.00,0.0086
2168.00,0.0088
2167.00,0.0089
2166.00,0.0089
2165.00,0.0090
2164.00,0.0091
2163.00,0.0091
2162.00,0.0086
2161.00,0.0075
2160.00,0.0061
2159.00,0.0048
2158.00,0.0042
2157.00,0.0043
2156.00,0.0046
2155.00,0.0050
2154.00,0.0052
2153.00,0.0054
2152.00,0.0056
2151.00,0.0057
2150.00,0.0058
2149.00,0.0059
2148.00,0.0059
2147.00,0.0059
2146.00,0.0059
2145.00,0.0059
2144.00,0.0060
2143.00,0.0060
2142.00,0.0060
2141.00,0.0060
2140.00,0.0060
2139.00,0.0060
2138.00,0.0059
2137.00,0.0057
2136.00,0.0055
2135.00,0.0053
2134.00,0.0053
2133.00,0.0054
2132.00,0.0056
2131.00,0.0058
2130.00,0.0060
2129.00,0.0062
2128.00,0.0063
2127.00,0.0064
2126.00,0.0065
2125.00,0.0067
2124.00,0.0068
2123.00,0.0069
2122.00,0.0070
2121.00,0.0071
2120.00,0.0072
2119.00,0.0073
2118.00,0.0074
2117.00,0.0075
2116.00,0.0076
2115.00,0.0077
2114.00,0.0077
2113.00,0.0077
2112.00,0.0077
2111.00,0.0077
2110.00,0.0076
2109.00,0.0076
2108.00,0.0076
2107.00,0.0076
2106.00,0.0075
2105.00,0.0075
2104.00,0.0075
2103.00,0.0075
2102.00,0.0075
2101.00,0.0076
2100.00,0.0076
2099.00,0.0075
2098.00,0.0074
2097.00,0.0072
2096.00,0.0071
2095.00,0.0070
2094.00,0.0070
2093.00,0.0072
2092.00,0.0073
2091.00,0.0074
2090.00,0.0074
2089.00,0.0075
2088.00,0.0075
2087.00,0.0075
2086.00,0.0076
2085.00,0.0076
2084.00,0.0077
2083.00,0.0077
2082.00,0.0077
2081.00,0.0077
2080.00,0.0077
2079.00,0.0077
2078.00,0.0077
2077.00,0.0077
2076.00,0.0077
2075.00,0.0077
2074.00,0.0076
2073.00,0.0076
2072.00,0.0076
2071.00,0.0076
2070.00,0.0076
2069.00,0.0075
2068.00,0.0074
2067.00,0.0074
2066.00,0.0074
2065.00,0.0074
2064.00,0.0074
2063.00,0.0074
2062.00,0.0074
2061.00,0.0074
2060.00,0.0074
2059.00,0.0075
2058.00,0.0076
2057.00,0.0076
2056.00,0.0076
2055.00,0.0077
2054.00,0.0080
2053.00,0.0084
2052.00,0.0087
2051.00,0.0088
2050.00,0.0085
2049.00,0.0080
2048.00,0.0077
2047.00,0.0074
2046.00,0.0073
2045.00,0.0073
2044.00,0.0073
2043.00,0.0073
2042.00,0.0073
2041.00,0.0074
2040.00,0.0074
2039.00,0.0075
2038.00,0.0075
2037.00,0.0075
2036.00,0.0074
2035.00,0.0071
2034.00,0.0069
2033.00,0.0067
2032.00,0.0066
2031.00,0.0065
2030.00,0.0064
2029.00,0.0064
2028.00,0.0065
2027.00,0.0065
2026.00,0.0065
2025.00,0.0065
2024.00,0.0064
2023.00,0.0064
2022.00,0.0064
2021.00,0.0064
2020.00,0.0064
2019.00,0.0064
2018.00,0.0063
2017.00,0.0063
2016.00,0.0064
2015.00,0.0065
2014.00,0.0066
2013.00,0.0066
2012.00,0.0065
2011.00,0.0065
2010.00,0.0064
2009.00,0.0063
2008.00,0.0060
2007.00,0.0057
2006.00,0.0055
2005.00,0.0056
2004.00,0.0057
2003.00,0.0059
2002.00,0.0061
2001.00,0.0063
2000.00,0.0064
1999.00,0.0065
1998.00,0.0066
1997.00,0.0066
1996.00,0.0067
1995.00,0.0067
1994.00,0.0067
1993.00,0.0068
1992.00,0.0069
1991.00,0.0070
1990.00,0.0070
1989.00,0.0071
1988.00,0.0071
1987.00,0.0071
1986.00,0.0071
1985.00,0.0073
1984.00,0.0076
1983.00,0.0079
1982.00,0.0081
1981.00,0.0081
1980.00,0.0078
1979.00,0.0070
1978.00,0.0063
1977.00,0.0057
1976.00,0.0055
1975.00,0.0055
1974.00,0.0054
1973.00,0.0055
1972.00,0.0055
1971.00,0.0055
1970.00,0.0055
1969.00,0.0056
1968.00,0.0056
1967.00,0.0056
1966.00,0.0056
1965.00,0.0056
1964.00,0.0056
1963.00,0.0055
1962.00,0.0053
1961.00,0.0052
1960.00,0.0051
1959.00,0.0051
1958.00,0.0052
1957.00,0.0053
1956.00,0.0054
1955.00,0.0055
1954.00,0.0056
1953.00,0.0056
1952.00,0.0056
1951.00,0.0056
1950.00,0.0056
1949.00,0.0056
1948.00,0.0057
1947.00,0.0057
1946.00,0.0056
1945.00,0.0057
1944.00,0.0057
1943.00,0.0058
1942.00,0.0058
1941.00,0.0058
1940.00,0.0058
1939.00,0.0058
1938.00,0.0058
1937.00,0.0057
1936.00,0.0057
1935.00,0.0056
1934.00,0.0056
1933.00,0.0056
1932.00,0.0056
1931.00,0.0056
1930.00,0.0057
1929.00,0.0057
1928.00,0.0057
1927.00,0.0057
1926.00,0.0057
1925.00,0.0057
1924.00,0.0058
1923.00,0.0058
1922.00,0.0059
1921.00,0.0061
1920.00,0.0061
1919.00,0.0061
1918.00,0.0061
1917.00,0.0060
1916.00,0.0060
1915.00,0.0060
1914.00,0.0060
1913.00,0.0060
1912.00,0.0060
1911.00,0.0060
1910.00,0.0060
1909.00,0.0060
1908.00,0.0060
1907.00,0.0060
1906.00,0.0060
1905.00,0.0060
1904.00,0.0060
1903.00,0.0060
1902.00,0.0060
1901.00,0.0060
1900.00,0.0060
1899.00,0.0060
1898.00,0.0060
1897.00,0.0060
1896.00,0.0060
1895.00,0.0060
1894.00,0.0060
1893.00,0.0060
1892.00,0.0060
1891.00,0.0060
1890.00,0.0060
1889.00,0.0060
1888.00,0.0060
1887.00,0.0060
1886.00,0.0060
1885.00,0.0060
1884.00,0.0060
1883.00,0.0060
1882.00,0.0060
1881.00,0.0060
1880.00,0.0059
1879.00,0.0059
1878.00,0.0059
1877.00,0.0059
1876.00,0.0059
1875.00,0.0059
1874.00,0.0059
1873.00,0.0059
1872.00,0.0059
1871.00,0.0060
1870.00,0.0060
1869.00,0.0059
1868.00,0.0059
1867.00,0.0059
1866.00,0.0060
1865.00,0.0060
1864.00,0.0060
1863.00,0.0060
1862.00,0.0059
1861.00,0.0059
1860.00,0.0059
1859.00,0.0059
1858.00,0.0059
1857.00,0.0059
1856.00,0.0059
1855.00,0.0059
1854.00,0.0059
1853.00,0.0058
1852.00,0.0058
1851.00,0.0058
1850.00,0.0058
1849.00,0.0058
1848.00,0.0058
1847.00,0.0058
1846.00,0.0058
1845.00,0.0058
1844.00,0.0057
1843.00,0.0058
1842.00,0.0058
1841.00,0.0059
1840.00,0.0059
1839.00,0.0059
1838.00,0.0058
1837.00,0.0058
1836.00,0.0058
1835.00,0.0058
1834.00,0.0058
1833.00,0.0058
1832.00,0.0058
1831.00,0.0058
1830.00,0.0058
1829.00,0.0058
1828.00,0.0058
1827.00,0.0058
1826.00,0.0058
1825.00,0.0058
1824.00,0.0058
1823.00,0.0058
1822.00,0.0058
1821.00,0.0057
1820.00,0.0057
1819.00,0.0055
1818.00,0.0054
1817.00,0.0054
1816.00,0.0054
1815.00,0.0054
1814.00,0.0055
1813.00,0.0056
1812.00,0.0057
1811.00,0.0057
1810.00,0.0057
1809.00,0.0058
1808.00,0.0058
1807.00,0.0057
1806.00,0.0058
1805.00,0.0057
1804.00,0.0057
1803.00,0.0057
1802.00,0.0057
1801.00,0.0058
1800.00,0.0058
1799.00,0.0059
1798.00,0.0059
1797.00,0.0059
1796.00,0.0059
1795.00,0.0059
1794.00,0.0059
1793.00,0.0059
1792.00,0.0059
1791.00,0.0058
1790.00,0.0058
1789.00,0.0058
1788.00,0.0058
1787.00,0.0058
1786.00,0.0058
1785.00,0.0058
1784.00,0.0057
1783.00,0.0057
1782.00,0.0057
1781.00,0.0058
1780.00,0.0058
1779.00,0.0058
1778.00,0.0057
1777.00,0.0057
1776.00,0.0057
1775.00,0.0057
1774.00,0.0057
1773.00,0.0057
1772.00,0.0057
1771.00,0.0057
1770.00,0.0057
1769.00,0.0058
1768.00,0.0058
1767.00,0.0057
1766.00,0.0057
1765.00,0.0057
1764.00,0.0056
1763.00,0.0055
1762.00,0.0055
1761.00,0.0055
1760.00,0.0055
1759.00,0.0056
1758.00,0.0056
1757.00,0.0056
1756.00,0.0057
1755.00,0.0057
1754.00,0.0057
1753.00,0.0058
1752.00,0.0059
1751.00,0.0060
1750.00,0.0059
1749.00,0.0059
1748.00,0.0060
1747.00,0.0060
1746.00,0.0059
1745.00,0.0058
1744.00,0.0057
1743.00,0.0056
1742.00,0.0055
1741.00,0.0055
1740.00,0.0055
1739.00,0.0055
1738.00,0.0054
1737.00,0.0054
1736.00,0.0055
1735.00,0.0056
1734.00,0.0055
1733.00,0.0056
1732.00,0.0057
1731.00,0.0058
1730.00,0.0058
1729.00,0.0058
1728.00,0.0058
1727.00,0.0059
1726.00,0.0059
1725.00,0.0059
1724.00,0.0060
1723.00,0.0061
1722.00,0.0061
1721.00,0.0062
1720.00,0.0062
1719.00,0.0063
1718.00,0.0064
1717.00,0.0065
1716.00,0.0066
1715.00,0.0068
1714.00,0.0070
1713.00,0.0071
1712.00,0.0072
1711.00,0.0074
1710.00,0.0076
1709.00,0.0079
1708.00,0.0082
1707.00,0.0085
1706.00,0.0089
1705.00,0.0093
1704.00,0.0097
1703.00,0.0102
1702.00,0.0108
1701.00,0.0118
1700.00,0.0129
1699.00,0.0141
1698.00,0.0151
1697.00,0.0159
1696.00,0.0166
1695.00,0.0173
1694.00,0.0180
1693.00,0.0187
1692.00,0.0194
1691.00,0.0199
1690.00,0.0205
1689.00,0.0212
1688.00,0.0218
1687.00,0.0223
1686.00,0.0229
1685.00,0.0236
1684.00,0.0244
1683.00,0.0253
1682.00,0.0261
1681.00,0.0268
1680.00,0.0276
1679.00,0.0284
1678.00,0.0290
1677.00,0.0298
1676.00,0.0306
1675.00,0.0315
1674.00,0.0324
1673.00,0.0333
1672.00,0.0342
1671.00,0.0350
1670.00,0.0358
1669.00,0.0367
1668.00,0.0376
1667.00,0.0386
1666.00,0.0395
1665.00,0.0404
1664.00,0.0414
1663.00,0.0425
1662.00,0.0435
1661.00,0.0446
1660.00,0.0456
1659.00,0.0466
1658.00,0.0474
1657.00,0.0481
1656.00,0.0487
1655.00,0.0492
1654.00,0.0496
1653.00,0.0499
1652.00,0.0507
1651.00,0.0517
1650.00,0.0525
1649.00,0.0531
1648.00,0.0534
1647.00,0.0535
1646.00,0.0535
1645.00,0.0536
1644.00,0.0538
1643.00,0.0540
1642.00,0.0541
1641.00,0.0542
1640.00,0.0542
1639.00,0.0543
1638.00,0.0543
1637.00,0.0541
1636.00,0.0537
1635.00,0.0533
1634.00,0.0531
1633.00,0.0531
1632.00,0.0531
1631.00,0.0531
1630.00,0.0529
1629.00,0.0526
1628.00,0.0524
1627.00,0.0522
1626.00,0.0520
1625.00,0.0518
1624.00,0.0516
1623.00,0.0513
1622.00,0.0511
1621.00,0.0509
1620.00,0.0509
1619.00,0.0508
1618.00,0.0505
1617.00,0.0501
1616.00,0.0499
1615.00,0.0499
1614.00,0.0499
1613.00,0.0499
1612.00,0.0498
1611.00,0.0496
1610.00,0.0494
1609.00,0.0491
1608.00,0.0488
1607.00,0.0485
1606.00,0.0481
1605.00,0.0477
1604.00,0.0473
1603.00,0.0468
1602.00,0.0463
1601.00,0.0456
1600.00,0.0450
1599.00,0.0444
1598.00,0.0437
1597.00,0.0429
1596.00,0.0421
1595.00,0.0413
1594.00,0.0404
1593.00,0.0395
1592.00,0.0386
1591.00,0.0377
1590.00,0.0368
1589.00,0.0359
1588.00,0.0350
1587.00,0.0342
1586.00,0.0334
1585.00,0.0326
1584.00,0.0319
1583.00,0.0312
1582.00,0.0306
1581.00,0.0300
1580.00,0.0295
1579.00,0.0291
1578.00,0.0286
1577.00,0.0282
1576.00,0.0279
1575.00,0.0277
1574.00,0.0277
1573.00,0.0278
1572.00,0.0278
1571.00,0.0278
1570.00,0.0279
1569.00,0.0281
1568.00,0.0284
1567.00,0.0288
1566.00,0.0291
1565.00,0.0294
1564.00,0.0298
1563.00,0.0300
1562.00,0.0302
1561.00,0.0305
1560.00,0.0312
1559.00,0.0323
1558.00,0.0333
1557.00,0.0341
1556.00,0.0349
1555.00,0.0357
1554.00,0.0366
1553.00,0.0375
1552.00,0.0384
1551.00,0.0392
1550.00,0.0401
1549.00,0.0411
1548.00,0.0420
1547.00,0.0428
1546.00,0.0435
1545.00,0.0443
1544.00,0.0450
1543.00,0.0457
1542.00,0.0464
1541.00,0.0472
1540.00,0.0478
1539.00,0.0483
1538.00,0.0488
1537.00,0.0494
1536.00,0.0499
1535.00,0.0503
1534.00,0.0506
1533.00,0.0509
1532.00,0.0512
1531.00,0.0516
1530.00,0.0520
1529.00,0.0523
1528.00,0.0525
1527.00,0.0527
1526.00,0.0529
1525.00,0.0532
1524.00,0.0535
1523.00,0.0536
1522.00,0.0538
1521.00,0.0540
1520.00,0.0542
1519.00,0.0546
1518.00,0.0550
1517.00,0.0552
1516.00,0.0554
1515.00,0.0555
1514.00,0.0557
1513.00,0.0558
1512.00,0.0557
1511.00,0.0556
1510.00,0.0556
1509.00,0.0555
1508.00,0.0552
1507.00,0.0547
1506.00,0.0542
1505.00,0.0540
1504.00,0.0539
1503.00,0.0538
1502.00,0.0535
1501.00,0.0532
1500.00,0.0527
1499.00,0.0521
1498.00,0.0515
1497.00,0.0508
1496.00,0.0500
1495.00,0.0493
1494.00,0.0487
1493.00,0.0481
1492.00,0.0474
1491.00,0.0464
1490.00,0.0453
1489.00,0.0443
1488.00,0.0432
1487.00,0.0423
1486.00,0.0414
1485.00,0.0406
1484.00,0.0398
1483.00,0.0391
1482.00,0.0384
1481.00,0.0377
1480.00,0.0371
1479.00,0.0366
1478.00,0.0362
1477.00,0.0358
1476.00,0.0354
1475.00,0.0352
1474.00,0.0351
1473.00,0.0351
1472.00,0.0350
1471.00,0.0349
1470.00,0.0349
1469.00,0.0349
1468.00,0.0348
1467.00,0.0346
1466.00,0.0346
1465.00,0.0346
1464.00,0.0346
1463.00,0.0348
1462.00,0.0349
1461.00,0.0350
1460.00,0.0351
1459.00,0.0351
1458.00,0.0351
1457.00,0.0354
1456.00,0.0357
1455.00,0.0360
1454.00,0.0362
1453.00,0.0363
1452.00,0.0363
1451.00,0.0362
1450.00,0.0361
1449.00,0.0359
1448.00,0.0357
1447.00,0.0354
1446.00,0.0352
1445.00,0.0350
1444.00,0.0348
1443.00,0.0345
1442.00,0.0342
1441.00,0.0340
1440.00,0.0337
1439.00,0.0334
1438.00,0.0330
1437.00,0.0326
1436.00,0.0323
1435.00,0.0321
1434.00,0.0320
1433.00,0.0319
1432.00,0.0317
1431.00,0.0315
1430.00,0.0313
1429.00,0.0311
1428.00,0.0311
1427.00,0.0310
1426.00,0.0310
1425.00,0.0311
1424.00,0.0311
1423.00,0.0312
1422.00,0.0312
1421.00,0.0312
1420.00,0.0312
1419.00,0.0313
1418.00,0.0315
1417.00,0.0318
1416.00,0.0320
1415.00,0.0321
1414.00,0.0322
1413.00,0.0323
1412.00,0.0323
1411.00,0.0324
1410.00,0.0324
1409.00,0.0325
1408.00,0.0325
1407.00,0.0325
1406.00,0.0325
1405.00,0.0324
1404.00,0.0324
1403.00,0.0324
1402.00,0.0323
1401.00,0.0323
1400.00,0.0323
1399.00,0.0323
1398.00,0.0322
1397.00,0.0322
1396.00,0.0322
1395.00,0.0321
1394.00,0.0321
1393.00,0.0322
1392.00,0.0323
1391.00,0.0324
1390.00,0.0324
1389.00,0.0324
1388.00,0.0324
1387.00,0.0325
1386.00,0.0326
1385.00,0.0327
1384.00,0.0327
1383.00,0.0327
1382.00,0.0327
1381.00,0.0326
1380.00,0.0326
1379.00,0.0325
1378.00,0.0325
1377.00,0.0324
1376.00,0.0324
1375.00,0.0323
1374.00,0.0322
1373.00,0.0321
1372.00,0.0321
1371.00,0.0321
1370.00,0.0320
1369.00,0.0319
1368.00,0.0317
1367.00,0.0316
1366.00,0.0314
1365.00,0.0312
1364.00,0.0309
1363.00,0.0306
1362.00,0.0304
1361.00,0.0303
1360.00,0.0302
1359.00,0.0301
1358.00,0.0300
1357.00,0.0299
1356.00,0.0298
1355.00,0.0297
1354.00,0.0296
1353.00,0.0296
1352.00,0.0296
1351.00,0.0296
1350.00,0.0296
1349.00,0.0296
1348.00,0.0296
1347.00,0.0297
1346.00,0.0297
1345.00,0.0298
1344.00,0.0298
1343.00,0.0299
1342.00,0.0300
1341.00,0.0300
1340.00,0.0300
1339.00,0.0301
1338.00,0.0302
1337.00,0.0303
1336.00,0.0305
1335.00,0.0306
1334.00,0.0306
1333.00,0.0306
1332.00,0.0307
1331.00,0.0307
1330.00,0.0307
1329.00,0.0307
1328.00,0.0308
1327.00,0.0308
1326.00,0.0308
1325.00,0.0308
1324.00,0.0309
1323.00,0.0309
1322.00,0.0309
1321.00,0.0309
1320.00,0.0309
1319.00,0.0309
1318.00,0.0310
1317.00,0.0310
1316.00,0.0311
1315.00,0.0311
1314.00,0.0311
1313.00,0.0312
1312.00,0.0312
1311.00,0.0313
1310.00,0.0313
1309.00,0.0313
1308.00,0.0314
1307.00,0.0314
1306.00,0.0315
1305.00,0.0315
1304.00,0.0316
1303.00,0.0316
1302.00,0.0317
1301.00,0.0317
1300.00,0.0317
1299.00,0.0317
1298.00,0.0317
1297.00,0.0317
1296.00,0.0317
1295.00,0.0318
1294.00,0.0317
1293.00,0.0317
1292.00,0.0317
1291.00,0.0317
1290.00,0.0317
1289.00,0.0317
1288.00,0.0316
1287.00,0.0316
1286.00,0.0316
1285.00,0.0316
1284.00,0.0316
1283.00,0.0315
1282.00,0.0315
1281.00,0.0314
1280.00,0.0314
1279.00,0.0314
1278.00,0.0314
1277.00,0.0314
1276.00,0.0313
1275.00,0.0313
1274.00,0.0313
1273.00,0.0313
1272.00,0.0313
1271.00,0.0314
1270.00,0.0314
1269.00,0.0314
1268.00,0.0315
1267.00,0.0316
1266.00,0.0316
1265.00,0.0317
1264.00,0.0318
1263.00,0.0319
1262.00,0.0320
1261.00,0.0321
1260.00,0.0322
1259.00,0.0323
1258.00,0.0325
1257.00,0.0326
1256.00,0.0328
1255.00,0.0329
1254.00,0.0331
1253.00,0.0333
1252.00,0.0334
1251.00,0.0336
1250.00,0.0338
1249.00,0.0339
1248.00,0.0341
1247.00,0.0343
1246.00,0.0344
1245.00,0.0346
1244.00,0.0347
1243.00,0.0349
1242.00,0.0350
1241.00,0.0351
1240.00,0.0352
1239.00,0.0353
1238.00,0.0353
1237.00,0.0354
1236.00,0.0355
1235.00,0.0355
1234.00,0.0355
1233.00,0.0355
1232.00,0.0355
1231.00,0.0354
1230.00,0.0354
1229.00,0.0353
1228.00,0.0352
1227.00,0.0352
1226.00,0.0351
1225.00,0.0350
1224.00,0.0348
1223.00,0.0347
1222.00,0.0346
1221.00,0.0344
1220.00,0.0343
1219.00,0.0341
1218.00,0.0339
1217.00,0.0337
1216.00,0.0336
1215.00,0.0334
1214.00,0.0331
1213.00,0.0329
1212.00,0.0327
1211.00,0.0324
1210.00,0.0322
1209.00,0.0320
1208.00,0.0317
1207.00,0.0315
1206.00,0.0312
1205.00,0.0310
1204.00,0.0307
1203.00,0.0305
1202.00,0.0302
1201.00,0.0300
1200.00,0.0297
1199.00,0.0294
1198.00,0.0292
1197.00,0.0290
1196.00,0.0288
1195.00,0.0286
1194.00,0.0284
1193.00,0.0282
1192.00,0.0281
1191.00,0.0279
1190.00,0.0278
1189.00,0.0277
1188.00,0.0276
1187.00,0.0274
1186.00,0.0273
1185.00,0.0273
1184.00,0.0272
1183.00,0.0272
1182.00,0.0271
1181.00,0.0271
1180.00,0.0271
1179.00,0.0271
1178.00,0.0272
1177.00,0.0273
1176.00,0.0274
1175.00,0.0276
1174.00,0.0277
1173.00,0.0279
1172.00,0.0281
1171.00,0.0282
1170.00,0.0283
1169.00,0.0285
1168.00,0.0286
1167.00,0.0287
1166.00,0.0288
1165.00,0.0289
1164.00,0.0291
1163.00,0.0292
1162.00,0.0292
1161.00,0.0293
1160.00,0.0293
1159.00,0.0293
1158.00,0.0293
1157.00,0.0293
1156.00,0.0293
1155.00,0.0292
1154.00,0.0291
1153.00,0.0290
1152.00,0.0289
1151.00,0.0288
1150.00,0.0287
1149.00,0.0286
1148.00,0.0285
1147.00,0.0283
1146.00,0.0282
1145.00,0.0281
1144.00,0.0280
1143.00,0.0278
1142.00,0.0278
1141.00,0.0277
1140.00,0.0276
1139.00,0.0276
1138.00,0.0275
1137.00,0.0275
1136.00,0.0275
1135.00,0.0274
1134.00,0.0274
1133.00,0.0274
1132.00,0.0274
1131.00,0.0274
1130.00,0.0274
1129.00,0.0274
1128.00,0.0274
1127.00,0.0273
1126.00,0.0273
1125.00,0.0272
1124.00,0.0272
1123.00,0.0271
1122.00,0.0271
1121.00,0.0270
1120.00,0.0269
1119.00,0.0269
1118.00,0.0268
1117.00,0.0268
1116.00,0.0267
1115.00,0.0267
1114.00,0.0266
1113.00,0.0266
1112.00,0.0266
1111.00,0.0266
1110.00,0.0267
1109.00,0.0267
1108.00,0.0268
1107.00,0.0268
1106.00,0.0269
1105.00,0.0269
1104.00,0.0270
1103.00,0.0271
1102.00,0.0271
1101.00,0.0272
1100.00,0.0273
1099.00,0.0274
1098.00,0.0274
1097.00,0.0275
1096.00,0.0277
1095.00,0.0278
1094.00,0.0280
1093.00,0.0282
1092.00,0.0284
1091.00,0.0286
1090.00,0.0289
1089.00,0.0292
1088.00,0.0296
1087.00,0.0299
1086.00,0.0303
1085.00,0.0307
1084.00,0.0311
1083.00,0.0315
1082.00,0.0319
1081.00,0.0323
1080.00,0.0327
1079.00,0.0331
1078.00,0.0335
1077.00,0.0338
1076.00,0.0341
1075.00,0.0344
1074.00,0.0346
1073.00,0.0349
1072.00,0.0351
1071.00,0.0353
1070.00,0.0354
1069.00,0.0355
1068.00,0.0356
1067.00,0.0357
1066.00,0.0358
1065.00,0.0359
1064.00,0.0359
1063.00,0.0360
1062.00,0.0360
1061.00,0.0360
1060.00,0.0360
1059.00,0.0360
1058.00,0.0360
1057.00,0.0361
1056.00,0.0361
1055.00,0.0361
1054.00,0.0361
1053.00,0.0360
1052.00,0.0360
1051.00,0.0360
1050.00,0.0359
1049.00,0.0358
1048.00,0.0357
1047.00,0.0355
1046.00,0.0354
1045.00,0.0352
1044.00,0.0351
1043.00,0.0349
1042.00,0.0347
1041.00,0.0345
1040.00,0.0343
1039.00,0.0340
1038.00,0.0338
1037.00,0.0336
1036.00,0.0334
1035.00,0.0332
1034.00,0.0329
1033.00,0.0327
1032.00,0.0325
1031.00,0.0323
1030.00,0.0320
1029.00,0.0318
1028.00,0.0315
1027.00,0.0312
1026.00,0.0309
1025.00,0.0306
1024.00,0.0303
1023.00,0.0301
1022.00,0.0298
1021.00,0.0295
1020.00,0.0293
1019.00,0.0290
1018.00,0.0287
1017.00,0.0285
1016.00,0.0283
1015.00,0.0280
1014.00,0.0278
1013.00,0.0275
1012.00,0.0273
1011.00,0.0271
1010.00,0.0269
1009.00,0.0266
1008.00,0.0264
1007.00,0.0262
1006.00,0.0260
1005.00,0.0258
1004.00,0.0256
1003.00,0.0254
1002.00,0.0252
1001.00,0.0251
1000.00,0.0249
999.00,0.0247
998.00,0.0246
997.00,0.0244
996.00,0.0243
995.00,0.0241
994.00,0.0240
993.00,0.0238
992.00,0.0237
991.00,0.0236
990.00,0.0235
989.00,0.0234
988.00,0.0233
987.00,0.0232
986.00,0.0231
985.00,0.0230
984.00,0.0229
983.00,0.0228
982.00,0.0228
981.00,0.0227
980.00,0.0227
979.00,0.0227
978.00,0.0226
977.00,0.0226
976.00,0.0226
975.00,0.0226
974.00,0.0225
973.00,0.0225
972.00,0.0225
971.00,0.0226
970.00,0.0225
969.00,0.0225
968.00,0.0226
967.00,0.0226
966.00,0.0226
965.00,0.0226
964.00,0.0227
963.00,0.0228
962.00,0.0228
961.00,0.0228
960.00,0.0228
959.00,0.0228
958.00,0.0228
957.00,0.0228
956.00,0.0228
955.00,0.0228
954.00,0.0227
953.00,0.0227
952.00,0.0227
951.00,0.0226
950.00,0.0226
949.00,0.0226
948.00,0.0226
947.00,0.0226
946.00,0.0225
945.00,0.0225
944.00,0.0224
943.00,0.0224
942.00,0.0224
941.00,0.0223
940.00,0.0223
939.00,0.0223
938.00,0.0223
937.00,0.0223
936.00,0.0223
935.00,0.0223
934.00,0.0222
933.00,0.0222
932.00,0.0222
931.00,0.0221
930.00,0.0221
929.00,0.0220
928.00,0.0220
927.00,0.0220
926.00,0.0219
925.00,0.0219
924.00,0.0218
923.00,0.0217
922.00,0.0216
921.00,0.0215
920.00,0.0214
919.00,0.0213
918.00,0.0213
917.00,0.0212
916.00,0.0211
915.00,0.0210
914.00,0.0209
913.00,0.0209
912.00,0.0209
911.00,0.0209
910.00,0.0209
909.00,0.0209
908.00,0.0209
907.00,0.0210
906.00,0.0210
905.00,0.0210
904.00,0.0211
903.00,0.0212
902.00,0.0212
901.00,0.0212
900.00,0.0212
899.00,0.0213
898.00,0.0212
897.00,0.0212
896.00,0.0211
895.00,0.0211
894.00,0.0211
893.00,0.0210
892.00,0.0210
891.00,0.0209
890.00,0.0208
889.00,0.0207
888.00,0.0206
887.00,0.0205
886.00,0.0204
885.00,0.0203
884.00,0.0203
883.00,0.0202
882.00,0.0201
881.00,0.0200
880.00,0.0200
879.00,0.0199
878.00,0.0198
877.00,0.0198
876.00,0.0198
875.00,0.0197
874.00,0.0197
873.00,0.0196
872.00,0.0196
871.00,0.0195
870.00,0.0195
869.00,0.0194
868.00,0.0194
867.00,0.0194
866.00,0.0193
865.00,0.0193
864.00,0.0193
863.00,0.0193
862.00,0.0192
861.00,0.0192
860.00,0.0192
859.00,0.0191
858.00,0.0191
857.00,0.0190
856.00,0.0190
855.00,0.0190
854.00,0.0190
853.00,0.0190
852.00,0.0190
851.00,0.0190
850.00,0.0190
849.00,0.0189
848.00,0.0189
847.00,0.0189
846.00,0.0189
845.00,0.0189
844.00,0.0189
843.00,0.0189
842.00,0.0190
841.00,0.0190
840.00,0.0190
839.00,0.0191
838.00,0.0192
837.00,0.0192
836.00,0.0193
835.00,0.0194
834.00,0.0195
833.00,0.0196
832.00,0.0198
831.00,0.0199
830.00,0.0201
829.00,0.0202
828.00,0.0203
827.00,0.0204
826.00,0.0204
825.00,0.0204
824.00,0.0205
823.00,0.0204
822.00,0.0204
821.00,0.0204
820.00,0.0204
819.00,0.0204
818.00,0.0204
817.00,0.0205
816.00,0.0206
815.00,0.0207
814.00,0.0208
813.00,0.0209
812.00,0.0210
811.00,0.0211
810.00,0.0212
809.00,0.0212
808.00,0.0213
807.00,0.0214
806.00,0.0215
805.00,0.0215
804.00,0.0216
803.00,0.0216
802.00,0.0217
801.00,0.0217
800.00,0.0218
799.00,0.0218
798.00,0.0219
797.00,0.0220
796.00,0.0221
795.00,0.0221
794.00,0.0222
793.00,0.0223
792.00,0.0224
791.00,0.0225
790.00,0.0226
789.00,0.0226
788.00,0.0228
787.00,0.0229
786.00,0.0230
785.00,0.0231
784.00,0.0233
783.00,0.0234
782.00,0.0235
781.00,0.0236
780.00,0.0238
779.00,0.0239
778.00,0.0240
777.00,0.0241
776.00,0.0243
775.00,0.0244
774.00,0.0245
773.00,0.0247
772.00,0.0248
771.00,0.0249
770.00,0.0250
769.00,0.0251
768.00,0.0252
767.00,0.0253
766.00,0.0253
765.00,0.0254
764.00,0.0255
763.00,0.0256
762.00,0.0257
761.00,0.0257
760.00,0.0258
759.00,0.0260
758.00,0.0261
757.00,0.0262
756.00,0.0263
755.00,0.0264
754.00,0.0265
753.00,0.0267
752.00,0.0269
751.00,0.0270
750.00,0.0272
749.00,0.0273
748.00,0.0274
747.00,0.0275
746.00,0.0276
745.00,0.0276
744.00,0.0276
743.00,0.0277
742.00,0.0277
741.00,0.0277
740.00,0.0278
739.00,0.0279
738.00,0.0279
737.00,0.0279
736.00,0.0280
735.00,0.0281
734.00,0.0282
733.00,0.0283
732.00,0.0284
731.00,0.0286
730.00,0.0287
729.00,0.0288
728.00,0.0290
727.00,0.0292
726.00,0.0294
725.00,0.0295
724.00,0.0298
723.00,0.0300
722.00,0.0302
721.00,0.0305
720.00,0.0308
719.00,0.0311
718.00,0.0314
717.00,0.0317
716.00,0.0320
715.00,0.0323
714.00,0.0326
713.00,0.0329
712.00,0.0333
711.00,0.0336
710.00,0.0340
709.00,0.0344
708.00,0.0348
707.00,0.0352
706.00,0.0356
705.00,0.0360
704.00,0.0364
703.00,0.0368
702.00,0.0372
701.00,0.0375
700.00,0.0378
699.00,0.0380
698.00,0.0381
697.00,0.0382
696.00,0.0383
695.00,0.0384
694.00,0.0384
693.00,0.0385
692.00,0.0386
691.00,0.0386
690.00,0.0387
689.00,0.0387
688.00,0.0388
687.00,0.0389
686.00,0.0390
685.00,0.0392
684.00,0.0394
683.00,0.0396
682.00,0.0397
681.00,0.0399
680.00,0.0401
679.00,0.0402
678.00,0.0404
677.00,0.0405
676.00,0.0407
675.00,0.0409
674.00,0.0410
673.00,0.0411
672.00,0.0413
671.00,0.0414
670.00,0.0415
669.00,0.0417
668.00,0.0419
667.00,0.0420
666.00,0.0421
665.00,0.0423
664.00,0.0425
663.00,0.0427
662.00,0.0428
661.00,0.0430
660.00,0.0431
659.00,0.0433
658.00,0.0434
657.00,0.0435
656.00,0.0436
655.00,0.0438
654.00,0.0439
653.00,0.0440
652.00,0.0441
651.00,0.0443
650.00,0.0443
649.00,0.0445
648.00,0.0446
647.00,0.0448
646.00,0.0450
645.00,0.0451
644.00,0.0453
643.00,0.0455
642.00,0.0456
641.00,0.0457
640.00,0.0458
639.00,0.0460
638.00,0.0461
637.00,0.0463
636.00,0.0466
635.00,0.0468
634.00,0.0470
633.00,0.0471
632.00,0.0473
631.00,0.0475
630.00,0.0476
629.00,0.0477
628.00,0.0478
627.00,0.0480
626.00,0.0482
625.00,0.0483
624.00,0.0485
623.00,0.0487
622.00,0.0488
621.00,0.0489
620.00,0.0490
619.00,0.0491
618.00,0.0492
617.00,0.0492
616.00,0.0493
615.00,0.0493
614.00,0.0493
613.00,0.0493
612.00,0.0494
611.00,0.0494
610.00,0.0494
609.00,0.0494
608.00,0.0495
607.00,0.0496
606.00,0.0495
605.00,0.0496
604.00,0.0497
603.00,0.0498
602.00,0.0499
601.00,0.0499
600.00,0.0500
599.00,0.0501
598.00,0.0501
597.00,0.0502
596.00,0.0503
595.00,0.0504
594.00,0.0504
593.00,0.0505
592.00,0.0507
591.00,0.0508
590.00,0.0508
589.00,0.0508
588.00,0.0510
587.00,0.0511
586.00,0.0512
585.00,0.0513
584.00,0.0515
583.00,0.0516
582.00,0.0516
581.00,0.0517
580.00,0.0519
579.00,0.0520
578.00,0.0521
577.00,0.0522
576.00,0.0523
575.00,0.0525
574.00,0.0526
573.00,0.0527
572.00,0.0528
571.00,0.0530
570.00,0.0531
569.00,0.0532
568.00,0.0534
567.00,0.0535
566.00,0.0535
565.00,0.0536
564.00,0.0539
563.00,0.0540
562.00,0.0541
561.00,0.0542
560.00,0.0543
559.00,0.0544
558.00,0.0544
557.00,0.0544
556.00,0.0546
555.00,0.0547
554.00,0.0547
553.00,0.0548
552.00,0.0550
551.00,0.0552
550.00,0.0553
549.00,0.0553
548.00,0.0555
547.00,0.0556
546.00,0.0556
545.00,0.0557
544.00,0.0558
543.00,0.0559
542.00,0.0559
541.00,0.0558
540.00,0.0559
539.00,0.0560
538.00,0.0560
537.00,0.0560
536.00,0.0562
535.00,0.0563
534.00,0.0563
533.00,0.0564
532.00,0.0565
531.00,0.0567
530.00,0.0568
529.00,0.0570
528.00,0.0573
527.00,0.0576
526.00,0.0579
525.00,0.0581
524.00,0.0583
523.00,0.0585
522.00,0.0586
521.00,0.0588
520.00,0.0591
519.00,0.0592
518.00,0.0593
517.00,0.0593
516.00,0.0595
515.00,0.0596
514.00,0.0595
513.00,0.0594
512.00,0.0594
511.00,0.0593
510.00,0.0591
509.00,0.0590
508.00,0.0590
507.00,0.0590
506.00,0.0590
505.00,0.0590
504.00,0.0591
503.00,0.0591
502.00,0.0590
501.00,0.0588
500.00,0.0587
499.00,0.0586
498.00,0.0584
497.00,0.0583
496.00,0.0584
495.00,0.0584
494.00,0.0583
493.00,0.0583
492.00,0.0584
491.00,0.0586
490.00,0.0585
489.00,0.0585
488.00,0.0585
487.00,0.0586
486.00,0.0587
485.00,0.0587
484.00,0.0588
483.00,0.0589
482.00,0.0588
481.00,0.0587
480.00,0.0588
479.00,0.0589
478.00,0.0588
477.00,0.0587
476.00,0.0587
475.00,0.0589
474.00,0.0590
473.00,0.0591
472.00,0.0595
471.00,0.0598
470.00,0.0598
469.00,0.0597
468.00,0.0598
467.00,0.0599
466.00,0.0600
465.00,0.0600
464.00,0.0603
463.00,0.0605
462.00,0.0604
461.00,0.0604
460.00,0.0606
459.00,0.0609
458.00,0.0610
457.00,0.0611
456.00,0.0612
455.00,0.0611
454.00,0.0606
453.00,0.0601
452.00,0.0599
451.00,0.0597
450.00,0.0594
449.00,0.0592
448.00,0.0591
447.00,0.0590
446.00,0.0587
445.00,0.0584
444.00,0.0584
443.00,0.0582
442.00,0.0578
441.00,0.0575
440.00,0.0573
439.00,0.0570
438.00,0.0564
437.00,0.0558
436.00,0.0557
435.00,0.0555
434.00,0.0552
433.00,0.0549
432.00,0.0548
431.00,0.0546
430.00,0.0541
429.00,0.0537
428.00,0.0535
427.00,0.0534
426.00,0.0532
425.00,0.0530
424.00,0.0531
423.00,0.0532
422.00,0.0532
421.00,0.0534
420.00,0.0541
419.00,0.0549
418.00,0.0549
417.00,0.0548
416.00,0.0549
415.00,0.0548
414.00,0.0543
413.00,0.0541
412.00,0.0545
411.00,0.0549
410.00,0.0547
409.00,0.0541
408.00,0.0539
407.00,0.0536
406.00,0.0528
405.00,0.0521
404.00,0.0519
403.00,0.0520
402.00,0.0518
401.00,0.0518
400.00,0.0523
