Created as New Dataset,Sample 142 By YargerLab Date Wednesday, June 05 2024
cm-1,A
4000.00,0.0130
3999.00,0.0130
3998.00,0.0130
3997.00,0.0130
3996.00,0.0130
3995.00,0.0130
3994.00,0.0130
3993.00,0.0130
3992.00,0.0131
3991.00,0.0131
3990.00,0.0131
3989.00,0.0131
3988.00,0.0131
3987.00,0.0131
3986.00,0.0131
3985.00,0.0130
3984.00,0.0130
3983.00,0.0130
3982.00,0.0130
3981.00,0.0130
3980.00,0.0130
3979.00,0.0130
3978.00,0.0130
3977.00,0.0131
3976.00,0.0131
3975.00,0.0131
3974.00,0.0131
3973.00,0.0130
3972.00,0.0130
3971.00,0.0130
3970.00,0.0130
3969.00,0.0130
3968.00,0.0130
3967.00,0.0130
3966.00,0.0130
3965.00,0.0130
3964.00,0.0130
3963.00,0.0130
3962.00,0.0130
3961.00,0.0130
3960.00,0.0130
3959.00,0.0130
3958.00,0.0130
3957.00,0.0130
3956.00,0.0130
3955.00,0.0130
3954.00,0.0130
3953.00,0.0130
3952.00,0.0130
3951.00,0.0130
3950.00,0.0130
3949.00,0.0130
3948.00,0.0130
3947.00,0.0130
3946.00,0.0130
3945.00,0.0130
3944.00,0.0130
3943.00,0.0130
3942.00,0.0130
3941.00,0.0130
3940.00,0.0130
3939.00,0.0130
3938.00,0.0130
3937.00,0.0130
3936.00,0.0130
3935.00,0.0129
3934.00,0.0129
3933.00,0.0129
3932.00,0.0129
3931.00,0.0130
3930.00,0.0130
3929.00,0.0130
3928.00,0.0130
3927.00,0.0130
3926.00,0.0130
3925.00,0.0130
3924.00,0.0130
3923.00,0.0129
3922.00,0.0129
3921.00,0.0129
3920.00,0.0129
3919.00,0.0129
3918.00,0.0129
3917.00,0.0129
3916.00,0.0129
3915.00,0.0129
3914.00,0.0129
3913.00,0.0129
3912.00,0.0129
3911.00,0.0129
3910.00,0.0129
3909.00,0.0128
3908.00,0.0128
3907.00,0.0128
3906.00,0.0128
3905.00,0.0129
3904.00,0.0129
3903.00,0.0129
3902.00,0.0130
3901.00,0.0130
3900.00,0.0130
3899.00,0.0130
3898.00,0.0130
3897.00,0.0129
3896.00,0.0129
3895.00,0.0129
3894.00,0.0129
3893.00,0.0129
3892.00,0.0129
3891.00,0.0129
3890.00,0.0128
3889.00,0.0128
3888.00,0.0128
3887.00,0.0129
3886.00,0.0128
3885.00,0.0128
3884.00,0.0128
3883.00,0.0128
3882.00,0.0129
3881.00,0.0129
3880.00,0.0129
3879.00,0.0129
3878.00,0.0128
3877.00,0.0128
3876.00,0.0128
3875.00,0.0128
3874.00,0.0128
3873.00,0.0128
3872.00,0.0128
3871.00,0.0128
3870.00,0.0128
3869.00,0.0128
3868.00,0.0128
3867.00,0.0128
3866.00,0.0129
3865.00,0.0129
3864.00,0.0128
3863.00,0.0128
3862.00,0.0128
3861.00,0.0128
3860.00,0.0128
3859.00,0.0128
3858.00,0.0128
3857.00,0.0128
3856.00,0.0128
3855.00,0.0128
3854.00,0.0128
3853.00,0.0127
3852.00,0.0127
3851.00,0.0127
3850.00,0.0128
3849.00,0.0128
3848.00,0.0128
3847.00,0.0128
3846.00,0.0127
3845.00,0.0127
3844.00,0.0127
3843.00,0.0127
3842.00,0.0127
3841.00,0.0127
3840.00,0.0127
3839.00,0.0127
3838.00,0.0127
3837.00,0.0127
3836.00,0.0127
3835.00,0.0127
3834.00,0.0128
3833.00,0.0128
3832.00,0.0127
3831.00,0.0127
3830.00,0.0127
3829.00,0.0126
3828.00,0.0126
3827.00,0.0126
3826.00,0.0126
3825.00,0.0126
3824.00,0.0126
3823.00,0.0126
3822.00,0.0126
3821.00,0.0126
3820.00,0.0126
3819.00,0.0126
3818.00,0.0127
3817.00,0.0127
3816.00,0.0127
3815.00,0.0126
3814.00,0.0126
3813.00,0.0126
3812.00,0.0126
3811.00,0.0126
3810.00,0.0126
3809.00,0.0126
3808.00,0.0126
3807.00,0.0126
3806.00,0.0125
3805.00,0.0125
3804.00,0.0126
3803.00,0.0126
3802.00,0.0126
3801.00,0.0125
3800.00,0.0125
3799.00,0.0125
3798.00,0.0126
3797.00,0.0126
3796.00,0.0126
3795.00,0.0126
3794.00,0.0125
3793.00,0.0125
3792.00,0.0125
3791.00,0.0125
3790.00,0.0125
3789.00,0.0125
3788.00,0.0124
3787.00,0.0125
3786.00,0.0125
3785.00,0.0125
3784.00,0.0125
3783.00,0.0125
3782.00,0.0125
3781.00,0.0125
3780.00,0.0125
3779.00,0.0125
3778.00,0.0125
3777.00,0.0125
3776.00,0.0124
3775.00,0.0124
3774.00,0.0124
3773.00,0.0124
3772.00,0.0124
3771.00,0.0125
3770.00,0.0125
3769.00,0.0125
3768.00,0.0125
3767.00,0.0125
3766.00,0.0125
3765.00,0.0125
3764.00,0.0125
3763.00,0.0125
3762.00,0.0124
3761.00,0.0125
3760.00,0.0124
3759.00,0.0124
3758.00,0.0124
3757.00,0.0124
3756.00,0.0124
3755.00,0.0124
3754.00,0.0124
3753.00,0.0124
3752.00,0.0124
3751.00,0.0124
3750.00,0.0124
3749.00,0.0125
3748.00,0.0125
3747.00,0.0126
3746.00,0.0126
3745.00,0.0126
3744.00,0.0125
3743.00,0.0124
3742.00,0.0124
3741.00,0.0124
3740.00,0.0125
3739.00,0.0124
3738.00,0.0124
3737.00,0.0124
3736.00,0.0124
3735.00,0.0124
3734.00,0.0125
3733.00,0.0125
3732.00,0.0125
3731.00,0.0124
3730.00,0.0124
3729.00,0.0124
3728.00,0.0124
3727.00,0.0124
3726.00,0.0123
3725.00,0.0123
3724.00,0.0123
3723.00,0.0123
3722.00,0.0123
3721.00,0.0123
3720.00,0.0123
3719.00,0.0123
3718.00,0.0123
3717.00,0.0122
3716.00,0.0122
3715.00,0.0122
3714.00,0.0123
3713.00,0.0123
3712.00,0.0123
3711.00,0.0123
3710.00,0.0124
3709.00,0.0124
3708.00,0.0124
3707.00,0.0123
3706.00,0.0123
3705.00,0.0123
3704.00,0.0123
3703.00,0.0123
3702.00,0.0122
3701.00,0.0122
3700.00,0.0122
3699.00,0.0122
3698.00,0.0122
3697.00,0.0122
3696.00,0.0122
3695.00,0.0122
3694.00,0.0122
3693.00,0.0122
3692.00,0.0122
3691.00,0.0123
3690.00,0.0123
3689.00,0.0124
3688.00,0.0124
3687.00,0.0124
3686.00,0.0124
3685.00,0.0124
3684.00,0.0124
3683.00,0.0124
3682.00,0.0124
3681.00,0.0124
3680.00,0.0124
3679.00,0.0125
3678.00,0.0125
3677.00,0.0126
3676.00,0.0127
3675.00,0.0127
3674.00,0.0127
3673.00,0.0127
3672.00,0.0128
3671.00,0.0128
3670.00,0.0128
3669.00,0.0128
3668.00,0.0128
3667.00,0.0128
3666.00,0.0128
3665.00,0.0128
3664.00,0.0129
3663.00,0.0129
3662.00,0.0129
3661.00,0.0129
3660.00,0.0129
3659.00,0.0130
3658.00,0.0130
3657.00,0.0131
3656.00,0.0131
3655.00,0.0131
3654.00,0.0131
3653.00,0.0132
3652.00,0.0132
3651.00,0.0133
3650.00,0.0133
3649.00,0.0134
3648.00,0.0135
3647.00,0.0137
3646.00,0.0137
3645.00,0.0137
3644.00,0.0137
3643.00,0.0137
3642.00,0.0137
3641.00,0.0137
3640.00,0.0137
3639.00,0.0138
3638.00,0.0138
3637.00,0.0138
3636.00,0.0139
3635.00,0.0139
3634.00,0.0140
3633.00,0.0141
3632.00,0.0141
3631.00,0.0142
3630.00,0.0144
3629.00,0.0145
3628.00,0.0146
3627.00,0.0146
3626.00,0.0146
3625.00,0.0146
3624.00,0.0146
3623.00,0.0146
3622.00,0.0147
3621.00,0.0147
3620.00,0.0148
3619.00,0.0149
3618.00,0.0150
3617.00,0.0150
3616.00,0.0151
3615.00,0.0151
3614.00,0.0152
3613.00,0.0153
3612.00,0.0154
3611.00,0.0154
3610.00,0.0155
3609.00,0.0156
3608.00,0.0157
3607.00,0.0158
3606.00,0.0158
3605.00,0.0158
3604.00,0.0159
3603.00,0.0159
3602.00,0.0159
3601.00,0.0159
3600.00,0.0160
3599.00,0.0161
3598.00,0.0162
3597.00,0.0163
3596.00,0.0163
3595.00,0.0164
3594.00,0.0165
3593.00,0.0166
3592.00,0.0167
3591.00,0.0167
3590.00,0.0167
3589.00,0.0168
3588.00,0.0170
3587.00,0.0172
3586.00,0.0173
3585.00,0.0174
3584.00,0.0174
3583.00,0.0174
3582.00,0.0175
3581.00,0.0175
3580.00,0.0176
3579.00,0.0176
3578.00,0.0177
3577.00,0.0178
3576.00,0.0179
3575.00,0.0180
3574.00,0.0181
3573.00,0.0182
3572.00,0.0182
3571.00,0.0183
3570.00,0.0183
3569.00,0.0184
3568.00,0.0186
3567.00,0.0188
3566.00,0.0190
3565.00,0.0191
3564.00,0.0192
3563.00,0.0192
3562.00,0.0193
3561.00,0.0193
3560.00,0.0194
3559.00,0.0195
3558.00,0.0196
3557.00,0.0196
3556.00,0.0197
3555.00,0.0197
3554.00,0.0198
3553.00,0.0199
3552.00,0.0201
3551.00,0.0202
3550.00,0.0202
3549.00,0.0203
3548.00,0.0204
3547.00,0.0205
3546.00,0.0206
3545.00,0.0208
3544.00,0.0209
3543.00,0.0210
3542.00,0.0211
3541.00,0.0211
3540.00,0.0212
3539.00,0.0212
3538.00,0.0213
3537.00,0.0214
3536.00,0.0215
3535.00,0.0216
3534.00,0.0217
3533.00,0.0218
3532.00,0.0219
3531.00,0.0220
3530.00,0.0220
3529.00,0.0221
3528.00,0.0223
3527.00,0.0224
3526.00,0.0225
3525.00,0.0226
3524.00,0.0228
3523.00,0.0229
3522.00,0.0230
3521.00,0.0231
3520.00,0.0231
3519.00,0.0232
3518.00,0.0233
3517.00,0.0234
3516.00,0.0235
3515.00,0.0236
3514.00,0.0237
3513.00,0.0237
3512.00,0.0238
3511.00,0.0239
3510.00,0.0241
3509.00,0.0242
3508.00,0.0243
3507.00,0.0244
3506.00,0.0245
3505.00,0.0246
3504.00,0.0248
3503.00,0.0249
3502.00,0.0251
3501.00,0.0252
3500.00,0.0253
3499.00,0.0254
3498.00,0.0255
3497.00,0.0256
3496.00,0.0257
3495.00,0.0258
3494.00,0.0260
3493.00,0.0261
3492.00,0.0262
3491.00,0.0263
3490.00,0.0264
3489.00,0.0266
3488.00,0.0267
3487.00,0.0268
3486.00,0.0269
3485.00,0.0271
3484.00,0.0272
3483.00,0.0273
3482.00,0.0274
3481.00,0.0275
3480.00,0.0277
3479.00,0.0278
3478.00,0.0279
3477.00,0.0280
3476.00,0.0281
3475.00,0.0283
3474.00,0.0284
3473.00,0.0285
3472.00,0.0286
3471.00,0.0287
3470.00,0.0288
3469.00,0.0289
3468.00,0.0290
3467.00,0.0292
3466.00,0.0293
3465.00,0.0294
3464.00,0.0295
3463.00,0.0296
3462.00,0.0297
3461.00,0.0298
3460.00,0.0300
3459.00,0.0301
3458.00,0.0302
3457.00,0.0303
3456.00,0.0304
3455.00,0.0305
3454.00,0.0306
3453.00,0.0307
3452.00,0.0308
3451.00,0.0309
3450.00,0.0310
3449.00,0.0311
3448.00,0.0312
3447.00,0.0314
3446.00,0.0316
3445.00,0.0317
3444.00,0.0318
3443.00,0.0319
3442.00,0.0320
3441.00,0.0321
3440.00,0.0322
3439.00,0.0323
3438.00,0.0325
3437.00,0.0326
3436.00,0.0327
3435.00,0.0328
3434.00,0.0329
3433.00,0.0330
3432.00,0.0331
3431.00,0.0333
3430.00,0.0334
3429.00,0.0336
3428.00,0.0337
3427.00,0.0338
3426.00,0.0339
3425.00,0.0340
3424.00,0.0341
3423.00,0.0342
3422.00,0.0343
3421.00,0.0345
3420.00,0.0346
3419.00,0.0348
3418.00,0.0349
3417.00,0.0350
3416.00,0.0351
3415.00,0.0352
3414.00,0.0353
3413.00,0.0354
3412.00,0.0355
3411.00,0.0356
3410.00,0.0357
3409.00,0.0359
3408.00,0.0360
3407.00,0.0361
3406.00,0.0362
3405.00,0.0363
3404.00,0.0363
3403.00,0.0364
3402.00,0.0365
3401.00,0.0366
3400.00,0.0367
3399.00,0.0369
3398.00,0.0370
3397.00,0.0371
3396.00,0.0372
3395.00,0.0373
3394.00,0.0374
3393.00,0.0375
3392.00,0.0376
3391.00,0.0377
3390.00,0.0379
3389.00,0.0380
3388.00,0.0381
3387.00,0.0382
3386.00,0.0383
3385.00,0.0384
3384.00,0.0385
3383.00,0.0386
3382.00,0.0387
3381.00,0.0388
3380.00,0.0390
3379.00,0.0391
3378.00,0.0392
3377.00,0.0393
3376.00,0.0395
3375.00,0.0396
3374.00,0.0398
3373.00,0.0399
3372.00,0.0399
3371.00,0.0400
3370.00,0.0402
3369.00,0.0403
3368.00,0.0405
3367.00,0.0407
3366.00,0.0409
3365.00,0.0411
3364.00,0.0413
3363.00,0.0415
3362.00,0.0417
3361.00,0.0418
3360.00,0.0420
3359.00,0.0422
3358.00,0.0424
3357.00,0.0427
3356.00,0.0429
3355.00,0.0431
3354.00,0.0432
3353.00,0.0434
3352.00,0.0436
3351.00,0.0438
3350.00,0.0440
3349.00,0.0443
3348.00,0.0445
3347.00,0.0448
3346.00,0.0450
3345.00,0.0452
3344.00,0.0454
3343.00,0.0456
3342.00,0.0459
3341.00,0.0461
3340.00,0.0463
3339.00,0.0466
3338.00,0.0469
3337.00,0.0472
3336.00,0.0475
3335.00,0.0479
3334.00,0.0482
3333.00,0.0485
3332.00,0.0487
3331.00,0.0490
3330.00,0.0493
3329.00,0.0495
3328.00,0.0498
3327.00,0.0501
3326.00,0.0504
3325.00,0.0507
3324.00,0.0511
3323.00,0.0515
3322.00,0.0518
3321.00,0.0522
3320.00,0.0525
3319.00,0.0528
3318.00,0.0532
3317.00,0.0535
3316.00,0.0539
3315.00,0.0542
3314.00,0.0545
3313.00,0.0549
3312.00,0.0551
3311.00,0.0554
3310.00,0.0556
3309.00,0.0559
3308.00,0.0562
3307.00,0.0566
3306.00,0.0570
3305.00,0.0574
3304.00,0.0578
3303.00,0.0583
3302.00,0.0587
3301.00,0.0590
3300.00,0.0593
3299.00,0.0596
3298.00,0.0598
3297.00,0.0601
3296.00,0.0603
3295.00,0.0605
3294.00,0.0608
3293.00,0.0611
3292.00,0.0614
3291.00,0.0617
3290.00,0.0620
3289.00,0.0623
3288.00,0.0625
3287.00,0.0626
3286.00,0.0628
3285.00,0.0629
3284.00,0.0630
3283.00,0.0631
3282.00,0.0631
3281.00,0.0632
3280.00,0.0632
3279.00,0.0631
3278.00,0.0630
3277.00,0.0629
3276.00,0.0628
3275.00,0.0626
3274.00,0.0625
3273.00,0.0623
3272.00,0.0621
3271.00,0.0619
3270.00,0.0617
3269.00,0.0616
3268.00,0.0614
3267.00,0.0612
3266.00,0.0610
3265.00,0.0607
3264.00,0.0604
3263.00,0.0601
3262.00,0.0598
3261.00,0.0594
3260.00,0.0591
3259.00,0.0587
3258.00,0.0582
3257.00,0.0578
3256.00,0.0575
3255.00,0.0572
3254.00,0.0569
3253.00,0.0566
3252.00,0.0563
3251.00,0.0559
3250.00,0.0554
3249.00,0.0550
3248.00,0.0546
3247.00,0.0543
3246.00,0.0540
3245.00,0.0539
3244.00,0.0537
3243.00,0.0535
3242.00,0.0532
3241.00,0.0529
3240.00,0.0527
3239.00,0.0524
3238.00,0.0521
3237.00,0.0517
3236.00,0.0514
3235.00,0.0510
3234.00,0.0507
3233.00,0.0505
3232.00,0.0504
3231.00,0.0504
3230.00,0.0503
3229.00,0.0501
3228.00,0.0500
3227.00,0.0498
3226.00,0.0496
3225.00,0.0493
3224.00,0.0491
3223.00,0.0489
3222.00,0.0487
3221.00,0.0485
3220.00,0.0483
3219.00,0.0481
3218.00,0.0480
3217.00,0.0478
3216.00,0.0476
3215.00,0.0475
3214.00,0.0473
3213.00,0.0471
3212.00,0.0470
3211.00,0.0468
3210.00,0.0467
3209.00,0.0465
3208.00,0.0463
3207.00,0.0461
3206.00,0.0459
3205.00,0.0458
3204.00,0.0456
3203.00,0.0454
3202.00,0.0452
3201.00,0.0450
3200.00,0.0449
3199.00,0.0447
3198.00,0.0445
3197.00,0.0443
3196.00,0.0441
3195.00,0.0439
3194.00,0.0437
3193.00,0.0435
3192.00,0.0433
3191.00,0.0431
3190.00,0.0429
3189.00,0.0427
3188.00,0.0424
3187.00,0.0422
3186.00,0.0420
3185.00,0.0418
3184.00,0.0416
3183.00,0.0414
3182.00,0.0412
3181.00,0.0410
3180.00,0.0407
3179.00,0.0405
3178.00,0.0403
3177.00,0.0401
3176.00,0.0399
3175.00,0.0397
3174.00,0.0395
3173.00,0.0392
3172.00,0.0390
3171.00,0.0388
3170.00,0.0386
3169.00,0.0384
3168.00,0.0382
3167.00,0.0380
3166.00,0.0378
3165.00,0.0377
3164.00,0.0375
3163.00,0.0373
3162.00,0.0371
3161.00,0.0369
3160.00,0.0367
3159.00,0.0365
3158.00,0.0363
3157.00,0.0361
3156.00,0.0359
3155.00,0.0357
3154.00,0.0355
3153.00,0.0353
3152.00,0.0351
3151.00,0.0350
3150.00,0.0349
3149.00,0.0348
3148.00,0.0347
3147.00,0.0346
3146.00,0.0344
3145.00,0.0343
3144.00,0.0341
3143.00,0.0339
3142.00,0.0337
3141.00,0.0336
3140.00,0.0334
3139.00,0.0333
3138.00,0.0333
3137.00,0.0332
3136.00,0.0331
3135.00,0.0330
3134.00,0.0330
3133.00,0.0329
3132.00,0.0327
3131.00,0.0326
3130.00,0.0325
3129.00,0.0325
3128.00,0.0324
3127.00,0.0323
3126.00,0.0322
3125.00,0.0321
3124.00,0.0320
3123.00,0.0319
3122.00,0.0317
3121.00,0.0316
3120.00,0.0315
3119.00,0.0315
3118.00,0.0314
3117.00,0.0314
3116.00,0.0314
3115.00,0.0315
3114.00,0.0315
3113.00,0.0316
3112.00,0.0316
3111.00,0.0315
3110.00,0.0315
3109.00,0.0315
3108.00,0.0315
3107.00,0.0316
3106.00,0.0317
3105.00,0.0317
3104.00,0.0317
3103.00,0.0317
3102.00,0.0316
3101.00,0.0316
3100.00,0.0316
3099.00,0.0317
3098.00,0.0318
3097.00,0.0319
3096.00,0.0319
3095.00,0.0320
3094.00,0.0320
3093.00,0.0319
3092.00,0.0319
3091.00,0.0319
3090.00,0.0319
3089.00,0.0320
3088.00,0.0320
3087.00,0.0320
3086.00,0.0320
3085.00,0.0320
3084.00,0.0320
3083.00,0.0320
3082.00,0.0320
3081.00,0.0319
3080.00,0.0319
3079.00,0.0319
3078.00,0.0320
3077.00,0.0321
3076.00,0.0322
3075.00,0.0323
3074.00,0.0324
3073.00,0.0324
3072.00,0.0324
3071.00,0.0323
3070.00,0.0322
3069.00,0.0321
3068.00,0.0320
3067.00,0.0320
3066.00,0.0320
3065.00,0.0320
3064.00,0.0320
3063.00,0.0320
3062.00,0.0320
3061.00,0.0320
3060.00,0.0319
3059.00,0.0317
3058.00,0.0316
3057.00,0.0314
3056.00,0.0313
3055.00,0.0312
3054.00,0.0311
3053.00,0.0310
3052.00,0.0309
3051.00,0.0307
3050.00,0.0307
3049.00,0.0306
3048.00,0.0304
3047.00,0.0303
3046.00,0.0301
3045.00,0.0299
3044.00,0.0297
3043.00,0.0296
3042.00,0.0295
3041.00,0.0295
3040.00,0.0295
3039.00,0.0294
3038.00,0.0293
3037.00,0.0292
3036.00,0.0290
3035.00,0.0289
3034.00,0.0288
3033.00,0.0287
3032.00,0.0287
3031.00,0.0287
3030.00,0.0287
3029.00,0.0286
3028.00,0.0285
3027.00,0.0283
3026.00,0.0281
3025.00,0.0280
3024.00,0.0279
3023.00,0.0278
3022.00,0.0277
3021.00,0.0276
3020.00,0.0274
3019.00,0.0273
3018.00,0.0271
3017.00,0.0270
3016.00,0.0269
3015.00,0.0268
3014.00,0.0267
3013.00,0.0267
3012.00,0.0267
3011.00,0.0268
3010.00,0.0269
3009.00,0.0270
3008.00,0.0270
3007.00,0.0271
3006.00,0.0271
3005.00,0.0270
3004.00,0.0271
3003.00,0.0271
3002.00,0.0271
3001.00,0.0271
3000.00,0.0271
2999.00,0.0272
2998.00,0.0272
2997.00,0.0273
2996.00,0.0275
2995.00,0.0276
2994.00,0.0277
2993.00,0.0279
2992.00,0.0281
2991.00,0.0283
2990.00,0.0286
2989.00,0.0288
2988.00,0.0290
2987.00,0.0293
2986.00,0.0295
2985.00,0.0297
2984.00,0.0299
2983.00,0.0301
2982.00,0.0304
2981.00,0.0306
2980.00,0.0309
2979.00,0.0311
2978.00,0.0314
2977.00,0.0316
2976.00,0.0319
2975.00,0.0321
2974.00,0.0324
2973.00,0.0327
2972.00,0.0329
2971.00,0.0332
2970.00,0.0333
2969.00,0.0335
2968.00,0.0337
2967.00,0.0338
2966.00,0.0339
2965.00,0.0340
2964.00,0.0341
2963.00,0.0342
2962.00,0.0343
2961.00,0.0343
2960.00,0.0344
2959.00,0.0344
2958.00,0.0343
2957.00,0.0342
2956.00,0.0342
2955.00,0.0340
2954.00,0.0339
2953.00,0.0338
2952.00,0.0337
2951.00,0.0336
2950.00,0.0335
2949.00,0.0335
2948.00,0.0335
2947.00,0.0335
2946.00,0.0336
2945.00,0.0338
2944.00,0.0340
2943.00,0.0343
2942.00,0.0346
2941.00,0.0349
2940.00,0.0351
2939.00,0.0354
2938.00,0.0357
2937.00,0.0360
2936.00,0.0363
2935.00,0.0365
2934.00,0.0367
2933.00,0.0368
2932.00,0.0369
2931.00,0.0370
2930.00,0.0371
2929.00,0.0372
2928.00,0.0373
2927.00,0.0374
2926.00,0.0375
2925.00,0.0376
2924.00,0.0377
2923.00,0.0377
2922.00,0.0378
2921.00,0.0378
2920.00,0.0378
2919.00,0.0377
2918.00,0.0375
2917.00,0.0371
2916.00,0.0367
2915.00,0.0362
2914.00,0.0356
2913.00,0.0350
2912.00,0.0344
2911.00,0.0339
2910.00,0.0335
2909.00,0.0332
2908.00,0.0329
2907.00,0.0326
2906.00,0.0323
2905.00,0.0321
2904.00,0.0319
2903.00,0.0317
2902.00,0.0316
2901.00,0.0315
2900.00,0.0313
2899.00,0.0312
2898.00,0.0310
2897.00,0.0309
2896.00,0.0308
2895.00,0.0308
2894.00,0.0307
2893.00,0.0307
2892.00,0.0306
2891.00,0.0306
2890.00,0.0306
2889.00,0.0305
2888.00,0.0305
2887.00,0.0305
2886.00,0.0306
2885.00,0.0306
2884.00,0.0307
2883.00,0.0307
2882.00,0.0308
2881.00,0.0309
2880.00,0.0310
2879.00,0.0310
2878.00,0.0311
2877.00,0.0311
2876.00,0.0311
2875.00,0.0310
2874.00,0.0309
2873.00,0.0309
2872.00,0.0308
2871.00,0.0307
2870.00,0.0305
2869.00,0.0303
2868.00,0.0301
2867.00,0.0299
2866.00,0.0297
2865.00,0.0295
2864.00,0.0294
2863.00,0.0292
2862.00,0.0291
2861.00,0.0290
2860.00,0.0290
2859.00,0.0290
2858.00,0.0291
2857.00,0.0292
2856.00,0.0293
2855.00,0.0294
2854.00,0.0296
2853.00,0.0298
2852.00,0.0299
2851.00,0.0299
2850.00,0.0298
2849.00,0.0295
2848.00,0.0291
2847.00,0.0286
2846.00,0.0280
2845.00,0.0275
2844.00,0.0270
2843.00,0.0266
2842.00,0.0262
2841.00,0.0259
2840.00,0.0256
2839.00,0.0254
2838.00,0.0252
2837.00,0.0251
2836.00,0.0250
2835.00,0.0249
2834.00,0.0248
2833.00,0.0247
2832.00,0.0246
2831.00,0.0245
2830.00,0.0245
2829.00,0.0244
2828.00,0.0243
2827.00,0.0242
2826.00,0.0242
2825.00,0.0241
2824.00,0.0240
2823.00,0.0240
2822.00,0.0239
2821.00,0.0239
2820.00,0.0238
2819.00,0.0238
2818.00,0.0237
2817.00,0.0237
2816.00,0.0236
2815.00,0.0236
2814.00,0.0235
2813.00,0.0235
2812.00,0.0234
2811.00,0.0233
2810.00,0.0233
2809.00,0.0233
2808.00,0.0232
2807.00,0.0232
2806.00,0.0232
2805.00,0.0231
2804.00,0.0231
2803.00,0.0230
2802.00,0.0230
2801.00,0.0229
2800.00,0.0229
2799.00,0.0228
2798.00,0.0228
2797.00,0.0228
2796.00,0.0227
2795.00,0.0227
2794.00,0.0227
2793.00,0.0226
2792.00,0.0226
2791.00,0.0225
2790.00,0.0225
2789.00,0.0225
2788.00,0.0225
2787.00,0.0224
2786.00,0.0224
2785.00,0.0224
2784.00,0.0224
2783.00,0.0223
2782.00,0.0223
2781.00,0.0223
2780.00,0.0222
2779.00,0.0222
2778.00,0.0222
2777.00,0.0221
2776.00,0.0221
2775.00,0.0220
2774.00,0.0220
2773.00,0.0220
2772.00,0.0219
2771.00,0.0219
2770.00,0.0219
2769.00,0.0219
2768.00,0.0218
2767.00,0.0218
2766.00,0.0218
2765.00,0.0217
2764.00,0.0217
2763.00,0.0217
2762.00,0.0217
2761.00,0.0216
2760.00,0.0216
2759.00,0.0215
2758.00,0.0215
2757.00,0.0215
2756.00,0.0214
2755.00,0.0214
2754.00,0.0214
2753.00,0.0213
2752.00,0.0213
2751.00,0.0213
2750.00,0.0212
2749.00,0.0212
2748.00,0.0212
2747.00,0.0212
2746.00,0.0211
2745.00,0.0211
2744.00,0.0211
2743.00,0.0211
2742.00,0.0210
2741.00,0.0210
2740.00,0.0210
2739.00,0.0210
2738.00,0.0209
2737.00,0.0209
2736.00,0.0209
2735.00,0.0209
2734.00,0.0208
2733.00,0.0208
2732.00,0.0208
2731.00,0.0208
2730.00,0.0207
2729.00,0.0207
2728.00,0.0207
2727.00,0.0206
2726.00,0.0206
2725.00,0.0205
2724.00,0.0205
2723.00,0.0205
2722.00,0.0205
2721.00,0.0205
2720.00,0.0204
2719.00,0.0204
2718.00,0.0203
2717.00,0.0203
2716.00,0.0203
2715.00,0.0202
2714.00,0.0202
2713.00,0.0202
2712.00,0.0202
2711.00,0.0201
2710.00,0.0201
2709.00,0.0201
2708.00,0.0200
2707.00,0.0200
2706.00,0.0200
2705.00,0.0200
2704.00,0.0199
2703.00,0.0199
2702.00,0.0199
2701.00,0.0199
2700.00,0.0198
2699.00,0.0198
2698.00,0.0198
2697.00,0.0198
2696.00,0.0198
2695.00,0.0197
2694.00,0.0197
2693.00,0.0197
2692.00,0.0197
2691.00,0.0196
2690.00,0.0196
2689.00,0.0196
2688.00,0.0196
2687.00,0.0196
2686.00,0.0195
2685.00,0.0195
2684.00,0.0195
2683.00,0.0195
2682.00,0.0194
2681.00,0.0194
2680.00,0.0194
2679.00,0.0194
2678.00,0.0194
2677.00,0.0193
2676.00,0.0193
2675.00,0.0193
2674.00,0.0193
2673.00,0.0193
2672.00,0.0193
2671.00,0.0193
2670.00,0.0193
2669.00,0.0192
2668.00,0.0192
2667.00,0.0192
2666.00,0.0192
2665.00,0.0192
2664.00,0.0192
2663.00,0.0192
2662.00,0.0191
2661.00,0.0191
2660.00,0.0191
2659.00,0.0191
2658.00,0.0191
2657.00,0.0191
2656.00,0.0190
2655.00,0.0190
2654.00,0.0190
2653.00,0.0190
2652.00,0.0190
2651.00,0.0190
2650.00,0.0190
2649.00,0.0190
2648.00,0.0189
2647.00,0.0189
2646.00,0.0189
2645.00,0.0189
2644.00,0.0189
2643.00,0.0189
2642.00,0.0189
2641.00,0.0189
2640.00,0.0189
2639.00,0.0189
2638.00,0.0188
2637.00,0.0188
2636.00,0.0188
2635.00,0.0188
2634.00,0.0188
2633.00,0.0188
2632.00,0.0188
2631.00,0.0188
2630.00,0.0188
2629.00,0.0188
2628.00,0.0188
2627.00,0.0188
2626.00,0.0188
2625.00,0.0187
2624.00,0.0187
2623.00,0.0187
2622.00,0.0187
2621.00,0.0187
2620.00,0.0187
2619.00,0.0187
2618.00,0.0187
2617.00,0.0187
2616.00,0.0187
2615.00,0.0187
2614.00,0.0187
2613.00,0.0186
2612.00,0.0186
2611.00,0.0186
2610.00,0.0186
2609.00,0.0186
2608.00,0.0186
2607.00,0.0186
2606.00,0.0186
2605.00,0.0186
2604.00,0.0186
2603.00,0.0186
2602.00,0.0186
2601.00,0.0186
2600.00,0.0186
2599.00,0.0185
2598.00,0.0185
2597.00,0.0185
2596.00,0.0185
2595.00,0.0185
2594.00,0.0185
2593.00,0.0184
2592.00,0.0184
2591.00,0.0184
2590.00,0.0184
2589.00,0.0184
2588.00,0.0184
2587.00,0.0183
2586.00,0.0183
2585.00,0.0183
2584.00,0.0183
2583.00,0.0183
2582.00,0.0183
2581.00,0.0183
2580.00,0.0183
2579.00,0.0183
2578.00,0.0182
2577.00,0.0182
2576.00,0.0182
2575.00,0.0182
2574.00,0.0182
2573.00,0.0182
2572.00,0.0182
2571.00,0.0182
2570.00,0.0182
2569.00,0.0182
2568.00,0.0182
2567.00,0.0181
2566.00,0.0181
2565.00,0.0181
2564.00,0.0181
2563.00,0.0181
2562.00,0.0181
2561.00,0.0181
2560.00,0.0181
2559.00,0.0181
2558.00,0.0181
2557.00,0.0181
2556.00,0.0180
2555.00,0.0180
2554.00,0.0180
2553.00,0.0180
2552.00,0.0180
2551.00,0.0180
2550.00,0.0180
2549.00,0.0180
2548.00,0.0180
2547.00,0.0179
2546.00,0.0179
2545.00,0.0179
2544.00,0.0179
2543.00,0.0179
2542.00,0.0179
2541.00,0.0179
2540.00,0.0179
2539.00,0.0179
2538.00,0.0179
2537.00,0.0179
2536.00,0.0180
2535.00,0.0179
2534.00,0.0179
2533.00,0.0179
2532.00,0.0179
2531.00,0.0179
2530.00,0.0179
2529.00,0.0179
2528.00,0.0179
2527.00,0.0179
2526.00,0.0180
2525.00,0.0180
2524.00,0.0180
2523.00,0.0180
2522.00,0.0180
2521.00,0.0180
2520.00,0.0181
2519.00,0.0181
2518.00,0.0181
2517.00,0.0181
2516.00,0.0181
2515.00,0.0181
2514.00,0.0181
2513.00,0.0182
2512.00,0.0182
2511.00,0.0183
2510.00,0.0183
2509.00,0.0184
2508.00,0.0184
2507.00,0.0185
2506.00,0.0185
2505.00,0.0186
2504.00,0.0186
2503.00,0.0187
2502.00,0.0188
2501.00,0.0189
2500.00,0.0190
2499.00,0.0191
2498.00,0.0192
2497.00,0.0193
2496.00,0.0194
2495.00,0.0195
2494.00,0.0197
2493.00,0.0198
2492.00,0.0200
2491.00,0.0201
2490.00,0.0202
2489.00,0.0204
2488.00,0.0205
2487.00,0.0207
2486.00,0.0208
2485.00,0.0209
2484.00,0.0210
2483.00,0.0211
2482.00,0.0212
2481.00,0.0213
2480.00,0.0215
2479.00,0.0216
2478.00,0.0216
2477.00,0.0217
2476.00,0.0218
2475.00,0.0219
2474.00,0.0219
2473.00,0.0220
2472.00,0.0220
2471.00,0.0221
2470.00,0.0221
2469.00,0.0221
2468.00,0.0222
2467.00,0.0222
2466.00,0.0222
2465.00,0.0223
2464.00,0.0223
2463.00,0.0223
2462.00,0.0223
2461.00,0.0223
2460.00,0.0223
2459.00,0.0223
2458.00,0.0223
2457.00,0.0223
2456.00,0.0223
2455.00,0.0223
2454.00,0.0223
2453.00,0.0223
2452.00,0.0223
2451.00,0.0224
2450.00,0.0224
2449.00,0.0224
2448.00,0.0224
2447.00,0.0224
2446.00,0.0224
2445.00,0.0224
2444.00,0.0225
2443.00,0.0225
2442.00,0.0226
2441.00,0.0226
2440.00,0.0227
2439.00,0.0227
2438.00,0.0228
2437.00,0.0229
2436.00,0.0229
2435.00,0.0230
2434.00,0.0231
2433.00,0.0233
2432.00,0.0234
2431.00,0.0235
2430.00,0.0236
2429.00,0.0237
2428.00,0.0238
2427.00,0.0238
2426.00,0.0239
2425.00,0.0240
2424.00,0.0240
2423.00,0.0241
2422.00,0.0241
2421.00,0.0242
2420.00,0.0242
2419.00,0.0242
2418.00,0.0242
2417.00,0.0241
2416.00,0.0241
2415.00,0.0240
2414.00,0.0240
2413.00,0.0239
2412.00,0.0238
2411.00,0.0237
2410.00,0.0235
2409.00,0.0234
2408.00,0.0233
2407.00,0.0231
2406.00,0.0230
2405.00,0.0228
2404.00,0.0227
2403.00,0.0225
2402.00,0.0223
2401.00,0.0221
2400.00,0.0220
2399.00,0.0218
2398.00,0.0216
2397.00,0.0214
2396.00,0.0212
2395.00,0.0211
2394.00,0.0209
2393.00,0.0207
2392.00,0.0206
2391.00,0.0204
2390.00,0.0203
2389.00,0.0201
2388.00,0.0200
2387.00,0.0199
2386.00,0.0197
2385.00,0.0196
2384.00,0.0195
2383.00,0.0194
2382.00,0.0193
2381.00,0.0192
2380.00,0.0191
2379.00,0.0190
2378.00,0.0189
2377.00,0.0188
2376.00,0.0187
2375.00,0.0187
2374.00,0.0186
2373.00,0.0185
2372.00,0.0185
2371.00,0.0184
2370.00,0.0183
2369.00,0.0183
2368.00,0.0182
2367.00,0.0182
2366.00,0.0181
2365.00,0.0181
2364.00,0.0181
2363.00,0.0181
2362.00,0.0180
2361.00,0.0180
2360.00,0.0179
2359.00,0.0178
2358.00,0.0178
2357.00,0.0177
2356.00,0.0177
2355.00,0.0177
2354.00,0.0177
2353.00,0.0177
2352.00,0.0177
2351.00,0.0175
2350.00,0.0174
2349.00,0.0172
2348.00,0.0171
2347.00,0.0172
2346.00,0.0173
2345.00,0.0174
2344.00,0.0174
2343.00,0.0173
2342.00,0.0172
2341.00,0.0171
2340.00,0.0170
2339.00,0.0170
2338.00,0.0170
2337.00,0.0170
2336.00,0.0170
2335.00,0.0170
2334.00,0.0170
2333.00,0.0169
2332.00,0.0170
2331.00,0.0170
2330.00,0.0170
2329.00,0.0171
2328.00,0.0171
2327.00,0.0171
2326.00,0.0170
2325.00,0.0169
2324.00,0.0168
2323.00,0.0167
2322.00,0.0167
2321.00,0.0167
2320.00,0.0167
2319.00,0.0167
2318.00,0.0167
2317.00,0.0166
2316.00,0.0166
2315.00,0.0166
2314.00,0.0166
2313.00,0.0166
2312.00,0.0166
2311.00,0.0166
2310.00,0.0165
2309.00,0.0165
2308.00,0.0165
2307.00,0.0164
2306.00,0.0164
2305.00,0.0164
2304.00,0.0164
2303.00,0.0164
2302.00,0.0163
2301.00,0.0163
2300.00,0.0163
2299.00,0.0163
2298.00,0.0163
2297.00,0.0163
2296.00,0.0163
2295.00,0.0162
2294.00,0.0162
2293.00,0.0163
2292.00,0.0163
2291.00,0.0163
2290.00,0.0163
2289.00,0.0163
2288.00,0.0163
2287.00,0.0162
2286.00,0.0162
2285.00,0.0161
2284.00,0.0161
2283.00,0.0161
2282.00,0.0160
2281.00,0.0160
2280.00,0.0160
2279.00,0.0160
2278.00,0.0160
2277.00,0.0160
2276.00,0.0160
2275.00,0.0160
2274.00,0.0159
2273.00,0.0159
2272.00,0.0159
2271.00,0.0159
2270.00,0.0158
2269.00,0.0158
2268.00,0.0158
2267.00,0.0158
2266.00,0.0158
2265.00,0.0158
2264.00,0.0158
2263.00,0.0158
2262.00,0.0158
2261.00,0.0158
2260.00,0.0158
2259.00,0.0157
2258.00,0.0157
2257.00,0.0157
2256.00,0.0157
2255.00,0.0157
2254.00,0.0157
2253.00,0.0157
2252.00,0.0157
2251.00,0.0156
2250.00,0.0156
2249.00,0.0156
2248.00,0.0156
2247.00,0.0156
2246.00,0.0156
2245.00,0.0156
2244.00,0.0156
2243.00,0.0156
2242.00,0.0155
2241.00,0.0155
2240.00,0.0155
2239.00,0.0155
2238.00,0.0155
2237.00,0.0155
2236.00,0.0155
2235.00,0.0155
2234.00,0.0155
2233.00,0.0155
2232.00,0.0155
2231.00,0.0155
2230.00,0.0155
2229.00,0.0154
2228.00,0.0154
2227.00,0.0154
2226.00,0.0153
2225.00,0.0153
2224.00,0.0153
2223.00,0.0153
2222.00,0.0152
2221.00,0.0152
2220.00,0.0153
2219.00,0.0153
2218.00,0.0153
2217.00,0.0154
2216.00,0.0154
2215.00,0.0154
2214.00,0.0153
2213.00,0.0153
2212.00,0.0153
2211.00,0.0152
2210.00,0.0152
2209.00,0.0152
2208.00,0.0152
2207.00,0.0152
2206.00,0.0152
2205.00,0.0152
2204.00,0.0152
2203.00,0.0152
2202.00,0.0152
2201.00,0.0152
2200.00,0.0152
2199.00,0.0152
2198.00,0.0151
2197.00,0.0151
2196.00,0.0151
2195.00,0.0150
2194.00,0.0150
2193.00,0.0151
2192.00,0.0151
2191.00,0.0151
2190.00,0.0151
2189.00,0.0152
2188.00,0.0152
2187.00,0.0151
2186.00,0.0151
2185.00,0.0150
2184.00,0.0150
2183.00,0.0149
2182.00,0.0149
2181.00,0.0149
2180.00,0.0149
2179.00,0.0149
2178.00,0.0147
2177.00,0.0147
2176.00,0.0147
2175.00,0.0148
2174.00,0.0147
2173.00,0.0148
2172.00,0.0148
2171.00,0.0149
2170.00,0.0149
2169.00,0.0149
2168.00,0.0149
2167.00,0.0148
2166.00,0.0148
2165.00,0.0148
2164.00,0.0148
2163.00,0.0147
2162.00,0.0144
2161.00,0.0140
2160.00,0.0138
2159.00,0.0137
2158.00,0.0139
2157.00,0.0141
2156.00,0.0142
2155.00,0.0143
2154.00,0.0143
2153.00,0.0143
2152.00,0.0144
2151.00,0.0144
2150.00,0.0143
2149.00,0.0143
2148.00,0.0143
2147.00,0.0143
2146.00,0.0143
2145.00,0.0143
2144.00,0.0144
2143.00,0.0144
2142.00,0.0144
2141.00,0.0144
2140.00,0.0144
2139.00,0.0144
2138.00,0.0144
2137.00,0.0144
2136.00,0.0144
2135.00,0.0144
2134.00,0.0144
2133.00,0.0145
2132.00,0.0146
2131.00,0.0146
2130.00,0.0146
2129.00,0.0146
2128.00,0.0147
2127.00,0.0147
2126.00,0.0147
2125.00,0.0147
2124.00,0.0147
2123.00,0.0147
2122.00,0.0147
2121.00,0.0147
2120.00,0.0147
2119.00,0.0147
2118.00,0.0147
2117.00,0.0147
2116.00,0.0148
2115.00,0.0148
2114.00,0.0147
2113.00,0.0147
2112.00,0.0147
2111.00,0.0147
2110.00,0.0146
2109.00,0.0147
2108.00,0.0147
2107.00,0.0146
2106.00,0.0146
2105.00,0.0146
2104.00,0.0146
2103.00,0.0146
2102.00,0.0146
2101.00,0.0146
2100.00,0.0146
2099.00,0.0146
2098.00,0.0145
2097.00,0.0145
2096.00,0.0145
2095.00,0.0144
2094.00,0.0144
2093.00,0.0144
2092.00,0.0144
2091.00,0.0144
2090.00,0.0143
2089.00,0.0144
2088.00,0.0144
2087.00,0.0144
2086.00,0.0144
2085.00,0.0144
2084.00,0.0144
2083.00,0.0143
2082.00,0.0143
2081.00,0.0142
2080.00,0.0142
2079.00,0.0142
2078.00,0.0142
2077.00,0.0142
2076.00,0.0142
2075.00,0.0142
2074.00,0.0141
2073.00,0.0141
2072.00,0.0141
2071.00,0.0141
2070.00,0.0140
2069.00,0.0140
2068.00,0.0139
2067.00,0.0139
2066.00,0.0138
2065.00,0.0138
2064.00,0.0138
2063.00,0.0138
2062.00,0.0139
2061.00,0.0139
2060.00,0.0139
2059.00,0.0139
2058.00,0.0138
2057.00,0.0137
2056.00,0.0137
2055.00,0.0136
2054.00,0.0136
2053.00,0.0137
2052.00,0.0136
2051.00,0.0135
2050.00,0.0134
2049.00,0.0134
2048.00,0.0135
2047.00,0.0136
2046.00,0.0136
2045.00,0.0136
2044.00,0.0136
2043.00,0.0136
2042.00,0.0135
2041.00,0.0135
2040.00,0.0134
2039.00,0.0134
2038.00,0.0133
2037.00,0.0133
2036.00,0.0133
2035.00,0.0132
2034.00,0.0132
2033.00,0.0132
2032.00,0.0132
2031.00,0.0133
2030.00,0.0132
2029.00,0.0132
2028.00,0.0132
2027.00,0.0131
2026.00,0.0130
2025.00,0.0131
2024.00,0.0132
2023.00,0.0132
2022.00,0.0132
2021.00,0.0132
2020.00,0.0133
2019.00,0.0133
2018.00,0.0132
2017.00,0.0132
2016.00,0.0133
2015.00,0.0133
2014.00,0.0132
2013.00,0.0131
2012.00,0.0131
2011.00,0.0130
2010.00,0.0129
2009.00,0.0129
2008.00,0.0130
2007.00,0.0130
2006.00,0.0130
2005.00,0.0131
2004.00,0.0132
2003.00,0.0132
2002.00,0.0132
2001.00,0.0132
2000.00,0.0133
1999.00,0.0132
1998.00,0.0131
1997.00,0.0131
1996.00,0.0132
1995.00,0.0132
1994.00,0.0132
1993.00,0.0132
1992.00,0.0132
1991.00,0.0132
1990.00,0.0131
1989.00,0.0132
1988.00,0.0132
1987.00,0.0131
1986.00,0.0131
1985.00,0.0131
1984.00,0.0133
1983.00,0.0133
1982.00,0.0132
1981.00,0.0131
1980.00,0.0129
1979.00,0.0126
1978.00,0.0124
1977.00,0.0125
1976.00,0.0126
1975.00,0.0127
1974.00,0.0127
1973.00,0.0127
1972.00,0.0128
1971.00,0.0128
1970.00,0.0127
1969.00,0.0128
1968.00,0.0129
1967.00,0.0129
1966.00,0.0128
1965.00,0.0128
1964.00,0.0129
1963.00,0.0128
1962.00,0.0127
1961.00,0.0126
1960.00,0.0126
1959.00,0.0126
1958.00,0.0126
1957.00,0.0127
1956.00,0.0128
1955.00,0.0128
1954.00,0.0127
1953.00,0.0127
1952.00,0.0128
1951.00,0.0128
1950.00,0.0128
1949.00,0.0128
1948.00,0.0129
1947.00,0.0129
1946.00,0.0128
1945.00,0.0129
1944.00,0.0129
1943.00,0.0128
1942.00,0.0127
1941.00,0.0126
1940.00,0.0127
1939.00,0.0127
1938.00,0.0127
1937.00,0.0127
1936.00,0.0127
1935.00,0.0127
1934.00,0.0126
1933.00,0.0126
1932.00,0.0126
1931.00,0.0126
1930.00,0.0126
1929.00,0.0126
1928.00,0.0126
1927.00,0.0126
1926.00,0.0126
1925.00,0.0126
1924.00,0.0127
1923.00,0.0126
1922.00,0.0125
1921.00,0.0124
1920.00,0.0125
1919.00,0.0125
1918.00,0.0123
1917.00,0.0122
1916.00,0.0122
1915.00,0.0123
1914.00,0.0123
1913.00,0.0124
1912.00,0.0125
1911.00,0.0125
1910.00,0.0125
1909.00,0.0124
1908.00,0.0124
1907.00,0.0123
1906.00,0.0123
1905.00,0.0124
1904.00,0.0124
1903.00,0.0124
1902.00,0.0123
1901.00,0.0123
1900.00,0.0123
1899.00,0.0123
1898.00,0.0123
1897.00,0.0123
1896.00,0.0123
1895.00,0.0123
1894.00,0.0122
1893.00,0.0122
1892.00,0.0123
1891.00,0.0123
1890.00,0.0123
1889.00,0.0121
1888.00,0.0121
1887.00,0.0121
1886.00,0.0121
1885.00,0.0122
1884.00,0.0122
1883.00,0.0121
1882.00,0.0120
1881.00,0.0120
1880.00,0.0120
1879.00,0.0120
1878.00,0.0119
1877.00,0.0119
1876.00,0.0120
1875.00,0.0119
1874.00,0.0118
1873.00,0.0118
1872.00,0.0119
1871.00,0.0120
1870.00,0.0121
1869.00,0.0120
1868.00,0.0118
1867.00,0.0117
1866.00,0.0116
1865.00,0.0117
1864.00,0.0117
1863.00,0.0117
1862.00,0.0117
1861.00,0.0117
1860.00,0.0117
1859.00,0.0117
1858.00,0.0116
1857.00,0.0116
1856.00,0.0116
1855.00,0.0116
1854.00,0.0116
1853.00,0.0116
1852.00,0.0115
1851.00,0.0115
1850.00,0.0115
1849.00,0.0114
1848.00,0.0114
1847.00,0.0115
1846.00,0.0115
1845.00,0.0114
1844.00,0.0111
1843.00,0.0109
1842.00,0.0109
1841.00,0.0112
1840.00,0.0114
1839.00,0.0115
1838.00,0.0115
1837.00,0.0114
1836.00,0.0114
1835.00,0.0113
1834.00,0.0113
1833.00,0.0114
1832.00,0.0117
1831.00,0.0118
1830.00,0.0116
1829.00,0.0113
1828.00,0.0112
1827.00,0.0112
1826.00,0.0112
1825.00,0.0111
1824.00,0.0110
1823.00,0.0110
1822.00,0.0111
1821.00,0.0111
1820.00,0.0111
1819.00,0.0110
1818.00,0.0110
1817.00,0.0109
1816.00,0.0110
1815.00,0.0110
1814.00,0.0111
1813.00,0.0112
1812.00,0.0113
1811.00,0.0112
1810.00,0.0110
1809.00,0.0110
1808.00,0.0110
1807.00,0.0110
1806.00,0.0109
1805.00,0.0109
1804.00,0.0109
1803.00,0.0108
1802.00,0.0108
1801.00,0.0109
1800.00,0.0109
1799.00,0.0109
1798.00,0.0108
1797.00,0.0108
1796.00,0.0109
1795.00,0.0110
1794.00,0.0111
1793.00,0.0109
1792.00,0.0106
1791.00,0.0103
1790.00,0.0102
1789.00,0.0104
1788.00,0.0106
1787.00,0.0106
1786.00,0.0105
1785.00,0.0105
1784.00,0.0105
1783.00,0.0107
1782.00,0.0108
1781.00,0.0108
1780.00,0.0108
1779.00,0.0107
1778.00,0.0107
1777.00,0.0108
1776.00,0.0109
1775.00,0.0112
1774.00,0.0115
1773.00,0.0115
1772.00,0.0110
1771.00,0.0105
1770.00,0.0102
1769.00,0.0102
1768.00,0.0102
1767.00,0.0102
1766.00,0.0103
1765.00,0.0106
1764.00,0.0109
1763.00,0.0110
1762.00,0.0107
1761.00,0.0105
1760.00,0.0105
1759.00,0.0107
1758.00,0.0109
1757.00,0.0108
1756.00,0.0108
1755.00,0.0108
1754.00,0.0109
1753.00,0.0111
1752.00,0.0113
1751.00,0.0114
1750.00,0.0116
1749.00,0.0118
1748.00,0.0121
1747.00,0.0122
1746.00,0.0123
1745.00,0.0125
1744.00,0.0128
1743.00,0.0131
1742.00,0.0134
1741.00,0.0137
1740.00,0.0139
1739.00,0.0137
1738.00,0.0137
1737.00,0.0141
1736.00,0.0147
1735.00,0.0148
1734.00,0.0145
1733.00,0.0143
1732.00,0.0148
1731.00,0.0153
1730.00,0.0157
1729.00,0.0160
1728.00,0.0162
1727.00,0.0165
1726.00,0.0168
1725.00,0.0171
1724.00,0.0174
1723.00,0.0176
1722.00,0.0178
1721.00,0.0182
1720.00,0.0189
1719.00,0.0194
1718.00,0.0196
1717.00,0.0197
1716.00,0.0200
1715.00,0.0205
1714.00,0.0209
1713.00,0.0215
1712.00,0.0222
1711.00,0.0228
1710.00,0.0234
1709.00,0.0242
1708.00,0.0252
1707.00,0.0263
1706.00,0.0274
1705.00,0.0285
1704.00,0.0295
1703.00,0.0307
1702.00,0.0326
1701.00,0.0355
1700.00,0.0392
1699.00,0.0425
1698.00,0.0452
1697.00,0.0480
1696.00,0.0509
1695.00,0.0532
1694.00,0.0549
1693.00,0.0560
1692.00,0.0569
1691.00,0.0577
1690.00,0.0583
1689.00,0.0590
1688.00,0.0595
1687.00,0.0601
1686.00,0.0610
1685.00,0.0627
1684.00,0.0648
1683.00,0.0667
1682.00,0.0679
1681.00,0.0690
1680.00,0.0700
1679.00,0.0709
1678.00,0.0717
1677.00,0.0728
1676.00,0.0746
1675.00,0.0767
1674.00,0.0787
1673.00,0.0801
1672.00,0.0813
1671.00,0.0829
1670.00,0.0849
1669.00,0.0872
1668.00,0.0892
1667.00,0.0904
1666.00,0.0912
1665.00,0.0921
1664.00,0.0935
1663.00,0.0956
1662.00,0.0976
1661.00,0.0993
1660.00,0.1006
1659.00,0.1016
1658.00,0.1021
1657.00,0.1022
1656.00,0.1021
1655.00,0.1027
1654.00,0.1054
1653.00,0.1103
1652.00,0.1141
1651.00,0.1150
1650.00,0.1145
1649.00,0.1141
1648.00,0.1149
1647.00,0.1169
1646.00,0.1192
1645.00,0.1207
1644.00,0.1214
1643.00,0.1216
1642.00,0.1219
1641.00,0.1223
1640.00,0.1229
1639.00,0.1232
1638.00,0.1237
1637.00,0.1252
1636.00,0.1283
1635.00,0.1319
1634.00,0.1341
1633.00,0.1350
1632.00,0.1352
1631.00,0.1356
1630.00,0.1365
1629.00,0.1383
1628.00,0.1404
1627.00,0.1424
1626.00,0.1438
1625.00,0.1453
1624.00,0.1475
1623.00,0.1504
1622.00,0.1527
1621.00,0.1536
1620.00,0.1533
1619.00,0.1529
1618.00,0.1533
1617.00,0.1550
1616.00,0.1568
1615.00,0.1570
1614.00,0.1555
1613.00,0.1529
1612.00,0.1501
1611.00,0.1474
1610.00,0.1446
1609.00,0.1416
1608.00,0.1383
1607.00,0.1349
1606.00,0.1312
1605.00,0.1274
1604.00,0.1235
1603.00,0.1198
1602.00,0.1160
1601.00,0.1123
1600.00,0.1086
1599.00,0.1051
1598.00,0.1017
1597.00,0.0985
1596.00,0.0954
1595.00,0.0925
1594.00,0.0898
1593.00,0.0871
1592.00,0.0846
1591.00,0.0823
1590.00,0.0802
1589.00,0.0782
1588.00,0.0764
1587.00,0.0748
1586.00,0.0735
1585.00,0.0723
1584.00,0.0712
1583.00,0.0703
1582.00,0.0696
1581.00,0.0689
1580.00,0.0682
1579.00,0.0677
1578.00,0.0675
1577.00,0.0676
1576.00,0.0678
1575.00,0.0679
1574.00,0.0679
1573.00,0.0676
1572.00,0.0674
1571.00,0.0677
1570.00,0.0685
1569.00,0.0694
1568.00,0.0701
1567.00,0.0708
1566.00,0.0716
1565.00,0.0724
1564.00,0.0730
1563.00,0.0732
1562.00,0.0731
1561.00,0.0735
1560.00,0.0755
1559.00,0.0795
1558.00,0.0832
1557.00,0.0848
1556.00,0.0854
1555.00,0.0863
1554.00,0.0876
1553.00,0.0888
1552.00,0.0900
1551.00,0.0914
1550.00,0.0931
1549.00,0.0947
1548.00,0.0959
1547.00,0.0967
1546.00,0.0977
1545.00,0.0991
1544.00,0.1008
1543.00,0.1023
1542.00,0.1041
1541.00,0.1068
1540.00,0.1101
1539.00,0.1127
1538.00,0.1136
1537.00,0.1131
1536.00,0.1123
1535.00,0.1121
1534.00,0.1131
1533.00,0.1148
1532.00,0.1160
1531.00,0.1163
1530.00,0.1161
1529.00,0.1160
1528.00,0.1161
1527.00,0.1167
1526.00,0.1174
1525.00,0.1178
1524.00,0.1177
1523.00,0.1177
1522.00,0.1185
1521.00,0.1199
1520.00,0.1208
1519.00,0.1209
1518.00,0.1208
1517.00,0.1209
1516.00,0.1211
1515.00,0.1206
1514.00,0.1195
1513.00,0.1180
1512.00,0.1165
1511.00,0.1147
1510.00,0.1128
1509.00,0.1111
1508.00,0.1102
1507.00,0.1102
1506.00,0.1101
1505.00,0.1089
1504.00,0.1067
1503.00,0.1041
1502.00,0.1014
1501.00,0.0989
1500.00,0.0967
1499.00,0.0948
1498.00,0.0929
1497.00,0.0912
1496.00,0.0895
1495.00,0.0875
1494.00,0.0854
1493.00,0.0831
1492.00,0.0810
1491.00,0.0791
1490.00,0.0777
1489.00,0.0766
1488.00,0.0756
1487.00,0.0745
1486.00,0.0735
1485.00,0.0726
1484.00,0.0720
1483.00,0.0715
1482.00,0.0714
1481.00,0.0716
1480.00,0.0718
1479.00,0.0720
1478.00,0.0723
1477.00,0.0730
1476.00,0.0739
1475.00,0.0749
1474.00,0.0764
1473.00,0.0784
1472.00,0.0806
1471.00,0.0823
1470.00,0.0833
1469.00,0.0839
1468.00,0.0843
1467.00,0.0848
1466.00,0.0858
1465.00,0.0872
1464.00,0.0885
1463.00,0.0894
1462.00,0.0896
1461.00,0.0895
1460.00,0.0895
1459.00,0.0898
1458.00,0.0911
1457.00,0.0936
1456.00,0.0960
1455.00,0.0973
1454.00,0.0976
1453.00,0.0976
1452.00,0.0974
1451.00,0.0973
1450.00,0.0971
1449.00,0.0970
1448.00,0.0972
1447.00,0.0972
1446.00,0.0970
1445.00,0.0964
1444.00,0.0958
1443.00,0.0952
1442.00,0.0945
1441.00,0.0936
1440.00,0.0924
1439.00,0.0911
1438.00,0.0900
1437.00,0.0894
1436.00,0.0892
1435.00,0.0889
1434.00,0.0880
1433.00,0.0866
1432.00,0.0853
1431.00,0.0841
1430.00,0.0830
1429.00,0.0819
1428.00,0.0809
1427.00,0.0799
1426.00,0.0790
1425.00,0.0782
1424.00,0.0776
1423.00,0.0770
1422.00,0.0762
1421.00,0.0754
1420.00,0.0750
1419.00,0.0753
1418.00,0.0758
1417.00,0.0761
1416.00,0.0761
1415.00,0.0761
1414.00,0.0760
1413.00,0.0759
1412.00,0.0758
1411.00,0.0758
1410.00,0.0758
1409.00,0.0755
1408.00,0.0751
1407.00,0.0747
1406.00,0.0744
1405.00,0.0740
1404.00,0.0737
1403.00,0.0733
1402.00,0.0728
1401.00,0.0722
1400.00,0.0717
1399.00,0.0714
1398.00,0.0712
1397.00,0.0709
1396.00,0.0707
1395.00,0.0707
1394.00,0.0708
1393.00,0.0709
1392.00,0.0708
1391.00,0.0706
1390.00,0.0702
1389.00,0.0699
1388.00,0.0698
1387.00,0.0699
1386.00,0.0700
1385.00,0.0699
1384.00,0.0697
1383.00,0.0693
1382.00,0.0690
1381.00,0.0688
1380.00,0.0685
1379.00,0.0684
1378.00,0.0683
1377.00,0.0682
1376.00,0.0681
1375.00,0.0681
1374.00,0.0683
1373.00,0.0684
1372.00,0.0684
1371.00,0.0683
1370.00,0.0681
1369.00,0.0678
1368.00,0.0673
1367.00,0.0667
1366.00,0.0659
1365.00,0.0650
1364.00,0.0642
1363.00,0.0635
1362.00,0.0631
1361.00,0.0627
1360.00,0.0623
1359.00,0.0620
1358.00,0.0616
1357.00,0.0613
1356.00,0.0610
1355.00,0.0608
1354.00,0.0607
1353.00,0.0606
1352.00,0.0605
1351.00,0.0605
1350.00,0.0605
1349.00,0.0606
1348.00,0.0607
1347.00,0.0608
1346.00,0.0609
1345.00,0.0611
1344.00,0.0612
1343.00,0.0612
1342.00,0.0612
1341.00,0.0612
1340.00,0.0612
1339.00,0.0612
1338.00,0.0613
1337.00,0.0612
1336.00,0.0611
1335.00,0.0608
1334.00,0.0606
1333.00,0.0603
1332.00,0.0600
1331.00,0.0597
1330.00,0.0595
1329.00,0.0593
1328.00,0.0592
1327.00,0.0591
1326.00,0.0590
1325.00,0.0589
1324.00,0.0588
1323.00,0.0588
1322.00,0.0587
1321.00,0.0587
1320.00,0.0588
1319.00,0.0588
1318.00,0.0589
1317.00,0.0589
1316.00,0.0589
1315.00,0.0589
1314.00,0.0589
1313.00,0.0589
1312.00,0.0590
1311.00,0.0590
1310.00,0.0589
1309.00,0.0589
1308.00,0.0588
1307.00,0.0588
1306.00,0.0587
1305.00,0.0587
1304.00,0.0586
1303.00,0.0586
1302.00,0.0586
1301.00,0.0585
1300.00,0.0585
1299.00,0.0585
1298.00,0.0585
1297.00,0.0585
1296.00,0.0585
1295.00,0.0586
1294.00,0.0587
1293.00,0.0587
1292.00,0.0588
1291.00,0.0589
1290.00,0.0589
1289.00,0.0590
1288.00,0.0591
1287.00,0.0593
1286.00,0.0594
1285.00,0.0595
1284.00,0.0596
1283.00,0.0596
1282.00,0.0597
1281.00,0.0597
1280.00,0.0598
1279.00,0.0598
1278.00,0.0599
1277.00,0.0599
1276.00,0.0599
1275.00,0.0600
1274.00,0.0600
1273.00,0.0601
1272.00,0.0602
1271.00,0.0603
1270.00,0.0605
1269.00,0.0607
1268.00,0.0609
1267.00,0.0612
1266.00,0.0615
1265.00,0.0618
1264.00,0.0621
1263.00,0.0625
1262.00,0.0629
1261.00,0.0632
1260.00,0.0636
1259.00,0.0641
1258.00,0.0645
1257.00,0.0649
1256.00,0.0653
1255.00,0.0658
1254.00,0.0663
1253.00,0.0667
1252.00,0.0672
1251.00,0.0678
1250.00,0.0683
1249.00,0.0688
1248.00,0.0692
1247.00,0.0697
1246.00,0.0702
1245.00,0.0706
1244.00,0.0709
1243.00,0.0713
1242.00,0.0716
1241.00,0.0719
1240.00,0.0721
1239.00,0.0722
1238.00,0.0723
1237.00,0.0723
1236.00,0.0723
1235.00,0.0722
1234.00,0.0720
1233.00,0.0718
1232.00,0.0715
1231.00,0.0712
1230.00,0.0709
1229.00,0.0705
1228.00,0.0701
1227.00,0.0696
1226.00,0.0692
1225.00,0.0687
1224.00,0.0681
1223.00,0.0676
1222.00,0.0670
1221.00,0.0664
1220.00,0.0658
1219.00,0.0652
1218.00,0.0645
1217.00,0.0639
1216.00,0.0632
1215.00,0.0625
1214.00,0.0619
1213.00,0.0612
1212.00,0.0605
1211.00,0.0599
1210.00,0.0593
1209.00,0.0586
1208.00,0.0580
1207.00,0.0573
1206.00,0.0567
1205.00,0.0560
1204.00,0.0553
1203.00,0.0547
1202.00,0.0541
1201.00,0.0535
1200.00,0.0529
1199.00,0.0523
1198.00,0.0518
1197.00,0.0512
1196.00,0.0508
1195.00,0.0503
1194.00,0.0499
1193.00,0.0495
1192.00,0.0491
1191.00,0.0488
1190.00,0.0485
1189.00,0.0482
1188.00,0.0479
1187.00,0.0477
1186.00,0.0475
1185.00,0.0474
1184.00,0.0472
1183.00,0.0472
1182.00,0.0472
1181.00,0.0472
1180.00,0.0473
1179.00,0.0475
1178.00,0.0477
1177.00,0.0481
1176.00,0.0484
1175.00,0.0488
1174.00,0.0493
1173.00,0.0498
1172.00,0.0503
1171.00,0.0508
1170.00,0.0512
1169.00,0.0517
1168.00,0.0521
1167.00,0.0525
1166.00,0.0529
1165.00,0.0533
1164.00,0.0537
1163.00,0.0540
1162.00,0.0542
1161.00,0.0544
1160.00,0.0544
1159.00,0.0544
1158.00,0.0543
1157.00,0.0541
1156.00,0.0539
1155.00,0.0536
1154.00,0.0532
1153.00,0.0527
1152.00,0.0523
1151.00,0.0518
1150.00,0.0513
1149.00,0.0508
1148.00,0.0503
1147.00,0.0499
1146.00,0.0495
1145.00,0.0491
1144.00,0.0488
1143.00,0.0485
1142.00,0.0483
1141.00,0.0481
1140.00,0.0479
1139.00,0.0478
1138.00,0.0478
1137.00,0.0478
1136.00,0.0479
1135.00,0.0480
1134.00,0.0481
1133.00,0.0482
1132.00,0.0484
1131.00,0.0485
1130.00,0.0487
1129.00,0.0488
1128.00,0.0490
1127.00,0.0491
1126.00,0.0493
1125.00,0.0494
1124.00,0.0494
1123.00,0.0495
1122.00,0.0496
1121.00,0.0497
1120.00,0.0497
1119.00,0.0498
1118.00,0.0499
1117.00,0.0499
1116.00,0.0500
1115.00,0.0501
1114.00,0.0502
1113.00,0.0503
1112.00,0.0503
1111.00,0.0505
1110.00,0.0506
1109.00,0.0508
1108.00,0.0510
1107.00,0.0512
1106.00,0.0515
1105.00,0.0518
1104.00,0.0521
1103.00,0.0525
1102.00,0.0528
1101.00,0.0531
1100.00,0.0534
1099.00,0.0538
1098.00,0.0541
1097.00,0.0545
1096.00,0.0549
1095.00,0.0553
1094.00,0.0557
1093.00,0.0562
1092.00,0.0568
1091.00,0.0574
1090.00,0.0580
1089.00,0.0587
1088.00,0.0594
1087.00,0.0601
1086.00,0.0609
1085.00,0.0617
1084.00,0.0626
1083.00,0.0634
1082.00,0.0643
1081.00,0.0652
1080.00,0.0660
1079.00,0.0669
1078.00,0.0677
1077.00,0.0685
1076.00,0.0692
1075.00,0.0699
1074.00,0.0706
1073.00,0.0712
1072.00,0.0717
1071.00,0.0723
1070.00,0.0728
1069.00,0.0732
1068.00,0.0736
1067.00,0.0739
1066.00,0.0742
1065.00,0.0743
1064.00,0.0744
1063.00,0.0744
1062.00,0.0743
1061.00,0.0742
1060.00,0.0740
1059.00,0.0737
1058.00,0.0734
1057.00,0.0730
1056.00,0.0726
1055.00,0.0723
1054.00,0.0719
1053.00,0.0716
1052.00,0.0713
1051.00,0.0710
1050.00,0.0707
1049.00,0.0704
1048.00,0.0700
1047.00,0.0696
1046.00,0.0691
1045.00,0.0686
1044.00,0.0681
1043.00,0.0676
1042.00,0.0671
1041.00,0.0665
1040.00,0.0660
1039.00,0.0655
1038.00,0.0651
1037.00,0.0647
1036.00,0.0643
1035.00,0.0639
1034.00,0.0636
1033.00,0.0632
1032.00,0.0628
1031.00,0.0624
1030.00,0.0620
1029.00,0.0616
1028.00,0.0611
1027.00,0.0607
1026.00,0.0603
1025.00,0.0600
1024.00,0.0596
1023.00,0.0593
1022.00,0.0591
1021.00,0.0588
1020.00,0.0584
1019.00,0.0581
1018.00,0.0576
1017.00,0.0570
1016.00,0.0563
1015.00,0.0555
1014.00,0.0545
1013.00,0.0536
1012.00,0.0526
1011.00,0.0518
1010.00,0.0510
1009.00,0.0503
1008.00,0.0496
1007.00,0.0490
1006.00,0.0485
1005.00,0.0480
1004.00,0.0475
1003.00,0.0471
1002.00,0.0468
1001.00,0.0464
1000.00,0.0461
999.00,0.0457
998.00,0.0454
997.00,0.0451
996.00,0.0448
995.00,0.0445
994.00,0.0443
993.00,0.0440
992.00,0.0437
991.00,0.0434
990.00,0.0431
989.00,0.0428
988.00,0.0425
987.00,0.0423
986.00,0.0420
985.00,0.0417
984.00,0.0415
983.00,0.0412
982.00,0.0410
981.00,0.0408
980.00,0.0406
979.00,0.0404
978.00,0.0403
977.00,0.0402
976.00,0.0401
975.00,0.0400
974.00,0.0399
973.00,0.0398
972.00,0.0398
971.00,0.0397
970.00,0.0397
969.00,0.0397
968.00,0.0397
967.00,0.0397
966.00,0.0397
965.00,0.0397
964.00,0.0398
963.00,0.0398
962.00,0.0398
961.00,0.0399
960.00,0.0399
959.00,0.0399
958.00,0.0398
957.00,0.0398
956.00,0.0397
955.00,0.0396
954.00,0.0395
953.00,0.0393
952.00,0.0392
951.00,0.0391
950.00,0.0389
949.00,0.0388
948.00,0.0387
947.00,0.0386
946.00,0.0385
945.00,0.0385
944.00,0.0384
943.00,0.0384
942.00,0.0384
941.00,0.0384
940.00,0.0384
939.00,0.0385
938.00,0.0385
937.00,0.0385
936.00,0.0385
935.00,0.0386
934.00,0.0386
933.00,0.0386
932.00,0.0385
931.00,0.0385
930.00,0.0384
929.00,0.0384
928.00,0.0383
927.00,0.0382
926.00,0.0381
925.00,0.0380
924.00,0.0378
923.00,0.0376
922.00,0.0374
921.00,0.0371
920.00,0.0369
919.00,0.0367
918.00,0.0364
917.00,0.0362
916.00,0.0360
915.00,0.0359
914.00,0.0357
913.00,0.0356
912.00,0.0355
911.00,0.0354
910.00,0.0354
909.00,0.0355
908.00,0.0355
907.00,0.0356
906.00,0.0358
905.00,0.0359
904.00,0.0360
903.00,0.0361
902.00,0.0362
901.00,0.0362
900.00,0.0362
899.00,0.0361
898.00,0.0360
897.00,0.0359
896.00,0.0357
895.00,0.0355
894.00,0.0354
893.00,0.0352
892.00,0.0350
891.00,0.0348
890.00,0.0346
889.00,0.0344
888.00,0.0342
887.00,0.0340
886.00,0.0338
885.00,0.0337
884.00,0.0336
883.00,0.0335
882.00,0.0335
881.00,0.0334
880.00,0.0334
879.00,0.0334
878.00,0.0334
877.00,0.0335
876.00,0.0336
875.00,0.0336
874.00,0.0337
873.00,0.0338
872.00,0.0337
871.00,0.0336
870.00,0.0333
869.00,0.0330
868.00,0.0327
867.00,0.0325
866.00,0.0322
865.00,0.0321
864.00,0.0319
863.00,0.0318
862.00,0.0317
861.00,0.0316
860.00,0.0315
859.00,0.0314
858.00,0.0314
857.00,0.0314
856.00,0.0314
855.00,0.0314
854.00,0.0315
853.00,0.0315
852.00,0.0316
851.00,0.0317
850.00,0.0317
849.00,0.0317
848.00,0.0317
847.00,0.0317
846.00,0.0317
845.00,0.0316
844.00,0.0316
843.00,0.0316
842.00,0.0316
841.00,0.0316
840.00,0.0317
839.00,0.0318
838.00,0.0319
837.00,0.0320
836.00,0.0322
835.00,0.0324
834.00,0.0326
833.00,0.0328
832.00,0.0330
831.00,0.0332
830.00,0.0334
829.00,0.0336
828.00,0.0337
827.00,0.0339
826.00,0.0341
825.00,0.0342
824.00,0.0344
823.00,0.0345
822.00,0.0347
821.00,0.0349
820.00,0.0352
819.00,0.0354
818.00,0.0356
817.00,0.0358
816.00,0.0360
815.00,0.0362
814.00,0.0365
813.00,0.0367
812.00,0.0369
811.00,0.0371
810.00,0.0373
809.00,0.0375
808.00,0.0377
807.00,0.0379
806.00,0.0380
805.00,0.0382
804.00,0.0383
803.00,0.0384
802.00,0.0386
801.00,0.0387
800.00,0.0388
799.00,0.0389
798.00,0.0391
797.00,0.0393
796.00,0.0396
795.00,0.0398
794.00,0.0401
793.00,0.0403
792.00,0.0405
791.00,0.0408
790.00,0.0410
789.00,0.0413
788.00,0.0416
787.00,0.0418
786.00,0.0421
785.00,0.0424
784.00,0.0427
783.00,0.0430
782.00,0.0433
781.00,0.0436
780.00,0.0439
779.00,0.0442
778.00,0.0445
777.00,0.0448
776.00,0.0451
775.00,0.0454
774.00,0.0457
773.00,0.0460
772.00,0.0463
771.00,0.0467
770.00,0.0470
769.00,0.0472
768.00,0.0475
767.00,0.0477
766.00,0.0480
765.00,0.0483
764.00,0.0485
763.00,0.0488
762.00,0.0490
761.00,0.0493
760.00,0.0496
759.00,0.0500
758.00,0.0503
757.00,0.0506
756.00,0.0508
755.00,0.0511
754.00,0.0514
753.00,0.0517
752.00,0.0520
751.00,0.0523
750.00,0.0525
749.00,0.0528
748.00,0.0531
747.00,0.0533
746.00,0.0535
745.00,0.0536
744.00,0.0538
743.00,0.0540
742.00,0.0542
741.00,0.0545
740.00,0.0548
739.00,0.0551
738.00,0.0556
737.00,0.0560
736.00,0.0566
735.00,0.0571
734.00,0.0578
733.00,0.0584
732.00,0.0592
731.00,0.0600
730.00,0.0608
729.00,0.0616
728.00,0.0624
727.00,0.0633
726.00,0.0641
725.00,0.0649
724.00,0.0657
723.00,0.0664
722.00,0.0670
721.00,0.0675
720.00,0.0679
719.00,0.0683
718.00,0.0687
717.00,0.0690
716.00,0.0694
715.00,0.0699
714.00,0.0704
713.00,0.0711
712.00,0.0718
711.00,0.0727
710.00,0.0737
709.00,0.0747
708.00,0.0759
707.00,0.0771
706.00,0.0783
705.00,0.0795
704.00,0.0806
703.00,0.0817
702.00,0.0827
701.00,0.0834
700.00,0.0840
699.00,0.0843
698.00,0.0845
697.00,0.0846
696.00,0.0846
695.00,0.0846
694.00,0.0846
693.00,0.0846
692.00,0.0847
691.00,0.0847
690.00,0.0847
689.00,0.0848
688.00,0.0850
687.00,0.0852
686.00,0.0854
685.00,0.0857
684.00,0.0859
683.00,0.0862
682.00,0.0864
681.00,0.0867
680.00,0.0869
679.00,0.0872
678.00,0.0875
677.00,0.0879
676.00,0.0882
675.00,0.0885
674.00,0.0889
673.00,0.0892
672.00,0.0893
671.00,0.0893
670.00,0.0894
669.00,0.0898
668.00,0.0906
667.00,0.0914
666.00,0.0916
665.00,0.0913
664.00,0.0911
663.00,0.0911
662.00,0.0912
661.00,0.0913
660.00,0.0915
659.00,0.0917
658.00,0.0919
657.00,0.0921
656.00,0.0923
655.00,0.0925
654.00,0.0927
653.00,0.0929
652.00,0.0932
651.00,0.0935
650.00,0.0938
649.00,0.0941
648.00,0.0945
647.00,0.0948
646.00,0.0952
645.00,0.0955
644.00,0.0959
643.00,0.0964
642.00,0.0968
641.00,0.0972
640.00,0.0977
639.00,0.0981
638.00,0.0985
637.00,0.0989
636.00,0.0994
635.00,0.0999
634.00,0.1004
633.00,0.1008
632.00,0.1012
631.00,0.1016
630.00,0.1019
629.00,0.1021
628.00,0.1024
627.00,0.1026
626.00,0.1027
625.00,0.1029
624.00,0.1031
623.00,0.1033
622.00,0.1034
621.00,0.1034
620.00,0.1034
619.00,0.1034
618.00,0.1034
617.00,0.1034
616.00,0.1034
615.00,0.1034
614.00,0.1033
613.00,0.1031
612.00,0.1031
611.00,0.1030
610.00,0.1030
609.00,0.1029
608.00,0.1028
607.00,0.1028
606.00,0.1027
605.00,0.1027
604.00,0.1026
603.00,0.1026
602.00,0.1025
601.00,0.1024
600.00,0.1024
599.00,0.1024
598.00,0.1025
597.00,0.1025
596.00,0.1026
595.00,0.1026
594.00,0.1026
593.00,0.1026
592.00,0.1027
591.00,0.1028
590.00,0.1030
589.00,0.1031
588.00,0.1032
587.00,0.1034
586.00,0.1035
585.00,0.1036
584.00,0.1038
583.00,0.1040
582.00,0.1041
581.00,0.1043
580.00,0.1045
579.00,0.1047
578.00,0.1048
577.00,0.1049
576.00,0.1051
575.00,0.1054
574.00,0.1057
573.00,0.1059
572.00,0.1060
571.00,0.1062
570.00,0.1063
569.00,0.1065
568.00,0.1067
567.00,0.1070
566.00,0.1072
565.00,0.1074
564.00,0.1077
563.00,0.1080
562.00,0.1082
561.00,0.1085
560.00,0.1087
559.00,0.1089
558.00,0.1091
557.00,0.1093
556.00,0.1095
555.00,0.1098
554.00,0.1100
553.00,0.1103
552.00,0.1106
551.00,0.1110
550.00,0.1113
549.00,0.1115
548.00,0.1118
547.00,0.1123
546.00,0.1127
545.00,0.1131
544.00,0.1135
543.00,0.1139
542.00,0.1142
541.00,0.1146
540.00,0.1151
539.00,0.1156
538.00,0.1161
537.00,0.1165
536.00,0.1169
535.00,0.1172
534.00,0.1176
533.00,0.1179
532.00,0.1182
531.00,0.1185
530.00,0.1187
529.00,0.1189
528.00,0.1190
527.00,0.1193
526.00,0.1197
525.00,0.1201
524.00,0.1205
523.00,0.1207
522.00,0.1208
521.00,0.1207
520.00,0.1207
519.00,0.1207
518.00,0.1206
517.00,0.1207
516.00,0.1209
515.00,0.1211
514.00,0.1211
513.00,0.1211
512.00,0.1211
511.00,0.1212
510.00,0.1212
509.00,0.1212
508.00,0.1213
507.00,0.1213
506.00,0.1212
505.00,0.1208
504.00,0.1205
503.00,0.1203
502.00,0.1202
501.00,0.1200
500.00,0.1199
499.00,0.1197
498.00,0.1195
497.00,0.1193
496.00,0.1191
495.00,0.1189
494.00,0.1187
493.00,0.1185
492.00,0.1184
491.00,0.1183
490.00,0.1181
489.00,0.1178
488.00,0.1175
487.00,0.1171
486.00,0.1168
485.00,0.1166
484.00,0.1164
483.00,0.1162
482.00,0.1158
481.00,0.1155
480.00,0.1153
479.00,0.1151
478.00,0.1150
477.00,0.1150
476.00,0.1149
475.00,0.1149
474.00,0.1148
473.00,0.1147
472.00,0.1149
471.00,0.1151
470.00,0.1152
469.00,0.1154
468.00,0.1157
467.00,0.1161
466.00,0.1162
465.00,0.1162
464.00,0.1160
463.00,0.1157
462.00,0.1154
461.00,0.1152
460.00,0.1150
459.00,0.1148
458.00,0.1148
457.00,0.1150
456.00,0.1154
455.00,0.1156
454.00,0.1155
453.00,0.1154
452.00,0.1154
451.00,0.1153
450.00,0.1150
449.00,0.1144
448.00,0.1137
447.00,0.1131
446.00,0.1125
445.00,0.1123
444.00,0.1125
443.00,0.1128
442.00,0.1130
441.00,0.1129
440.00,0.1125
439.00,0.1118
438.00,0.1110
437.00,0.1103
436.00,0.1099
435.00,0.1098
434.00,0.1097
433.00,0.1094
432.00,0.1092
431.00,0.1089
430.00,0.1086
429.00,0.1082
428.00,0.1078
427.00,0.1073
426.00,0.1066
425.00,0.1058
424.00,0.1053
423.00,0.1050
422.00,0.1045
421.00,0.1036
420.00,0.1027
419.00,0.1021
418.00,0.1020
417.00,0.1023
416.00,0.1025
415.00,0.1024
414.00,0.1019
413.00,0.1013
412.00,0.1011
411.00,0.1011
410.00,0.1009
409.00,0.1002
408.00,0.0993
407.00,0.0985
406.00,0.0981
405.00,0.0981
404.00,0.0981
403.00,0.0976
402.00,0.0966
401.00,0.0954
400.00,0.0942
