Created as New Dataset,Sample 249 By YargerLab Date Thursday, July 11 2024
cm-1,A
4000.00,0.0141
3999.00,0.0141
3998.00,0.0141
3997.00,0.0141
3996.00,0.0141
3995.00,0.0141
3994.00,0.0141
3993.00,0.0141
3992.00,0.0141
3991.00,0.0141
3990.00,0.0141
3989.00,0.0141
3988.00,0.0141
3987.00,0.0141
3986.00,0.0141
3985.00,0.0140
3984.00,0.0140
3983.00,0.0140
3982.00,0.0140
3981.00,0.0140
3980.00,0.0140
3979.00,0.0140
3978.00,0.0140
3977.00,0.0140
3976.00,0.0140
3975.00,0.0140
3974.00,0.0140
3973.00,0.0140
3972.00,0.0140
3971.00,0.0140
3970.00,0.0140
3969.00,0.0140
3968.00,0.0140
3967.00,0.0140
3966.00,0.0140
3965.00,0.0140
3964.00,0.0140
3963.00,0.0140
3962.00,0.0140
3961.00,0.0140
3960.00,0.0140
3959.00,0.0140
3958.00,0.0140
3957.00,0.0140
3956.00,0.0139
3955.00,0.0139
3954.00,0.0139
3953.00,0.0139
3952.00,0.0139
3951.00,0.0139
3950.00,0.0139
3949.00,0.0139
3948.00,0.0140
3947.00,0.0140
3946.00,0.0140
3945.00,0.0139
3944.00,0.0139
3943.00,0.0139
3942.00,0.0139
3941.00,0.0139
3940.00,0.0139
3939.00,0.0139
3938.00,0.0139
3937.00,0.0139
3936.00,0.0139
3935.00,0.0139
3934.00,0.0139
3933.00,0.0139
3932.00,0.0139
3931.00,0.0139
3930.00,0.0139
3929.00,0.0139
3928.00,0.0139
3927.00,0.0139
3926.00,0.0139
3925.00,0.0139
3924.00,0.0139
3923.00,0.0139
3922.00,0.0139
3921.00,0.0139
3920.00,0.0139
3919.00,0.0139
3918.00,0.0139
3917.00,0.0139
3916.00,0.0139
3915.00,0.0139
3914.00,0.0139
3913.00,0.0139
3912.00,0.0138
3911.00,0.0138
3910.00,0.0138
3909.00,0.0138
3908.00,0.0137
3907.00,0.0137
3906.00,0.0137
3905.00,0.0138
3904.00,0.0138
3903.00,0.0139
3902.00,0.0139
3901.00,0.0139
3900.00,0.0139
3899.00,0.0139
3898.00,0.0139
3897.00,0.0139
3896.00,0.0138
3895.00,0.0138
3894.00,0.0138
3893.00,0.0138
3892.00,0.0138
3891.00,0.0138
3890.00,0.0138
3889.00,0.0138
3888.00,0.0138
3887.00,0.0138
3886.00,0.0138
3885.00,0.0138
3884.00,0.0138
3883.00,0.0137
3882.00,0.0137
3881.00,0.0138
3880.00,0.0138
3879.00,0.0138
3878.00,0.0138
3877.00,0.0137
3876.00,0.0137
3875.00,0.0137
3874.00,0.0137
3873.00,0.0136
3872.00,0.0137
3871.00,0.0137
3870.00,0.0138
3869.00,0.0138
3868.00,0.0137
3867.00,0.0137
3866.00,0.0137
3865.00,0.0137
3864.00,0.0137
3863.00,0.0137
3862.00,0.0137
3861.00,0.0138
3860.00,0.0137
3859.00,0.0137
3858.00,0.0136
3857.00,0.0135
3856.00,0.0135
3855.00,0.0135
3854.00,0.0135
3853.00,0.0136
3852.00,0.0136
3851.00,0.0137
3850.00,0.0137
3849.00,0.0137
3848.00,0.0137
3847.00,0.0137
3846.00,0.0136
3845.00,0.0136
3844.00,0.0136
3843.00,0.0136
3842.00,0.0135
3841.00,0.0135
3840.00,0.0135
3839.00,0.0135
3838.00,0.0135
3837.00,0.0135
3836.00,0.0135
3835.00,0.0135
3834.00,0.0135
3833.00,0.0136
3832.00,0.0136
3831.00,0.0136
3830.00,0.0135
3829.00,0.0135
3828.00,0.0135
3827.00,0.0135
3826.00,0.0135
3825.00,0.0134
3824.00,0.0134
3823.00,0.0134
3822.00,0.0134
3821.00,0.0134
3820.00,0.0134
3819.00,0.0134
3818.00,0.0134
3817.00,0.0135
3816.00,0.0134
3815.00,0.0134
3814.00,0.0134
3813.00,0.0134
3812.00,0.0134
3811.00,0.0134
3810.00,0.0134
3809.00,0.0133
3808.00,0.0134
3807.00,0.0134
3806.00,0.0133
3805.00,0.0133
3804.00,0.0133
3803.00,0.0133
3802.00,0.0133
3801.00,0.0133
3800.00,0.0133
3799.00,0.0133
3798.00,0.0133
3797.00,0.0134
3796.00,0.0134
3795.00,0.0133
3794.00,0.0133
3793.00,0.0133
3792.00,0.0133
3791.00,0.0133
3790.00,0.0132
3789.00,0.0132
3788.00,0.0132
3787.00,0.0132
3786.00,0.0132
3785.00,0.0132
3784.00,0.0132
3783.00,0.0132
3782.00,0.0132
3781.00,0.0132
3780.00,0.0132
3779.00,0.0132
3778.00,0.0132
3777.00,0.0132
3776.00,0.0132
3775.00,0.0132
3774.00,0.0131
3773.00,0.0131
3772.00,0.0131
3771.00,0.0131
3770.00,0.0131
3769.00,0.0131
3768.00,0.0131
3767.00,0.0131
3766.00,0.0131
3765.00,0.0131
3764.00,0.0131
3763.00,0.0131
3762.00,0.0131
3761.00,0.0131
3760.00,0.0131
3759.00,0.0131
3758.00,0.0131
3757.00,0.0131
3756.00,0.0131
3755.00,0.0130
3754.00,0.0130
3753.00,0.0130
3752.00,0.0130
3751.00,0.0130
3750.00,0.0131
3749.00,0.0131
3748.00,0.0131
3747.00,0.0131
3746.00,0.0131
3745.00,0.0132
3744.00,0.0131
3743.00,0.0131
3742.00,0.0131
3741.00,0.0131
3740.00,0.0131
3739.00,0.0131
3738.00,0.0131
3737.00,0.0131
3736.00,0.0131
3735.00,0.0131
3734.00,0.0131
3733.00,0.0131
3732.00,0.0131
3731.00,0.0130
3730.00,0.0130
3729.00,0.0130
3728.00,0.0129
3727.00,0.0129
3726.00,0.0129
3725.00,0.0129
3724.00,0.0129
3723.00,0.0129
3722.00,0.0129
3721.00,0.0128
3720.00,0.0128
3719.00,0.0128
3718.00,0.0128
3717.00,0.0127
3716.00,0.0127
3715.00,0.0127
3714.00,0.0127
3713.00,0.0127
3712.00,0.0127
3711.00,0.0127
3710.00,0.0127
3709.00,0.0127
3708.00,0.0127
3707.00,0.0126
3706.00,0.0126
3705.00,0.0126
3704.00,0.0125
3703.00,0.0125
3702.00,0.0125
3701.00,0.0124
3700.00,0.0124
3699.00,0.0124
3698.00,0.0124
3697.00,0.0124
3696.00,0.0123
3695.00,0.0123
3694.00,0.0123
3693.00,0.0123
3692.00,0.0122
3691.00,0.0122
3690.00,0.0122
3689.00,0.0122
3688.00,0.0122
3687.00,0.0121
3686.00,0.0121
3685.00,0.0121
3684.00,0.0120
3683.00,0.0120
3682.00,0.0119
3681.00,0.0119
3680.00,0.0118
3679.00,0.0118
3678.00,0.0117
3677.00,0.0117
3676.00,0.0117
3675.00,0.0116
3674.00,0.0115
3673.00,0.0115
3672.00,0.0115
3671.00,0.0115
3670.00,0.0114
3669.00,0.0113
3668.00,0.0112
3667.00,0.0111
3666.00,0.0110
3665.00,0.0110
3664.00,0.0109
3663.00,0.0108
3662.00,0.0108
3661.00,0.0107
3660.00,0.0106
3659.00,0.0106
3658.00,0.0105
3657.00,0.0105
3656.00,0.0104
3655.00,0.0104
3654.00,0.0103
3653.00,0.0103
3652.00,0.0103
3651.00,0.0103
3650.00,0.0102
3649.00,0.0102
3648.00,0.0101
3647.00,0.0101
3646.00,0.0100
3645.00,0.0099
3644.00,0.0098
3643.00,0.0098
3642.00,0.0097
3641.00,0.0096
3640.00,0.0096
3639.00,0.0096
3638.00,0.0095
3637.00,0.0095
3636.00,0.0095
3635.00,0.0095
3634.00,0.0094
3633.00,0.0094
3632.00,0.0094
3631.00,0.0094
3630.00,0.0094
3629.00,0.0093
3628.00,0.0093
3627.00,0.0092
3626.00,0.0092
3625.00,0.0092
3624.00,0.0092
3623.00,0.0091
3622.00,0.0091
3621.00,0.0091
3620.00,0.0090
3619.00,0.0090
3618.00,0.0089
3617.00,0.0089
3616.00,0.0089
3615.00,0.0088
3614.00,0.0088
3613.00,0.0088
3612.00,0.0087
3611.00,0.0087
3610.00,0.0086
3609.00,0.0086
3608.00,0.0085
3607.00,0.0084
3606.00,0.0084
3605.00,0.0083
3604.00,0.0083
3603.00,0.0082
3602.00,0.0082
3601.00,0.0081
3600.00,0.0081
3599.00,0.0081
3598.00,0.0080
3597.00,0.0080
3596.00,0.0079
3595.00,0.0079
3594.00,0.0079
3593.00,0.0078
3592.00,0.0078
3591.00,0.0077
3590.00,0.0077
3589.00,0.0076
3588.00,0.0076
3587.00,0.0075
3586.00,0.0075
3585.00,0.0074
3584.00,0.0074
3583.00,0.0073
3582.00,0.0072
3581.00,0.0072
3580.00,0.0071
3579.00,0.0070
3578.00,0.0070
3577.00,0.0069
3576.00,0.0068
3575.00,0.0068
3574.00,0.0067
3573.00,0.0067
3572.00,0.0067
3571.00,0.0067
3570.00,0.0067
3569.00,0.0067
3568.00,0.0066
3567.00,0.0065
3566.00,0.0065
3565.00,0.0064
3564.00,0.0064
3563.00,0.0063
3562.00,0.0063
3561.00,0.0062
3560.00,0.0062
3559.00,0.0061
3558.00,0.0061
3557.00,0.0061
3556.00,0.0060
3555.00,0.0060
3554.00,0.0060
3553.00,0.0059
3552.00,0.0059
3551.00,0.0059
3550.00,0.0059
3549.00,0.0059
3548.00,0.0059
3547.00,0.0059
3546.00,0.0058
3545.00,0.0058
3544.00,0.0057
3543.00,0.0057
3542.00,0.0056
3541.00,0.0056
3540.00,0.0055
3539.00,0.0055
3538.00,0.0054
3537.00,0.0054
3536.00,0.0053
3535.00,0.0053
3534.00,0.0053
3533.00,0.0052
3532.00,0.0052
3531.00,0.0052
3530.00,0.0051
3529.00,0.0051
3528.00,0.0051
3527.00,0.0051
3526.00,0.0051
3525.00,0.0051
3524.00,0.0050
3523.00,0.0050
3522.00,0.0049
3521.00,0.0049
3520.00,0.0048
3519.00,0.0048
3518.00,0.0047
3517.00,0.0047
3516.00,0.0047
3515.00,0.0046
3514.00,0.0046
3513.00,0.0046
3512.00,0.0045
3511.00,0.0045
3510.00,0.0044
3509.00,0.0044
3508.00,0.0044
3507.00,0.0043
3506.00,0.0043
3505.00,0.0043
3504.00,0.0042
3503.00,0.0042
3502.00,0.0042
3501.00,0.0042
3500.00,0.0041
3499.00,0.0041
3498.00,0.0041
3497.00,0.0040
3496.00,0.0040
3495.00,0.0039
3494.00,0.0039
3493.00,0.0039
3492.00,0.0039
3491.00,0.0038
3490.00,0.0038
3489.00,0.0038
3488.00,0.0038
3487.00,0.0037
3486.00,0.0037
3485.00,0.0037
3484.00,0.0037
3483.00,0.0036
3482.00,0.0036
3481.00,0.0036
3480.00,0.0036
3479.00,0.0036
3478.00,0.0035
3477.00,0.0035
3476.00,0.0035
3475.00,0.0035
3474.00,0.0034
3473.00,0.0034
3472.00,0.0034
3471.00,0.0034
3470.00,0.0034
3469.00,0.0035
3468.00,0.0035
3467.00,0.0035
3466.00,0.0034
3465.00,0.0034
3464.00,0.0034
3463.00,0.0034
3462.00,0.0034
3461.00,0.0034
3460.00,0.0034
3459.00,0.0034
3458.00,0.0034
3457.00,0.0033
3456.00,0.0033
3455.00,0.0033
3454.00,0.0034
3453.00,0.0034
3452.00,0.0034
3451.00,0.0034
3450.00,0.0034
3449.00,0.0034
3448.00,0.0034
3447.00,0.0034
3446.00,0.0034
3445.00,0.0035
3444.00,0.0035
3443.00,0.0035
3442.00,0.0035
3441.00,0.0035
3440.00,0.0035
3439.00,0.0036
3438.00,0.0036
3437.00,0.0037
3436.00,0.0037
3435.00,0.0037
3434.00,0.0037
3433.00,0.0037
3432.00,0.0037
3431.00,0.0038
3430.00,0.0038
3429.00,0.0038
3428.00,0.0039
3427.00,0.0039
3426.00,0.0039
3425.00,0.0039
3424.00,0.0040
3423.00,0.0040
3422.00,0.0040
3421.00,0.0041
3420.00,0.0041
3419.00,0.0042
3418.00,0.0042
3417.00,0.0043
3416.00,0.0044
3415.00,0.0044
3414.00,0.0045
3413.00,0.0046
3412.00,0.0046
3411.00,0.0047
3410.00,0.0048
3409.00,0.0048
3408.00,0.0049
3407.00,0.0049
3406.00,0.0050
3405.00,0.0050
3404.00,0.0051
3403.00,0.0052
3402.00,0.0053
3401.00,0.0053
3400.00,0.0054
3399.00,0.0055
3398.00,0.0055
3397.00,0.0056
3396.00,0.0057
3395.00,0.0057
3394.00,0.0058
3393.00,0.0059
3392.00,0.0059
3391.00,0.0060
3390.00,0.0061
3389.00,0.0061
3388.00,0.0062
3387.00,0.0063
3386.00,0.0063
3385.00,0.0064
3384.00,0.0065
3383.00,0.0066
3382.00,0.0066
3381.00,0.0067
3380.00,0.0068
3379.00,0.0069
3378.00,0.0070
3377.00,0.0071
3376.00,0.0072
3375.00,0.0073
3374.00,0.0074
3373.00,0.0075
3372.00,0.0076
3371.00,0.0077
3370.00,0.0078
3369.00,0.0079
3368.00,0.0080
3367.00,0.0081
3366.00,0.0082
3365.00,0.0083
3364.00,0.0084
3363.00,0.0086
3362.00,0.0087
3361.00,0.0088
3360.00,0.0090
3359.00,0.0091
3358.00,0.0092
3357.00,0.0094
3356.00,0.0095
3355.00,0.0097
3354.00,0.0098
3353.00,0.0100
3352.00,0.0102
3351.00,0.0103
3350.00,0.0105
3349.00,0.0107
3348.00,0.0109
3347.00,0.0110
3346.00,0.0112
3345.00,0.0114
3344.00,0.0116
3343.00,0.0118
3342.00,0.0120
3341.00,0.0122
3340.00,0.0124
3339.00,0.0126
3338.00,0.0129
3337.00,0.0131
3336.00,0.0133
3335.00,0.0136
3334.00,0.0138
3333.00,0.0141
3332.00,0.0143
3331.00,0.0146
3330.00,0.0148
3329.00,0.0151
3328.00,0.0153
3327.00,0.0156
3326.00,0.0159
3325.00,0.0162
3324.00,0.0165
3323.00,0.0168
3322.00,0.0171
3321.00,0.0174
3320.00,0.0177
3319.00,0.0181
3318.00,0.0184
3317.00,0.0187
3316.00,0.0190
3315.00,0.0194
3314.00,0.0197
3313.00,0.0200
3312.00,0.0204
3311.00,0.0207
3310.00,0.0210
3309.00,0.0214
3308.00,0.0217
3307.00,0.0221
3306.00,0.0224
3305.00,0.0228
3304.00,0.0231
3303.00,0.0235
3302.00,0.0239
3301.00,0.0242
3300.00,0.0245
3299.00,0.0249
3298.00,0.0252
3297.00,0.0255
3296.00,0.0258
3295.00,0.0261
3294.00,0.0264
3293.00,0.0266
3292.00,0.0269
3291.00,0.0271
3290.00,0.0273
3289.00,0.0275
3288.00,0.0277
3287.00,0.0279
3286.00,0.0280
3285.00,0.0281
3284.00,0.0282
3283.00,0.0283
3282.00,0.0283
3281.00,0.0283
3280.00,0.0283
3279.00,0.0283
3278.00,0.0283
3277.00,0.0282
3276.00,0.0281
3275.00,0.0280
3274.00,0.0279
3273.00,0.0277
3272.00,0.0276
3271.00,0.0274
3270.00,0.0272
3269.00,0.0271
3268.00,0.0269
3267.00,0.0267
3266.00,0.0265
3265.00,0.0263
3264.00,0.0261
3263.00,0.0259
3262.00,0.0257
3261.00,0.0255
3260.00,0.0253
3259.00,0.0251
3258.00,0.0249
3257.00,0.0247
3256.00,0.0245
3255.00,0.0243
3254.00,0.0242
3253.00,0.0240
3252.00,0.0238
3251.00,0.0237
3250.00,0.0235
3249.00,0.0233
3248.00,0.0231
3247.00,0.0230
3246.00,0.0229
3245.00,0.0228
3244.00,0.0226
3243.00,0.0225
3242.00,0.0224
3241.00,0.0223
3240.00,0.0222
3239.00,0.0220
3238.00,0.0219
3237.00,0.0218
3236.00,0.0216
3235.00,0.0215
3234.00,0.0214
3233.00,0.0213
3232.00,0.0213
3231.00,0.0212
3230.00,0.0211
3229.00,0.0210
3228.00,0.0209
3227.00,0.0208
3226.00,0.0208
3225.00,0.0207
3224.00,0.0206
3223.00,0.0205
3222.00,0.0204
3221.00,0.0204
3220.00,0.0203
3219.00,0.0202
3218.00,0.0201
3217.00,0.0201
3216.00,0.0200
3215.00,0.0199
3214.00,0.0199
3213.00,0.0198
3212.00,0.0198
3211.00,0.0197
3210.00,0.0196
3209.00,0.0196
3208.00,0.0195
3207.00,0.0194
3206.00,0.0194
3205.00,0.0193
3204.00,0.0193
3203.00,0.0192
3202.00,0.0191
3201.00,0.0191
3200.00,0.0190
3199.00,0.0189
3198.00,0.0189
3197.00,0.0188
3196.00,0.0187
3195.00,0.0187
3194.00,0.0186
3193.00,0.0186
3192.00,0.0185
3191.00,0.0185
3190.00,0.0184
3189.00,0.0183
3188.00,0.0183
3187.00,0.0182
3186.00,0.0182
3185.00,0.0181
3184.00,0.0180
3183.00,0.0180
3182.00,0.0179
3181.00,0.0178
3180.00,0.0178
3179.00,0.0177
3178.00,0.0176
3177.00,0.0176
3176.00,0.0175
3175.00,0.0175
3174.00,0.0174
3173.00,0.0173
3172.00,0.0173
3171.00,0.0172
3170.00,0.0172
3169.00,0.0171
3168.00,0.0171
3167.00,0.0170
3166.00,0.0170
3165.00,0.0169
3164.00,0.0169
3163.00,0.0168
3162.00,0.0168
3161.00,0.0167
3160.00,0.0166
3159.00,0.0166
3158.00,0.0165
3157.00,0.0165
3156.00,0.0165
3155.00,0.0164
3154.00,0.0164
3153.00,0.0164
3152.00,0.0163
3151.00,0.0163
3150.00,0.0162
3149.00,0.0162
3148.00,0.0162
3147.00,0.0161
3146.00,0.0161
3145.00,0.0160
3144.00,0.0160
3143.00,0.0160
3142.00,0.0159
3141.00,0.0159
3140.00,0.0159
3139.00,0.0159
3138.00,0.0159
3137.00,0.0158
3136.00,0.0158
3135.00,0.0158
3134.00,0.0158
3133.00,0.0158
3132.00,0.0158
3131.00,0.0157
3130.00,0.0157
3129.00,0.0157
3128.00,0.0157
3127.00,0.0157
3126.00,0.0157
3125.00,0.0157
3124.00,0.0157
3123.00,0.0157
3122.00,0.0157
3121.00,0.0157
3120.00,0.0157
3119.00,0.0157
3118.00,0.0157
3117.00,0.0157
3116.00,0.0157
3115.00,0.0158
3114.00,0.0158
3113.00,0.0158
3112.00,0.0158
3111.00,0.0158
3110.00,0.0159
3109.00,0.0159
3108.00,0.0159
3107.00,0.0159
3106.00,0.0159
3105.00,0.0160
3104.00,0.0160
3103.00,0.0160
3102.00,0.0161
3101.00,0.0161
3100.00,0.0161
3099.00,0.0162
3098.00,0.0162
3097.00,0.0162
3096.00,0.0163
3095.00,0.0163
3094.00,0.0163
3093.00,0.0163
3092.00,0.0163
3091.00,0.0163
3090.00,0.0163
3089.00,0.0163
3088.00,0.0163
3087.00,0.0163
3086.00,0.0163
3085.00,0.0163
3084.00,0.0163
3083.00,0.0162
3082.00,0.0162
3081.00,0.0162
3080.00,0.0162
3079.00,0.0162
3078.00,0.0162
3077.00,0.0163
3076.00,0.0163
3075.00,0.0163
3074.00,0.0163
3073.00,0.0163
3072.00,0.0163
3071.00,0.0163
3070.00,0.0163
3069.00,0.0163
3068.00,0.0163
3067.00,0.0164
3066.00,0.0164
3065.00,0.0164
3064.00,0.0165
3063.00,0.0165
3062.00,0.0164
3061.00,0.0164
3060.00,0.0164
3059.00,0.0163
3058.00,0.0163
3057.00,0.0162
3056.00,0.0161
3055.00,0.0161
3054.00,0.0160
3053.00,0.0159
3052.00,0.0158
3051.00,0.0157
3050.00,0.0156
3049.00,0.0154
3048.00,0.0153
3047.00,0.0151
3046.00,0.0150
3045.00,0.0148
3044.00,0.0147
3043.00,0.0145
3042.00,0.0144
3041.00,0.0142
3040.00,0.0141
3039.00,0.0140
3038.00,0.0139
3037.00,0.0137
3036.00,0.0136
3035.00,0.0134
3034.00,0.0133
3033.00,0.0132
3032.00,0.0131
3031.00,0.0131
3030.00,0.0130
3029.00,0.0129
3028.00,0.0128
3027.00,0.0127
3026.00,0.0126
3025.00,0.0125
3024.00,0.0124
3023.00,0.0123
3022.00,0.0122
3021.00,0.0121
3020.00,0.0119
3019.00,0.0118
3018.00,0.0117
3017.00,0.0115
3016.00,0.0114
3015.00,0.0113
3014.00,0.0111
3013.00,0.0110
3012.00,0.0109
3011.00,0.0108
3010.00,0.0107
3009.00,0.0107
3008.00,0.0105
3007.00,0.0104
3006.00,0.0103
3005.00,0.0101
3004.00,0.0100
3003.00,0.0099
3002.00,0.0098
3001.00,0.0096
3000.00,0.0095
2999.00,0.0093
2998.00,0.0092
2997.00,0.0091
2996.00,0.0089
2995.00,0.0088
2994.00,0.0086
2993.00,0.0084
2992.00,0.0082
2991.00,0.0081
2990.00,0.0079
2989.00,0.0077
2988.00,0.0075
2987.00,0.0073
2986.00,0.0071
2985.00,0.0068
2984.00,0.0065
2983.00,0.0062
2982.00,0.0058
2981.00,0.0055
2980.00,0.0052
2979.00,0.0049
2978.00,0.0046
2977.00,0.0042
2976.00,0.0037
2975.00,0.0032
2974.00,0.0027
2973.00,0.0020
2972.00,0.0014
2971.00,0.0007
2970.00,-0.0000
2969.00,-0.0008
2968.00,-0.0016
2967.00,-0.0024
2966.00,-0.0032
2965.00,-0.0041
2964.00,-0.0050
2963.00,-0.0058
2962.00,-0.0067
2961.00,-0.0074
2960.00,-0.0082
2959.00,-0.0089
2958.00,-0.0095
2957.00,-0.0100
2956.00,-0.0104
2955.00,-0.0107
2954.00,-0.0108
2953.00,-0.0109
2952.00,-0.0109
2951.00,-0.0109
2950.00,-0.0109
2949.00,-0.0110
2948.00,-0.0112
2947.00,-0.0114
2946.00,-0.0118
2945.00,-0.0123
2944.00,-0.0128
2943.00,-0.0135
2942.00,-0.0143
2941.00,-0.0151
2940.00,-0.0161
2939.00,-0.0171
2938.00,-0.0182
2937.00,-0.0194
2936.00,-0.0206
2935.00,-0.0219
2934.00,-0.0232
2933.00,-0.0246
2932.00,-0.0261
2931.00,-0.0276
2930.00,-0.0291
2929.00,-0.0306
2928.00,-0.0322
2927.00,-0.0338
2926.00,-0.0355
2925.00,-0.0373
2924.00,-0.0391
2923.00,-0.0411
2922.00,-0.0431
2921.00,-0.0451
2920.00,-0.0469
2919.00,-0.0483
2918.00,-0.0489
2917.00,-0.0483
2916.00,-0.0462
2915.00,-0.0430
2914.00,-0.0390
2913.00,-0.0349
2912.00,-0.0311
2911.00,-0.0278
2910.00,-0.0252
2909.00,-0.0230
2908.00,-0.0213
2907.00,-0.0198
2906.00,-0.0185
2905.00,-0.0173
2904.00,-0.0163
2903.00,-0.0154
2902.00,-0.0145
2901.00,-0.0137
2900.00,-0.0129
2899.00,-0.0122
2898.00,-0.0114
2897.00,-0.0107
2896.00,-0.0101
2895.00,-0.0094
2894.00,-0.0088
2893.00,-0.0082
2892.00,-0.0076
2891.00,-0.0070
2890.00,-0.0065
2889.00,-0.0060
2888.00,-0.0054
2887.00,-0.0050
2886.00,-0.0045
2885.00,-0.0041
2884.00,-0.0037
2883.00,-0.0033
2882.00,-0.0030
2881.00,-0.0027
2880.00,-0.0025
2879.00,-0.0024
2878.00,-0.0024
2877.00,-0.0024
2876.00,-0.0025
2875.00,-0.0026
2874.00,-0.0028
2873.00,-0.0030
2872.00,-0.0032
2871.00,-0.0033
2870.00,-0.0034
2869.00,-0.0035
2868.00,-0.0037
2867.00,-0.0039
2866.00,-0.0042
2865.00,-0.0047
2864.00,-0.0052
2863.00,-0.0059
2862.00,-0.0067
2861.00,-0.0076
2860.00,-0.0086
2859.00,-0.0097
2858.00,-0.0108
2857.00,-0.0121
2856.00,-0.0135
2855.00,-0.0153
2854.00,-0.0174
2853.00,-0.0199
2852.00,-0.0227
2851.00,-0.0251
2850.00,-0.0265
2849.00,-0.0263
2848.00,-0.0242
2847.00,-0.0207
2846.00,-0.0167
2845.00,-0.0129
2844.00,-0.0097
2843.00,-0.0071
2842.00,-0.0050
2841.00,-0.0033
2840.00,-0.0019
2839.00,-0.0007
2838.00,0.0004
2837.00,0.0014
2836.00,0.0023
2835.00,0.0031
2834.00,0.0039
2833.00,0.0045
2832.00,0.0052
2831.00,0.0058
2830.00,0.0063
2829.00,0.0068
2828.00,0.0072
2827.00,0.0077
2826.00,0.0080
2825.00,0.0084
2824.00,0.0086
2823.00,0.0089
2822.00,0.0091
2821.00,0.0093
2820.00,0.0094
2819.00,0.0096
2818.00,0.0097
2817.00,0.0099
2816.00,0.0100
2815.00,0.0101
2814.00,0.0102
2813.00,0.0103
2812.00,0.0104
2811.00,0.0105
2810.00,0.0105
2809.00,0.0106
2808.00,0.0106
2807.00,0.0107
2806.00,0.0107
2805.00,0.0108
2804.00,0.0108
2803.00,0.0109
2802.00,0.0109
2801.00,0.0109
2800.00,0.0110
2799.00,0.0110
2798.00,0.0111
2797.00,0.0111
2796.00,0.0111
2795.00,0.0112
2794.00,0.0112
2793.00,0.0112
2792.00,0.0113
2791.00,0.0113
2790.00,0.0113
2789.00,0.0114
2788.00,0.0114
2787.00,0.0114
2786.00,0.0114
2785.00,0.0114
2784.00,0.0114
2783.00,0.0114
2782.00,0.0114
2781.00,0.0115
2780.00,0.0115
2779.00,0.0115
2778.00,0.0115
2777.00,0.0115
2776.00,0.0116
2775.00,0.0116
2774.00,0.0116
2773.00,0.0116
2772.00,0.0115
2771.00,0.0115
2770.00,0.0115
2769.00,0.0115
2768.00,0.0115
2767.00,0.0115
2766.00,0.0115
2765.00,0.0115
2764.00,0.0115
2763.00,0.0115
2762.00,0.0115
2761.00,0.0115
2760.00,0.0115
2759.00,0.0115
2758.00,0.0115
2757.00,0.0115
2756.00,0.0114
2755.00,0.0114
2754.00,0.0114
2753.00,0.0114
2752.00,0.0114
2751.00,0.0114
2750.00,0.0114
2749.00,0.0114
2748.00,0.0114
2747.00,0.0114
2746.00,0.0114
2745.00,0.0114
2744.00,0.0113
2743.00,0.0113
2742.00,0.0113
2741.00,0.0113
2740.00,0.0113
2739.00,0.0112
2738.00,0.0112
2737.00,0.0112
2736.00,0.0112
2735.00,0.0112
2734.00,0.0112
2733.00,0.0111
2732.00,0.0111
2731.00,0.0111
2730.00,0.0111
2729.00,0.0111
2728.00,0.0111
2727.00,0.0111
2726.00,0.0111
2725.00,0.0111
2724.00,0.0111
2723.00,0.0111
2722.00,0.0111
2721.00,0.0111
2720.00,0.0111
2719.00,0.0110
2718.00,0.0110
2717.00,0.0110
2716.00,0.0110
2715.00,0.0110
2714.00,0.0110
2713.00,0.0110
2712.00,0.0110
2711.00,0.0110
2710.00,0.0110
2709.00,0.0110
2708.00,0.0110
2707.00,0.0110
2706.00,0.0110
2705.00,0.0110
2704.00,0.0110
2703.00,0.0110
2702.00,0.0110
2701.00,0.0110
2700.00,0.0110
2699.00,0.0110
2698.00,0.0109
2697.00,0.0109
2696.00,0.0109
2695.00,0.0109
2694.00,0.0109
2693.00,0.0109
2692.00,0.0109
2691.00,0.0109
2690.00,0.0109
2689.00,0.0109
2688.00,0.0109
2687.00,0.0108
2686.00,0.0108
2685.00,0.0108
2684.00,0.0108
2683.00,0.0108
2682.00,0.0108
2681.00,0.0108
2680.00,0.0108
2679.00,0.0108
2678.00,0.0108
2677.00,0.0108
2676.00,0.0108
2675.00,0.0107
2674.00,0.0107
2673.00,0.0107
2672.00,0.0107
2671.00,0.0107
2670.00,0.0107
2669.00,0.0107
2668.00,0.0106
2667.00,0.0106
2666.00,0.0106
2665.00,0.0106
2664.00,0.0106
2663.00,0.0106
2662.00,0.0106
2661.00,0.0106
2660.00,0.0106
2659.00,0.0106
2658.00,0.0106
2657.00,0.0106
2656.00,0.0105
2655.00,0.0106
2654.00,0.0106
2653.00,0.0106
2652.00,0.0105
2651.00,0.0105
2650.00,0.0105
2649.00,0.0105
2648.00,0.0105
2647.00,0.0105
2646.00,0.0105
2645.00,0.0105
2644.00,0.0105
2643.00,0.0105
2642.00,0.0105
2641.00,0.0105
2640.00,0.0105
2639.00,0.0105
2638.00,0.0105
2637.00,0.0105
2636.00,0.0105
2635.00,0.0105
2634.00,0.0105
2633.00,0.0105
2632.00,0.0105
2631.00,0.0105
2630.00,0.0105
2629.00,0.0105
2628.00,0.0105
2627.00,0.0105
2626.00,0.0105
2625.00,0.0105
2624.00,0.0105
2623.00,0.0105
2622.00,0.0105
2621.00,0.0105
2620.00,0.0105
2619.00,0.0105
2618.00,0.0104
2617.00,0.0104
2616.00,0.0104
2615.00,0.0105
2614.00,0.0105
2613.00,0.0105
2612.00,0.0105
2611.00,0.0105
2610.00,0.0105
2609.00,0.0105
2608.00,0.0105
2607.00,0.0105
2606.00,0.0105
2605.00,0.0105
2604.00,0.0105
2603.00,0.0105
2602.00,0.0105
2601.00,0.0105
2600.00,0.0104
2599.00,0.0104
2598.00,0.0104
2597.00,0.0104
2596.00,0.0104
2595.00,0.0104
2594.00,0.0104
2593.00,0.0104
2592.00,0.0104
2591.00,0.0104
2590.00,0.0104
2589.00,0.0104
2588.00,0.0104
2587.00,0.0104
2586.00,0.0104
2585.00,0.0104
2584.00,0.0104
2583.00,0.0104
2582.00,0.0104
2581.00,0.0103
2580.00,0.0103
2579.00,0.0103
2578.00,0.0103
2577.00,0.0103
2576.00,0.0103
2575.00,0.0103
2574.00,0.0103
2573.00,0.0103
2572.00,0.0103
2571.00,0.0103
2570.00,0.0103
2569.00,0.0103
2568.00,0.0103
2567.00,0.0103
2566.00,0.0103
2565.00,0.0102
2564.00,0.0102
2563.00,0.0103
2562.00,0.0103
2561.00,0.0103
2560.00,0.0102
2559.00,0.0102
2558.00,0.0102
2557.00,0.0102
2556.00,0.0102
2555.00,0.0102
2554.00,0.0101
2553.00,0.0102
2552.00,0.0102
2551.00,0.0102
2550.00,0.0101
2549.00,0.0101
2548.00,0.0101
2547.00,0.0101
2546.00,0.0101
2545.00,0.0101
2544.00,0.0101
2543.00,0.0101
2542.00,0.0101
2541.00,0.0101
2540.00,0.0101
2539.00,0.0101
2538.00,0.0101
2537.00,0.0101
2536.00,0.0101
2535.00,0.0100
2534.00,0.0100
2533.00,0.0100
2532.00,0.0100
2531.00,0.0100
2530.00,0.0100
2529.00,0.0100
2528.00,0.0100
2527.00,0.0100
2526.00,0.0100
2525.00,0.0100
2524.00,0.0100
2523.00,0.0100
2522.00,0.0100
2521.00,0.0100
2520.00,0.0100
2519.00,0.0100
2518.00,0.0100
2517.00,0.0100
2516.00,0.0100
2515.00,0.0100
2514.00,0.0100
2513.00,0.0100
2512.00,0.0099
2511.00,0.0099
2510.00,0.0099
2509.00,0.0099
2508.00,0.0099
2507.00,0.0099
2506.00,0.0099
2505.00,0.0099
2504.00,0.0099
2503.00,0.0099
2502.00,0.0099
2501.00,0.0099
2500.00,0.0099
2499.00,0.0099
2498.00,0.0099
2497.00,0.0099
2496.00,0.0099
2495.00,0.0099
2494.00,0.0099
2493.00,0.0099
2492.00,0.0099
2491.00,0.0098
2490.00,0.0098
2489.00,0.0098
2488.00,0.0098
2487.00,0.0098
2486.00,0.0098
2485.00,0.0098
2484.00,0.0098
2483.00,0.0098
2482.00,0.0098
2481.00,0.0098
2480.00,0.0098
2479.00,0.0098
2478.00,0.0098
2477.00,0.0098
2476.00,0.0098
2475.00,0.0098
2474.00,0.0098
2473.00,0.0098
2472.00,0.0098
2471.00,0.0098
2470.00,0.0098
2469.00,0.0098
2468.00,0.0098
2467.00,0.0097
2466.00,0.0097
2465.00,0.0097
2464.00,0.0097
2463.00,0.0097
2462.00,0.0097
2461.00,0.0097
2460.00,0.0097
2459.00,0.0097
2458.00,0.0097
2457.00,0.0097
2456.00,0.0097
2455.00,0.0097
2454.00,0.0097
2453.00,0.0097
2452.00,0.0097
2451.00,0.0097
2450.00,0.0097
2449.00,0.0097
2448.00,0.0096
2447.00,0.0096
2446.00,0.0096
2445.00,0.0096
2444.00,0.0096
2443.00,0.0096
2442.00,0.0096
2441.00,0.0096
2440.00,0.0096
2439.00,0.0096
2438.00,0.0096
2437.00,0.0096
2436.00,0.0095
2435.00,0.0095
2434.00,0.0095
2433.00,0.0096
2432.00,0.0096
2431.00,0.0095
2430.00,0.0095
2429.00,0.0095
2428.00,0.0095
2427.00,0.0095
2426.00,0.0094
2425.00,0.0094
2424.00,0.0095
2423.00,0.0095
2422.00,0.0095
2421.00,0.0095
2420.00,0.0094
2419.00,0.0094
2418.00,0.0094
2417.00,0.0094
2416.00,0.0094
2415.00,0.0094
2414.00,0.0094
2413.00,0.0094
2412.00,0.0094
2411.00,0.0093
2410.00,0.0093
2409.00,0.0093
2408.00,0.0093
2407.00,0.0093
2406.00,0.0093
2405.00,0.0093
2404.00,0.0093
2403.00,0.0093
2402.00,0.0093
2401.00,0.0093
2400.00,0.0093
2399.00,0.0092
2398.00,0.0092
2397.00,0.0092
2396.00,0.0092
2395.00,0.0092
2394.00,0.0092
2393.00,0.0092
2392.00,0.0092
2391.00,0.0092
2390.00,0.0092
2389.00,0.0092
2388.00,0.0092
2387.00,0.0092
2386.00,0.0092
2385.00,0.0092
2384.00,0.0092
2383.00,0.0092
2382.00,0.0092
2381.00,0.0092
2380.00,0.0092
2379.00,0.0091
2378.00,0.0091
2377.00,0.0092
2376.00,0.0092
2375.00,0.0092
2374.00,0.0092
2373.00,0.0092
2372.00,0.0092
2371.00,0.0092
2370.00,0.0092
2369.00,0.0092
2368.00,0.0091
2367.00,0.0091
2366.00,0.0091
2365.00,0.0091
2364.00,0.0091
2363.00,0.0091
2362.00,0.0091
2361.00,0.0091
2360.00,0.0091
2359.00,0.0091
2358.00,0.0091
2357.00,0.0091
2356.00,0.0091
2355.00,0.0091
2354.00,0.0091
2353.00,0.0091
2352.00,0.0090
2351.00,0.0090
2350.00,0.0090
2349.00,0.0090
2348.00,0.0090
2347.00,0.0090
2346.00,0.0090
2345.00,0.0090
2344.00,0.0090
2343.00,0.0090
2342.00,0.0090
2341.00,0.0090
2340.00,0.0090
2339.00,0.0090
2338.00,0.0089
2337.00,0.0089
2336.00,0.0089
2335.00,0.0089
2334.00,0.0089
2333.00,0.0089
2332.00,0.0089
2331.00,0.0089
2330.00,0.0089
2329.00,0.0089
2328.00,0.0088
2327.00,0.0088
2326.00,0.0088
2325.00,0.0088
2324.00,0.0088
2323.00,0.0088
2322.00,0.0088
2321.00,0.0088
2320.00,0.0088
2319.00,0.0088
2318.00,0.0088
2317.00,0.0088
2316.00,0.0088
2315.00,0.0088
2314.00,0.0088
2313.00,0.0088
2312.00,0.0088
2311.00,0.0088
2310.00,0.0087
2309.00,0.0087
2308.00,0.0087
2307.00,0.0087
2306.00,0.0088
2305.00,0.0087
2304.00,0.0087
2303.00,0.0087
2302.00,0.0087
2301.00,0.0087
2300.00,0.0087
2299.00,0.0087
2298.00,0.0087
2297.00,0.0087
2296.00,0.0087
2295.00,0.0086
2294.00,0.0086
2293.00,0.0086
2292.00,0.0086
2291.00,0.0086
2290.00,0.0085
2289.00,0.0085
2288.00,0.0084
2287.00,0.0084
2286.00,0.0084
2285.00,0.0084
2284.00,0.0084
2283.00,0.0084
2282.00,0.0084
2281.00,0.0084
2280.00,0.0084
2279.00,0.0084
2278.00,0.0084
2277.00,0.0083
2276.00,0.0083
2275.00,0.0083
2274.00,0.0082
2273.00,0.0082
2272.00,0.0082
2271.00,0.0082
2270.00,0.0082
2269.00,0.0082
2268.00,0.0082
2267.00,0.0081
2266.00,0.0081
2265.00,0.0080
2264.00,0.0080
2263.00,0.0079
2262.00,0.0078
2261.00,0.0077
2260.00,0.0076
2259.00,0.0075
2258.00,0.0074
2257.00,0.0073
2256.00,0.0071
2255.00,0.0069
2254.00,0.0067
2253.00,0.0065
2252.00,0.0062
2251.00,0.0059
2250.00,0.0056
2249.00,0.0052
2248.00,0.0048
2247.00,0.0043
2246.00,0.0037
2245.00,0.0031
2244.00,0.0023
2243.00,0.0016
2242.00,0.0008
2241.00,0.0000
2240.00,-0.0006
2239.00,-0.0010
2238.00,-0.0012
2237.00,-0.0011
2236.00,-0.0005
2235.00,0.0004
2234.00,0.0015
2233.00,0.0026
2232.00,0.0038
2231.00,0.0048
2230.00,0.0056
2229.00,0.0063
2228.00,0.0068
2227.00,0.0072
2226.00,0.0075
2225.00,0.0077
2224.00,0.0078
2223.00,0.0079
2222.00,0.0080
2221.00,0.0080
2220.00,0.0080
2219.00,0.0080
2218.00,0.0081
2217.00,0.0081
2216.00,0.0081
2215.00,0.0082
2214.00,0.0081
2213.00,0.0081
2212.00,0.0081
2211.00,0.0082
2210.00,0.0082
2209.00,0.0082
2208.00,0.0083
2207.00,0.0083
2206.00,0.0083
2205.00,0.0083
2204.00,0.0083
2203.00,0.0083
2202.00,0.0083
2201.00,0.0083
2200.00,0.0083
2199.00,0.0083
2198.00,0.0082
2197.00,0.0082
2196.00,0.0081
2195.00,0.0081
2194.00,0.0081
2193.00,0.0081
2192.00,0.0081
2191.00,0.0081
2190.00,0.0081
2189.00,0.0081
2188.00,0.0080
2187.00,0.0080
2186.00,0.0081
2185.00,0.0081
2184.00,0.0082
2183.00,0.0083
2182.00,0.0083
2181.00,0.0083
2180.00,0.0083
2179.00,0.0083
2178.00,0.0083
2177.00,0.0083
2176.00,0.0084
2175.00,0.0084
2174.00,0.0084
2173.00,0.0083
2172.00,0.0082
2171.00,0.0081
2170.00,0.0081
2169.00,0.0081
2168.00,0.0081
2167.00,0.0081
2166.00,0.0082
2165.00,0.0082
2164.00,0.0083
2163.00,0.0082
2162.00,0.0082
2161.00,0.0082
2160.00,0.0083
2159.00,0.0083
2158.00,0.0083
2157.00,0.0084
2156.00,0.0084
2155.00,0.0084
2154.00,0.0085
2153.00,0.0085
2152.00,0.0084
2151.00,0.0084
2150.00,0.0084
2149.00,0.0084
2148.00,0.0084
2147.00,0.0084
2146.00,0.0084
2145.00,0.0084
2144.00,0.0084
2143.00,0.0084
2142.00,0.0084
2141.00,0.0084
2140.00,0.0084
2139.00,0.0084
2138.00,0.0084
2137.00,0.0084
2136.00,0.0085
2135.00,0.0085
2134.00,0.0085
2133.00,0.0085
2132.00,0.0084
2131.00,0.0084
2130.00,0.0083
2129.00,0.0083
2128.00,0.0083
2127.00,0.0083
2126.00,0.0083
2125.00,0.0083
2124.00,0.0083
2123.00,0.0083
2122.00,0.0082
2121.00,0.0082
2120.00,0.0082
2119.00,0.0082
2118.00,0.0082
2117.00,0.0081
2116.00,0.0081
2115.00,0.0081
2114.00,0.0081
2113.00,0.0081
2112.00,0.0081
2111.00,0.0081
2110.00,0.0081
2109.00,0.0081
2108.00,0.0080
2107.00,0.0080
2106.00,0.0080
2105.00,0.0081
2104.00,0.0081
2103.00,0.0081
2102.00,0.0081
2101.00,0.0082
2100.00,0.0082
2099.00,0.0082
2098.00,0.0082
2097.00,0.0082
2096.00,0.0081
2095.00,0.0081
2094.00,0.0081
2093.00,0.0081
2092.00,0.0081
2091.00,0.0080
2090.00,0.0080
2089.00,0.0080
2088.00,0.0080
2087.00,0.0081
2086.00,0.0081
2085.00,0.0081
2084.00,0.0081
2083.00,0.0081
2082.00,0.0081
2081.00,0.0081
2080.00,0.0081
2079.00,0.0080
2078.00,0.0080
2077.00,0.0079
2076.00,0.0079
2075.00,0.0079
2074.00,0.0079
2073.00,0.0080
2072.00,0.0081
2071.00,0.0080
2070.00,0.0080
2069.00,0.0079
2068.00,0.0079
2067.00,0.0079
2066.00,0.0079
2065.00,0.0079
2064.00,0.0079
2063.00,0.0080
2062.00,0.0080
2061.00,0.0080
2060.00,0.0080
2059.00,0.0080
2058.00,0.0080
2057.00,0.0079
2056.00,0.0079
2055.00,0.0079
2054.00,0.0079
2053.00,0.0079
2052.00,0.0078
2051.00,0.0078
2050.00,0.0078
2049.00,0.0078
2048.00,0.0077
2047.00,0.0077
2046.00,0.0077
2045.00,0.0076
2044.00,0.0076
2043.00,0.0075
2042.00,0.0075
2041.00,0.0075
2040.00,0.0075
2039.00,0.0075
2038.00,0.0076
2037.00,0.0077
2036.00,0.0078
2035.00,0.0078
2034.00,0.0079
2033.00,0.0079
2032.00,0.0078
2031.00,0.0078
2030.00,0.0078
2029.00,0.0078
2028.00,0.0078
2027.00,0.0078
2026.00,0.0078
2025.00,0.0078
2024.00,0.0078
2023.00,0.0079
2022.00,0.0079
2021.00,0.0079
2020.00,0.0079
2019.00,0.0079
2018.00,0.0078
2017.00,0.0078
2016.00,0.0078
2015.00,0.0078
2014.00,0.0078
2013.00,0.0078
2012.00,0.0078
2011.00,0.0077
2010.00,0.0077
2009.00,0.0078
2008.00,0.0078
2007.00,0.0078
2006.00,0.0078
2005.00,0.0077
2004.00,0.0077
2003.00,0.0077
2002.00,0.0076
2001.00,0.0076
2000.00,0.0076
1999.00,0.0076
1998.00,0.0076
1997.00,0.0076
1996.00,0.0076
1995.00,0.0075
1994.00,0.0075
1993.00,0.0075
1992.00,0.0074
1991.00,0.0074
1990.00,0.0074
1989.00,0.0074
1988.00,0.0075
1987.00,0.0076
1986.00,0.0076
1985.00,0.0076
1984.00,0.0076
1983.00,0.0076
1982.00,0.0075
1981.00,0.0075
1980.00,0.0075
1979.00,0.0076
1978.00,0.0077
1977.00,0.0077
1976.00,0.0077
1975.00,0.0078
1974.00,0.0078
1973.00,0.0079
1972.00,0.0079
1971.00,0.0080
1970.00,0.0080
1969.00,0.0080
1968.00,0.0080
1967.00,0.0080
1966.00,0.0080
1965.00,0.0080
1964.00,0.0080
1963.00,0.0081
1962.00,0.0081
1961.00,0.0081
1960.00,0.0081
1959.00,0.0081
1958.00,0.0081
1957.00,0.0081
1956.00,0.0081
1955.00,0.0081
1954.00,0.0081
1953.00,0.0081
1952.00,0.0082
1951.00,0.0082
1950.00,0.0082
1949.00,0.0083
1948.00,0.0083
1947.00,0.0083
1946.00,0.0082
1945.00,0.0082
1944.00,0.0082
1943.00,0.0082
1942.00,0.0083
1941.00,0.0083
1940.00,0.0083
1939.00,0.0082
1938.00,0.0082
1937.00,0.0082
1936.00,0.0081
1935.00,0.0081
1934.00,0.0081
1933.00,0.0080
1932.00,0.0080
1931.00,0.0080
1930.00,0.0080
1929.00,0.0080
1928.00,0.0079
1927.00,0.0078
1926.00,0.0077
1925.00,0.0076
1924.00,0.0076
1923.00,0.0075
1922.00,0.0074
1921.00,0.0073
1920.00,0.0073
1919.00,0.0073
1918.00,0.0073
1917.00,0.0073
1916.00,0.0073
1915.00,0.0072
1914.00,0.0072
1913.00,0.0071
1912.00,0.0071
1911.00,0.0071
1910.00,0.0070
1909.00,0.0070
1908.00,0.0070
1907.00,0.0070
1906.00,0.0070
1905.00,0.0070
1904.00,0.0070
1903.00,0.0070
1902.00,0.0070
1901.00,0.0070
1900.00,0.0070
1899.00,0.0069
1898.00,0.0069
1897.00,0.0069
1896.00,0.0069
1895.00,0.0068
1894.00,0.0068
1893.00,0.0068
1892.00,0.0067
1891.00,0.0067
1890.00,0.0067
1889.00,0.0067
1888.00,0.0067
1887.00,0.0067
1886.00,0.0067
1885.00,0.0067
1884.00,0.0067
1883.00,0.0067
1882.00,0.0067
1881.00,0.0066
1880.00,0.0066
1879.00,0.0066
1878.00,0.0066
1877.00,0.0066
1876.00,0.0066
1875.00,0.0066
1874.00,0.0065
1873.00,0.0064
1872.00,0.0063
1871.00,0.0063
1870.00,0.0063
1869.00,0.0063
1868.00,0.0063
1867.00,0.0064
1866.00,0.0064
1865.00,0.0064
1864.00,0.0063
1863.00,0.0063
1862.00,0.0063
1861.00,0.0063
1860.00,0.0063
1859.00,0.0063
1858.00,0.0063
1857.00,0.0062
1856.00,0.0062
1855.00,0.0062
1854.00,0.0062
1853.00,0.0062
1852.00,0.0061
1851.00,0.0061
1850.00,0.0061
1849.00,0.0060
1848.00,0.0059
1847.00,0.0057
1846.00,0.0057
1845.00,0.0058
1844.00,0.0059
1843.00,0.0059
1842.00,0.0059
1841.00,0.0058
1840.00,0.0058
1839.00,0.0058
1838.00,0.0058
1837.00,0.0058
1836.00,0.0058
1835.00,0.0058
1834.00,0.0057
1833.00,0.0056
1832.00,0.0055
1831.00,0.0056
1830.00,0.0056
1829.00,0.0056
1828.00,0.0055
1827.00,0.0054
1826.00,0.0054
1825.00,0.0054
1824.00,0.0055
1823.00,0.0055
1822.00,0.0055
1821.00,0.0055
1820.00,0.0054
1819.00,0.0054
1818.00,0.0054
1817.00,0.0054
1816.00,0.0053
1815.00,0.0053
1814.00,0.0052
1813.00,0.0051
1812.00,0.0051
1811.00,0.0050
1810.00,0.0050
1809.00,0.0050
1808.00,0.0049
1807.00,0.0049
1806.00,0.0048
1805.00,0.0047
1804.00,0.0045
1803.00,0.0044
1802.00,0.0043
1801.00,0.0043
1800.00,0.0042
1799.00,0.0041
1798.00,0.0040
1797.00,0.0038
1796.00,0.0035
1795.00,0.0032
1794.00,0.0030
1793.00,0.0029
1792.00,0.0027
1791.00,0.0024
1790.00,0.0021
1789.00,0.0017
1788.00,0.0014
1787.00,0.0010
1786.00,0.0006
1785.00,0.0002
1784.00,-0.0002
1783.00,-0.0006
1782.00,-0.0010
1781.00,-0.0014
1780.00,-0.0018
1779.00,-0.0022
1778.00,-0.0026
1777.00,-0.0030
1776.00,-0.0034
1775.00,-0.0038
1774.00,-0.0041
1773.00,-0.0042
1772.00,-0.0044
1771.00,-0.0046
1770.00,-0.0048
1769.00,-0.0048
1768.00,-0.0048
1767.00,-0.0048
1766.00,-0.0048
1765.00,-0.0048
1764.00,-0.0048
1763.00,-0.0047
1762.00,-0.0045
1761.00,-0.0044
1760.00,-0.0043
1759.00,-0.0043
1758.00,-0.0042
1757.00,-0.0040
1756.00,-0.0039
1755.00,-0.0039
1754.00,-0.0040
1753.00,-0.0040
1752.00,-0.0040
1751.00,-0.0040
1750.00,-0.0040
1749.00,-0.0039
1748.00,-0.0039
1747.00,-0.0039
1746.00,-0.0040
1745.00,-0.0042
1744.00,-0.0043
1743.00,-0.0044
1742.00,-0.0045
1741.00,-0.0045
1740.00,-0.0045
1739.00,-0.0046
1738.00,-0.0049
1737.00,-0.0053
1736.00,-0.0054
1735.00,-0.0054
1734.00,-0.0054
1733.00,-0.0054
1732.00,-0.0055
1731.00,-0.0055
1730.00,-0.0055
1729.00,-0.0054
1728.00,-0.0053
1727.00,-0.0053
1726.00,-0.0053
1725.00,-0.0052
1724.00,-0.0050
1723.00,-0.0049
1722.00,-0.0048
1721.00,-0.0048
1720.00,-0.0047
1719.00,-0.0044
1718.00,-0.0040
1717.00,-0.0035
1716.00,-0.0030
1715.00,-0.0025
1714.00,-0.0019
1713.00,-0.0014
1712.00,-0.0008
1711.00,-0.0002
1710.00,0.0004
1709.00,0.0012
1708.00,0.0021
1707.00,0.0034
1706.00,0.0050
1705.00,0.0067
1704.00,0.0082
1703.00,0.0094
1702.00,0.0109
1701.00,0.0131
1700.00,0.0154
1699.00,0.0167
1698.00,0.0171
1697.00,0.0173
1696.00,0.0178
1695.00,0.0182
1694.00,0.0184
1693.00,0.0185
1692.00,0.0186
1691.00,0.0188
1690.00,0.0191
1689.00,0.0194
1688.00,0.0195
1687.00,0.0196
1686.00,0.0199
1685.00,0.0208
1684.00,0.0221
1683.00,0.0231
1682.00,0.0236
1681.00,0.0239
1680.00,0.0244
1679.00,0.0247
1678.00,0.0251
1677.00,0.0255
1676.00,0.0262
1675.00,0.0271
1674.00,0.0277
1673.00,0.0280
1672.00,0.0283
1671.00,0.0290
1670.00,0.0300
1669.00,0.0312
1668.00,0.0322
1667.00,0.0329
1666.00,0.0335
1665.00,0.0342
1664.00,0.0353
1663.00,0.0367
1662.00,0.0382
1661.00,0.0395
1660.00,0.0405
1659.00,0.0414
1658.00,0.0421
1657.00,0.0425
1656.00,0.0427
1655.00,0.0432
1654.00,0.0450
1653.00,0.0478
1652.00,0.0497
1651.00,0.0501
1650.00,0.0500
1649.00,0.0501
1648.00,0.0507
1647.00,0.0519
1646.00,0.0531
1645.00,0.0539
1644.00,0.0542
1643.00,0.0545
1642.00,0.0549
1641.00,0.0554
1640.00,0.0560
1639.00,0.0566
1638.00,0.0573
1637.00,0.0587
1636.00,0.0610
1635.00,0.0635
1634.00,0.0651
1633.00,0.0659
1632.00,0.0664
1631.00,0.0670
1630.00,0.0676
1629.00,0.0683
1628.00,0.0690
1627.00,0.0695
1626.00,0.0695
1625.00,0.0692
1624.00,0.0688
1623.00,0.0681
1622.00,0.0670
1621.00,0.0653
1620.00,0.0632
1619.00,0.0610
1618.00,0.0586
1617.00,0.0559
1616.00,0.0530
1615.00,0.0501
1614.00,0.0474
1613.00,0.0447
1612.00,0.0418
1611.00,0.0390
1610.00,0.0362
1609.00,0.0335
1608.00,0.0310
1607.00,0.0287
1606.00,0.0267
1605.00,0.0249
1604.00,0.0233
1603.00,0.0220
1602.00,0.0210
1601.00,0.0202
1600.00,0.0196
1599.00,0.0191
1598.00,0.0187
1597.00,0.0185
1596.00,0.0182
1595.00,0.0179
1594.00,0.0177
1593.00,0.0175
1592.00,0.0172
1591.00,0.0169
1590.00,0.0167
1589.00,0.0166
1588.00,0.0165
1587.00,0.0164
1586.00,0.0164
1585.00,0.0165
1584.00,0.0167
1583.00,0.0169
1582.00,0.0173
1581.00,0.0176
1580.00,0.0177
1579.00,0.0178
1578.00,0.0181
1577.00,0.0188
1576.00,0.0195
1575.00,0.0202
1574.00,0.0205
1573.00,0.0207
1572.00,0.0209
1571.00,0.0213
1570.00,0.0222
1569.00,0.0232
1568.00,0.0239
1567.00,0.0245
1566.00,0.0252
1565.00,0.0260
1564.00,0.0267
1563.00,0.0271
1562.00,0.0272
1561.00,0.0276
1560.00,0.0289
1559.00,0.0314
1558.00,0.0337
1557.00,0.0347
1556.00,0.0352
1555.00,0.0360
1554.00,0.0371
1553.00,0.0382
1552.00,0.0391
1551.00,0.0401
1550.00,0.0414
1549.00,0.0427
1548.00,0.0438
1547.00,0.0446
1546.00,0.0456
1545.00,0.0468
1544.00,0.0479
1543.00,0.0490
1542.00,0.0503
1541.00,0.0520
1540.00,0.0542
1539.00,0.0560
1538.00,0.0570
1537.00,0.0572
1536.00,0.0573
1535.00,0.0577
1534.00,0.0588
1533.00,0.0601
1532.00,0.0612
1531.00,0.0618
1530.00,0.0624
1529.00,0.0630
1528.00,0.0638
1527.00,0.0647
1526.00,0.0658
1525.00,0.0668
1524.00,0.0674
1523.00,0.0681
1522.00,0.0696
1521.00,0.0715
1520.00,0.0729
1519.00,0.0738
1518.00,0.0747
1517.00,0.0759
1516.00,0.0768
1515.00,0.0772
1514.00,0.0770
1513.00,0.0764
1512.00,0.0755
1511.00,0.0743
1510.00,0.0729
1509.00,0.0715
1508.00,0.0701
1507.00,0.0691
1506.00,0.0682
1505.00,0.0669
1504.00,0.0653
1503.00,0.0636
1502.00,0.0618
1501.00,0.0599
1500.00,0.0579
1499.00,0.0560
1498.00,0.0540
1497.00,0.0521
1496.00,0.0501
1495.00,0.0482
1494.00,0.0465
1493.00,0.0447
1492.00,0.0429
1491.00,0.0410
1490.00,0.0392
1489.00,0.0375
1488.00,0.0359
1487.00,0.0344
1486.00,0.0330
1485.00,0.0316
1484.00,0.0303
1483.00,0.0290
1482.00,0.0279
1481.00,0.0267
1480.00,0.0256
1479.00,0.0244
1478.00,0.0231
1477.00,0.0215
1476.00,0.0195
1475.00,0.0174
1474.00,0.0154
1473.00,0.0138
1472.00,0.0128
1471.00,0.0121
1470.00,0.0112
1469.00,0.0101
1468.00,0.0086
1467.00,0.0071
1466.00,0.0054
1465.00,0.0035
1464.00,0.0018
1463.00,0.0007
1462.00,0.0000
1461.00,-0.0004
1460.00,-0.0010
1459.00,-0.0018
1458.00,-0.0032
1457.00,-0.0051
1456.00,-0.0069
1455.00,-0.0082
1454.00,-0.0090
1453.00,-0.0096
1452.00,-0.0100
1451.00,-0.0101
1450.00,-0.0102
1449.00,-0.0102
1448.00,-0.0102
1447.00,-0.0101
1446.00,-0.0102
1445.00,-0.0105
1444.00,-0.0108
1443.00,-0.0111
1442.00,-0.0116
1441.00,-0.0122
1440.00,-0.0128
1439.00,-0.0134
1438.00,-0.0139
1437.00,-0.0143
1436.00,-0.0145
1435.00,-0.0144
1434.00,-0.0141
1433.00,-0.0136
1432.00,-0.0127
1431.00,-0.0114
1430.00,-0.0098
1429.00,-0.0082
1428.00,-0.0066
1427.00,-0.0054
1426.00,-0.0043
1425.00,-0.0034
1424.00,-0.0028
1423.00,-0.0024
1422.00,-0.0023
1421.00,-0.0023
1420.00,-0.0021
1419.00,-0.0018
1418.00,-0.0014
1417.00,-0.0011
1416.00,-0.0009
1415.00,-0.0008
1414.00,-0.0007
1413.00,-0.0008
1412.00,-0.0009
1411.00,-0.0010
1410.00,-0.0011
1409.00,-0.0013
1408.00,-0.0014
1407.00,-0.0014
1406.00,-0.0015
1405.00,-0.0014
1404.00,-0.0012
1403.00,-0.0011
1402.00,-0.0010
1401.00,-0.0009
1400.00,-0.0006
1399.00,-0.0003
1398.00,-0.0000
1397.00,0.0002
1396.00,0.0005
1395.00,0.0010
1394.00,0.0015
1393.00,0.0018
1392.00,0.0021
1391.00,0.0021
1390.00,0.0021
1389.00,0.0020
1388.00,0.0019
1387.00,0.0018
1386.00,0.0016
1385.00,0.0013
1384.00,0.0008
1383.00,0.0002
1382.00,-0.0004
1381.00,-0.0012
1380.00,-0.0019
1379.00,-0.0026
1378.00,-0.0032
1377.00,-0.0037
1376.00,-0.0041
1375.00,-0.0044
1374.00,-0.0045
1373.00,-0.0047
1372.00,-0.0048
1371.00,-0.0050
1370.00,-0.0053
1369.00,-0.0056
1368.00,-0.0059
1367.00,-0.0064
1366.00,-0.0069
1365.00,-0.0075
1364.00,-0.0081
1363.00,-0.0086
1362.00,-0.0089
1361.00,-0.0092
1360.00,-0.0094
1359.00,-0.0096
1358.00,-0.0097
1357.00,-0.0099
1356.00,-0.0100
1355.00,-0.0100
1354.00,-0.0101
1353.00,-0.0101
1352.00,-0.0101
1351.00,-0.0100
1350.00,-0.0099
1349.00,-0.0098
1348.00,-0.0096
1347.00,-0.0094
1346.00,-0.0091
1345.00,-0.0088
1344.00,-0.0085
1343.00,-0.0081
1342.00,-0.0078
1341.00,-0.0074
1340.00,-0.0070
1339.00,-0.0065
1338.00,-0.0060
1337.00,-0.0056
1336.00,-0.0053
1335.00,-0.0049
1334.00,-0.0047
1333.00,-0.0045
1332.00,-0.0044
1331.00,-0.0043
1330.00,-0.0042
1329.00,-0.0042
1328.00,-0.0043
1327.00,-0.0043
1326.00,-0.0043
1325.00,-0.0044
1324.00,-0.0044
1323.00,-0.0044
1322.00,-0.0045
1321.00,-0.0045
1320.00,-0.0045
1319.00,-0.0045
1318.00,-0.0044
1317.00,-0.0044
1316.00,-0.0043
1315.00,-0.0043
1314.00,-0.0042
1313.00,-0.0041
1312.00,-0.0040
1311.00,-0.0038
1310.00,-0.0037
1309.00,-0.0036
1308.00,-0.0035
1307.00,-0.0033
1306.00,-0.0032
1305.00,-0.0030
1304.00,-0.0028
1303.00,-0.0026
1302.00,-0.0024
1301.00,-0.0022
1300.00,-0.0021
1299.00,-0.0019
1298.00,-0.0016
1297.00,-0.0014
1296.00,-0.0012
1295.00,-0.0010
1294.00,-0.0007
1293.00,-0.0004
1292.00,-0.0002
1291.00,0.0001
1290.00,0.0004
1289.00,0.0007
1288.00,0.0010
1287.00,0.0013
1286.00,0.0016
1285.00,0.0019
1284.00,0.0022
1283.00,0.0024
1282.00,0.0027
1281.00,0.0030
1280.00,0.0032
1279.00,0.0035
1278.00,0.0038
1277.00,0.0041
1276.00,0.0044
1275.00,0.0048
1274.00,0.0051
1273.00,0.0055
1272.00,0.0058
1271.00,0.0062
1270.00,0.0065
1269.00,0.0068
1268.00,0.0070
1267.00,0.0072
1266.00,0.0074
1265.00,0.0075
1264.00,0.0076
1263.00,0.0076
1262.00,0.0076
1261.00,0.0075
1260.00,0.0075
1259.00,0.0074
1258.00,0.0073
1257.00,0.0073
1256.00,0.0072
1255.00,0.0071
1254.00,0.0070
1253.00,0.0070
1252.00,0.0069
1251.00,0.0069
1250.00,0.0070
1249.00,0.0071
1248.00,0.0072
1247.00,0.0073
1246.00,0.0075
1245.00,0.0077
1244.00,0.0079
1243.00,0.0081
1242.00,0.0083
1241.00,0.0086
1240.00,0.0089
1239.00,0.0092
1238.00,0.0095
1237.00,0.0098
1236.00,0.0101
1235.00,0.0104
1234.00,0.0106
1233.00,0.0108
1232.00,0.0108
1231.00,0.0107
1230.00,0.0105
1229.00,0.0102
1228.00,0.0098
1227.00,0.0093
1226.00,0.0086
1225.00,0.0079
1224.00,0.0072
1223.00,0.0064
1222.00,0.0056
1221.00,0.0048
1220.00,0.0040
1219.00,0.0032
1218.00,0.0024
1217.00,0.0015
1216.00,0.0007
1215.00,-0.0002
1214.00,-0.0010
1213.00,-0.0019
1212.00,-0.0028
1211.00,-0.0038
1210.00,-0.0047
1209.00,-0.0056
1208.00,-0.0066
1207.00,-0.0076
1206.00,-0.0085
1205.00,-0.0094
1204.00,-0.0103
1203.00,-0.0112
1202.00,-0.0121
1201.00,-0.0129
1200.00,-0.0137
1199.00,-0.0144
1198.00,-0.0151
1197.00,-0.0157
1196.00,-0.0163
1195.00,-0.0168
1194.00,-0.0173
1193.00,-0.0176
1192.00,-0.0179
1191.00,-0.0181
1190.00,-0.0182
1189.00,-0.0183
1188.00,-0.0183
1187.00,-0.0184
1186.00,-0.0184
1185.00,-0.0184
1184.00,-0.0184
1183.00,-0.0183
1182.00,-0.0182
1181.00,-0.0180
1180.00,-0.0178
1179.00,-0.0174
1178.00,-0.0169
1177.00,-0.0162
1176.00,-0.0154
1175.00,-0.0145
1174.00,-0.0134
1173.00,-0.0124
1172.00,-0.0113
1171.00,-0.0102
1170.00,-0.0093
1169.00,-0.0083
1168.00,-0.0075
1167.00,-0.0067
1166.00,-0.0059
1165.00,-0.0052
1164.00,-0.0045
1163.00,-0.0038
1162.00,-0.0033
1161.00,-0.0028
1160.00,-0.0023
1159.00,-0.0020
1158.00,-0.0017
1157.00,-0.0015
1156.00,-0.0013
1155.00,-0.0011
1154.00,-0.0010
1153.00,-0.0009
1152.00,-0.0009
1151.00,-0.0010
1150.00,-0.0011
1149.00,-0.0012
1148.00,-0.0015
1147.00,-0.0018
1146.00,-0.0021
1145.00,-0.0026
1144.00,-0.0032
1143.00,-0.0039
1142.00,-0.0046
1141.00,-0.0055
1140.00,-0.0064
1139.00,-0.0074
1138.00,-0.0084
1137.00,-0.0094
1136.00,-0.0103
1135.00,-0.0112
1134.00,-0.0120
1133.00,-0.0126
1132.00,-0.0132
1131.00,-0.0135
1130.00,-0.0137
1129.00,-0.0138
1128.00,-0.0137
1127.00,-0.0136
1126.00,-0.0133
1125.00,-0.0131
1124.00,-0.0129
1123.00,-0.0128
1122.00,-0.0127
1121.00,-0.0126
1120.00,-0.0126
1119.00,-0.0125
1118.00,-0.0125
1117.00,-0.0126
1116.00,-0.0127
1115.00,-0.0128
1114.00,-0.0129
1113.00,-0.0130
1112.00,-0.0131
1111.00,-0.0132
1110.00,-0.0133
1109.00,-0.0133
1108.00,-0.0134
1107.00,-0.0135
1106.00,-0.0135
1105.00,-0.0135
1104.00,-0.0136
1103.00,-0.0138
1102.00,-0.0139
1101.00,-0.0142
1100.00,-0.0145
1099.00,-0.0148
1098.00,-0.0151
1097.00,-0.0154
1096.00,-0.0157
1095.00,-0.0160
1094.00,-0.0161
1093.00,-0.0163
1092.00,-0.0164
1091.00,-0.0164
1090.00,-0.0164
1089.00,-0.0163
1088.00,-0.0163
1087.00,-0.0162
1086.00,-0.0160
1085.00,-0.0159
1084.00,-0.0157
1083.00,-0.0155
1082.00,-0.0152
1081.00,-0.0149
1080.00,-0.0147
1079.00,-0.0144
1078.00,-0.0140
1077.00,-0.0137
1076.00,-0.0134
1075.00,-0.0131
1074.00,-0.0128
1073.00,-0.0126
1072.00,-0.0124
1071.00,-0.0122
1070.00,-0.0119
1069.00,-0.0118
1068.00,-0.0116
1067.00,-0.0116
1066.00,-0.0115
1065.00,-0.0115
1064.00,-0.0116
1063.00,-0.0117
1062.00,-0.0119
1061.00,-0.0121
1060.00,-0.0125
1059.00,-0.0128
1058.00,-0.0132
1057.00,-0.0136
1056.00,-0.0140
1055.00,-0.0145
1054.00,-0.0149
1053.00,-0.0153
1052.00,-0.0158
1051.00,-0.0162
1050.00,-0.0166
1049.00,-0.0169
1048.00,-0.0173
1047.00,-0.0175
1046.00,-0.0176
1045.00,-0.0177
1044.00,-0.0176
1043.00,-0.0175
1042.00,-0.0173
1041.00,-0.0171
1040.00,-0.0169
1039.00,-0.0166
1038.00,-0.0162
1037.00,-0.0158
1036.00,-0.0154
1035.00,-0.0149
1034.00,-0.0143
1033.00,-0.0138
1032.00,-0.0133
1031.00,-0.0128
1030.00,-0.0123
1029.00,-0.0119
1028.00,-0.0116
1027.00,-0.0113
1026.00,-0.0110
1025.00,-0.0107
1024.00,-0.0105
1023.00,-0.0103
1022.00,-0.0100
1021.00,-0.0098
1020.00,-0.0098
1019.00,-0.0099
1018.00,-0.0102
1017.00,-0.0107
1016.00,-0.0116
1015.00,-0.0126
1014.00,-0.0135
1013.00,-0.0143
1012.00,-0.0149
1011.00,-0.0152
1010.00,-0.0151
1009.00,-0.0149
1008.00,-0.0147
1007.00,-0.0144
1006.00,-0.0142
1005.00,-0.0141
1004.00,-0.0141
1003.00,-0.0143
1002.00,-0.0146
1001.00,-0.0151
1000.00,-0.0156
999.00,-0.0163
998.00,-0.0169
997.00,-0.0176
996.00,-0.0184
995.00,-0.0191
994.00,-0.0198
993.00,-0.0205
992.00,-0.0214
991.00,-0.0223
990.00,-0.0234
989.00,-0.0248
988.00,-0.0264
987.00,-0.0285
986.00,-0.0309
985.00,-0.0337
984.00,-0.0369
983.00,-0.0406
982.00,-0.0448
981.00,-0.0495
980.00,-0.0547
979.00,-0.0604
978.00,-0.0665
977.00,-0.0731
976.00,-0.0800
975.00,-0.0872
974.00,-0.0945
973.00,-0.1017
972.00,-0.1087
971.00,-0.1152
970.00,-0.1208
969.00,-0.1252
968.00,-0.1281
967.00,-0.1292
966.00,-0.1279
965.00,-0.1245
964.00,-0.1188
963.00,-0.1111
962.00,-0.1019
961.00,-0.0918
960.00,-0.0816
959.00,-0.0718
958.00,-0.0627
957.00,-0.0547
956.00,-0.0478
955.00,-0.0420
954.00,-0.0372
953.00,-0.0333
952.00,-0.0301
951.00,-0.0274
950.00,-0.0252
949.00,-0.0234
948.00,-0.0219
947.00,-0.0206
946.00,-0.0195
945.00,-0.0187
944.00,-0.0180
943.00,-0.0175
942.00,-0.0170
941.00,-0.0168
940.00,-0.0166
939.00,-0.0166
938.00,-0.0166
937.00,-0.0168
936.00,-0.0171
935.00,-0.0175
934.00,-0.0179
933.00,-0.0185
932.00,-0.0192
931.00,-0.0199
930.00,-0.0207
929.00,-0.0216
928.00,-0.0226
927.00,-0.0236
926.00,-0.0247
925.00,-0.0257
924.00,-0.0269
923.00,-0.0279
922.00,-0.0289
921.00,-0.0297
920.00,-0.0305
919.00,-0.0311
918.00,-0.0315
917.00,-0.0317
916.00,-0.0317
915.00,-0.0315
914.00,-0.0310
913.00,-0.0303
912.00,-0.0294
911.00,-0.0283
910.00,-0.0271
909.00,-0.0257
908.00,-0.0242
907.00,-0.0226
906.00,-0.0211
905.00,-0.0196
904.00,-0.0182
903.00,-0.0169
902.00,-0.0156
901.00,-0.0145
900.00,-0.0136
899.00,-0.0128
898.00,-0.0120
897.00,-0.0114
896.00,-0.0110
895.00,-0.0105
894.00,-0.0102
893.00,-0.0099
892.00,-0.0097
891.00,-0.0095
890.00,-0.0093
889.00,-0.0091
888.00,-0.0089
887.00,-0.0087
886.00,-0.0084
885.00,-0.0081
884.00,-0.0079
883.00,-0.0076
882.00,-0.0073
881.00,-0.0070
880.00,-0.0068
879.00,-0.0065
878.00,-0.0062
877.00,-0.0060
876.00,-0.0059
875.00,-0.0058
874.00,-0.0056
873.00,-0.0056
872.00,-0.0055
871.00,-0.0055
870.00,-0.0054
869.00,-0.0053
868.00,-0.0052
867.00,-0.0051
866.00,-0.0051
865.00,-0.0050
864.00,-0.0049
863.00,-0.0048
862.00,-0.0047
861.00,-0.0046
860.00,-0.0044
859.00,-0.0043
858.00,-0.0041
857.00,-0.0039
856.00,-0.0038
855.00,-0.0037
854.00,-0.0036
853.00,-0.0035
852.00,-0.0036
851.00,-0.0037
850.00,-0.0038
849.00,-0.0040
848.00,-0.0042
847.00,-0.0045
846.00,-0.0048
845.00,-0.0051
844.00,-0.0053
843.00,-0.0055
842.00,-0.0057
841.00,-0.0060
840.00,-0.0062
839.00,-0.0065
838.00,-0.0067
837.00,-0.0070
836.00,-0.0073
835.00,-0.0075
834.00,-0.0076
833.00,-0.0077
832.00,-0.0077
831.00,-0.0076
830.00,-0.0075
829.00,-0.0074
828.00,-0.0073
827.00,-0.0073
826.00,-0.0072
825.00,-0.0071
824.00,-0.0071
823.00,-0.0069
822.00,-0.0067
821.00,-0.0064
820.00,-0.0062
819.00,-0.0059
818.00,-0.0056
817.00,-0.0054
816.00,-0.0052
815.00,-0.0051
814.00,-0.0050
813.00,-0.0049
812.00,-0.0049
811.00,-0.0050
810.00,-0.0050
809.00,-0.0050
808.00,-0.0051
807.00,-0.0051
806.00,-0.0052
805.00,-0.0052
804.00,-0.0053
803.00,-0.0054
802.00,-0.0054
801.00,-0.0054
800.00,-0.0055
799.00,-0.0056
798.00,-0.0056
797.00,-0.0056
796.00,-0.0056
795.00,-0.0056
794.00,-0.0056
793.00,-0.0056
792.00,-0.0056
791.00,-0.0056
790.00,-0.0055
789.00,-0.0054
788.00,-0.0053
787.00,-0.0052
786.00,-0.0051
785.00,-0.0049
784.00,-0.0049
783.00,-0.0048
782.00,-0.0047
781.00,-0.0046
780.00,-0.0045
779.00,-0.0045
778.00,-0.0044
777.00,-0.0044
776.00,-0.0044
775.00,-0.0043
774.00,-0.0043
773.00,-0.0042
772.00,-0.0043
771.00,-0.0044
770.00,-0.0044
769.00,-0.0043
768.00,-0.0043
767.00,-0.0043
766.00,-0.0043
765.00,-0.0043
764.00,-0.0043
763.00,-0.0043
762.00,-0.0043
761.00,-0.0042
760.00,-0.0043
759.00,-0.0043
758.00,-0.0043
757.00,-0.0043
756.00,-0.0044
755.00,-0.0043
754.00,-0.0042
753.00,-0.0040
752.00,-0.0038
751.00,-0.0037
750.00,-0.0035
749.00,-0.0033
748.00,-0.0032
747.00,-0.0030
746.00,-0.0028
745.00,-0.0026
744.00,-0.0025
743.00,-0.0024
742.00,-0.0022
741.00,-0.0021
740.00,-0.0020
739.00,-0.0020
738.00,-0.0019
737.00,-0.0018
736.00,-0.0019
735.00,-0.0019
734.00,-0.0021
733.00,-0.0025
732.00,-0.0031
731.00,-0.0036
730.00,-0.0037
729.00,-0.0034
728.00,-0.0027
727.00,-0.0019
726.00,-0.0012
725.00,-0.0008
724.00,-0.0008
723.00,-0.0011
722.00,-0.0015
721.00,-0.0020
720.00,-0.0022
719.00,-0.0017
718.00,-0.0006
717.00,0.0007
716.00,0.0019
715.00,0.0026
714.00,0.0032
713.00,0.0035
712.00,0.0037
711.00,0.0038
710.00,0.0039
709.00,0.0040
708.00,0.0040
707.00,0.0039
706.00,0.0039
705.00,0.0038
704.00,0.0036
703.00,0.0034
702.00,0.0030
701.00,0.0026
700.00,0.0021
699.00,0.0016
698.00,0.0010
697.00,0.0004
696.00,-0.0003
695.00,-0.0010
694.00,-0.0015
693.00,-0.0020
692.00,-0.0026
691.00,-0.0030
690.00,-0.0032
689.00,-0.0033
688.00,-0.0034
687.00,-0.0032
686.00,-0.0029
685.00,-0.0026
684.00,-0.0023
683.00,-0.0020
682.00,-0.0016
681.00,-0.0012
680.00,-0.0010
679.00,-0.0007
678.00,-0.0005
677.00,-0.0003
676.00,-0.0001
675.00,0.0001
674.00,0.0003
673.00,0.0006
672.00,0.0009
671.00,0.0011
670.00,0.0014
669.00,0.0018
668.00,0.0023
667.00,0.0029
666.00,0.0036
665.00,0.0041
664.00,0.0044
663.00,0.0047
662.00,0.0049
661.00,0.0052
660.00,0.0053
659.00,0.0055
658.00,0.0058
657.00,0.0059
656.00,0.0061
655.00,0.0062
654.00,0.0065
653.00,0.0068
652.00,0.0071
651.00,0.0074
650.00,0.0077
649.00,0.0080
648.00,0.0083
647.00,0.0086
646.00,0.0090
645.00,0.0093
644.00,0.0096
643.00,0.0099
642.00,0.0101
641.00,0.0103
640.00,0.0103
639.00,0.0102
638.00,0.0101
637.00,0.0100
636.00,0.0098
635.00,0.0097
634.00,0.0097
633.00,0.0097
632.00,0.0097
631.00,0.0096
630.00,0.0095
629.00,0.0093
628.00,0.0092
627.00,0.0090
626.00,0.0090
625.00,0.0089
624.00,0.0088
623.00,0.0087
622.00,0.0087
621.00,0.0087
620.00,0.0087
619.00,0.0088
618.00,0.0088
617.00,0.0088
616.00,0.0087
615.00,0.0086
614.00,0.0084
613.00,0.0081
612.00,0.0076
611.00,0.0071
610.00,0.0067
609.00,0.0062
608.00,0.0058
607.00,0.0054
606.00,0.0052
605.00,0.0052
604.00,0.0051
603.00,0.0051
602.00,0.0052
601.00,0.0053
600.00,0.0052
599.00,0.0051
598.00,0.0050
597.00,0.0047
596.00,0.0043
595.00,0.0040
594.00,0.0036
593.00,0.0033
592.00,0.0028
591.00,0.0023
590.00,0.0019
589.00,0.0015
588.00,0.0010
587.00,0.0005
586.00,0.0002
585.00,-0.0001
584.00,-0.0003
583.00,-0.0004
582.00,-0.0002
581.00,0.0001
580.00,0.0005
579.00,0.0010
578.00,0.0017
577.00,0.0023
576.00,0.0028
575.00,0.0031
574.00,0.0036
573.00,0.0039
572.00,0.0043
571.00,0.0046
570.00,0.0051
569.00,0.0056
568.00,0.0060
567.00,0.0063
566.00,0.0067
565.00,0.0071
564.00,0.0075
563.00,0.0079
562.00,0.0085
561.00,0.0091
560.00,0.0095
559.00,0.0100
558.00,0.0106
557.00,0.0112
556.00,0.0116
555.00,0.0119
554.00,0.0123
553.00,0.0125
552.00,0.0126
551.00,0.0126
550.00,0.0127
549.00,0.0127
548.00,0.0125
547.00,0.0122
546.00,0.0121
545.00,0.0119
544.00,0.0116
543.00,0.0113
542.00,0.0111
541.00,0.0110
540.00,0.0108
539.00,0.0105
538.00,0.0104
537.00,0.0102
536.00,0.0100
535.00,0.0098
534.00,0.0098
533.00,0.0097
532.00,0.0096
531.00,0.0094
530.00,0.0094
529.00,0.0094
528.00,0.0092
527.00,0.0090
526.00,0.0091
525.00,0.0091
524.00,0.0091
523.00,0.0090
522.00,0.0091
521.00,0.0091
520.00,0.0090
519.00,0.0089
518.00,0.0091
517.00,0.0091
516.00,0.0090
515.00,0.0089
514.00,0.0090
513.00,0.0090
512.00,0.0089
511.00,0.0087
510.00,0.0088
509.00,0.0088
508.00,0.0088
507.00,0.0087
506.00,0.0087
505.00,0.0087
504.00,0.0084
503.00,0.0083
502.00,0.0083
501.00,0.0083
500.00,0.0081
499.00,0.0081
498.00,0.0081
497.00,0.0082
496.00,0.0083
495.00,0.0083
494.00,0.0086
493.00,0.0087
492.00,0.0086
491.00,0.0085
490.00,0.0085
489.00,0.0085
488.00,0.0083
487.00,0.0080
486.00,0.0079
485.00,0.0078
484.00,0.0076
483.00,0.0074
482.00,0.0073
481.00,0.0072
480.00,0.0068
479.00,0.0063
478.00,0.0061
477.00,0.0060
476.00,0.0058
475.00,0.0057
474.00,0.0057
473.00,0.0057
472.00,0.0054
471.00,0.0050
470.00,0.0049
469.00,0.0047
468.00,0.0044
467.00,0.0042
466.00,0.0043
465.00,0.0042
464.00,0.0039
463.00,0.0036
462.00,0.0038
461.00,0.0039
460.00,0.0038
459.00,0.0037
458.00,0.0037
457.00,0.0037
456.00,0.0033
455.00,0.0030
454.00,0.0030
453.00,0.0029
452.00,0.0026
451.00,0.0023
450.00,0.0023
449.00,0.0021
448.00,0.0016
447.00,0.0012
446.00,0.0011
445.00,0.0010
444.00,0.0005
443.00,0.0001
442.00,-0.0001
441.00,-0.0004
440.00,-0.0011
439.00,-0.0016
438.00,-0.0019
437.00,-0.0021
436.00,-0.0027
435.00,-0.0031
434.00,-0.0031
433.00,-0.0031
432.00,-0.0033
431.00,-0.0036
430.00,-0.0035
429.00,-0.0035
428.00,-0.0039
427.00,-0.0043
426.00,-0.0042
425.00,-0.0043
424.00,-0.0048
423.00,-0.0053
422.00,-0.0057
421.00,-0.0065
420.00,-0.0079
419.00,-0.0090
418.00,-0.0087
417.00,-0.0084
416.00,-0.0089
415.00,-0.0093
414.00,-0.0094
413.00,-0.0095
412.00,-0.0104
411.00,-0.0110
410.00,-0.0110
409.00,-0.0110
408.00,-0.0116
407.00,-0.0120
406.00,-0.0113
405.00,-0.0108
404.00,-0.0115
403.00,-0.0123
402.00,-0.0123
401.00,-0.0124
400.00,-0.0136
