Created as New Dataset,Sample 244 By YargerLab Date Sunday, October 05 2025
cm-1,A
4000.00,0.0006
3999.00,0.0006
3998.00,0.0006
3997.00,0.0006
3996.00,0.0006
3995.00,0.0006
3994.00,0.0006
3993.00,0.0005
3992.00,0.0005
3991.00,0.0006
3990.00,0.0006
3989.00,0.0006
3988.00,0.0006
3987.00,0.0006
3986.00,0.0007
3985.00,0.0007
3984.00,0.0007
3983.00,0.0006
3982.00,0.0006
3981.00,0.0006
3980.00,0.0006
3979.00,0.0006
3978.00,0.0006
3977.00,0.0007
3976.00,0.0006
3975.00,0.0006
3974.00,0.0006
3973.00,0.0006
3972.00,0.0006
3971.00,0.0006
3970.00,0.0006
3969.00,0.0006
3968.00,0.0006
3967.00,0.0006
3966.00,0.0006
3965.00,0.0006
3964.00,0.0006
3963.00,0.0006
3962.00,0.0006
3961.00,0.0006
3960.00,0.0006
3959.00,0.0006
3958.00,0.0006
3957.00,0.0006
3956.00,0.0006
3955.00,0.0006
3954.00,0.0006
3953.00,0.0006
3952.00,0.0006
3951.00,0.0006
3950.00,0.0006
3949.00,0.0006
3948.00,0.0006
3947.00,0.0006
3946.00,0.0006
3945.00,0.0006
3944.00,0.0006
3943.00,0.0006
3942.00,0.0006
3941.00,0.0006
3940.00,0.0006
3939.00,0.0006
3938.00,0.0006
3937.00,0.0006
3936.00,0.0006
3935.00,0.0006
3934.00,0.0005
3933.00,0.0005
3932.00,0.0005
3931.00,0.0005
3930.00,0.0005
3929.00,0.0005
3928.00,0.0005
3927.00,0.0005
3926.00,0.0005
3925.00,0.0005
3924.00,0.0005
3923.00,0.0005
3922.00,0.0005
3921.00,0.0005
3920.00,0.0005
3919.00,0.0005
3918.00,0.0005
3917.00,0.0005
3916.00,0.0005
3915.00,0.0005
3914.00,0.0006
3913.00,0.0006
3912.00,0.0006
3911.00,0.0006
3910.00,0.0006
3909.00,0.0006
3908.00,0.0006
3907.00,0.0006
3906.00,0.0005
3905.00,0.0005
3904.00,0.0005
3903.00,0.0005
3902.00,0.0005
3901.00,0.0004
3900.00,0.0004
3899.00,0.0004
3898.00,0.0005
3897.00,0.0005
3896.00,0.0005
3895.00,0.0005
3894.00,0.0005
3893.00,0.0005
3892.00,0.0005
3891.00,0.0005
3890.00,0.0005
3889.00,0.0005
3888.00,0.0005
3887.00,0.0005
3886.00,0.0005
3885.00,0.0005
3884.00,0.0005
3883.00,0.0004
3882.00,0.0004
3881.00,0.0004
3880.00,0.0004
3879.00,0.0005
3878.00,0.0005
3877.00,0.0005
3876.00,0.0005
3875.00,0.0005
3874.00,0.0005
3873.00,0.0005
3872.00,0.0004
3871.00,0.0004
3870.00,0.0004
3869.00,0.0004
3868.00,0.0004
3867.00,0.0004
3866.00,0.0004
3865.00,0.0005
3864.00,0.0005
3863.00,0.0005
3862.00,0.0005
3861.00,0.0005
3860.00,0.0005
3859.00,0.0004
3858.00,0.0004
3857.00,0.0004
3856.00,0.0004
3855.00,0.0004
3854.00,0.0004
3853.00,0.0004
3852.00,0.0004
3851.00,0.0004
3850.00,0.0004
3849.00,0.0004
3848.00,0.0004
3847.00,0.0005
3846.00,0.0005
3845.00,0.0005
3844.00,0.0005
3843.00,0.0005
3842.00,0.0005
3841.00,0.0005
3840.00,0.0004
3839.00,0.0004
3838.00,0.0004
3837.00,0.0004
3836.00,0.0004
3835.00,0.0004
3834.00,0.0004
3833.00,0.0004
3832.00,0.0005
3831.00,0.0005
3830.00,0.0005
3829.00,0.0005
3828.00,0.0005
3827.00,0.0005
3826.00,0.0005
3825.00,0.0005
3824.00,0.0005
3823.00,0.0004
3822.00,0.0004
3821.00,0.0004
3820.00,0.0004
3819.00,0.0004
3818.00,0.0003
3817.00,0.0004
3816.00,0.0004
3815.00,0.0005
3814.00,0.0005
3813.00,0.0005
3812.00,0.0005
3811.00,0.0005
3810.00,0.0005
3809.00,0.0005
3808.00,0.0005
3807.00,0.0005
3806.00,0.0005
3805.00,0.0005
3804.00,0.0005
3803.00,0.0004
3802.00,0.0004
3801.00,0.0004
3800.00,0.0004
3799.00,0.0004
3798.00,0.0003
3797.00,0.0004
3796.00,0.0004
3795.00,0.0005
3794.00,0.0005
3793.00,0.0005
3792.00,0.0006
3791.00,0.0006
3790.00,0.0006
3789.00,0.0006
3788.00,0.0006
3787.00,0.0006
3786.00,0.0006
3785.00,0.0006
3784.00,0.0006
3783.00,0.0006
3782.00,0.0005
3781.00,0.0005
3780.00,0.0005
3779.00,0.0005
3778.00,0.0005
3777.00,0.0006
3776.00,0.0006
3775.00,0.0006
3774.00,0.0006
3773.00,0.0006
3772.00,0.0005
3771.00,0.0005
3770.00,0.0005
3769.00,0.0005
3768.00,0.0004
3767.00,0.0004
3766.00,0.0004
3765.00,0.0005
3764.00,0.0005
3763.00,0.0005
3762.00,0.0005
3761.00,0.0005
3760.00,0.0005
3759.00,0.0005
3758.00,0.0004
3757.00,0.0004
3756.00,0.0004
3755.00,0.0004
3754.00,0.0004
3753.00,0.0003
3752.00,0.0003
3751.00,0.0003
3750.00,0.0003
3749.00,0.0003
3748.00,0.0002
3747.00,0.0002
3746.00,0.0001
3745.00,0.0001
3744.00,0.0002
3743.00,0.0003
3742.00,0.0003
3741.00,0.0003
3740.00,0.0003
3739.00,0.0003
3738.00,0.0003
3737.00,0.0003
3736.00,0.0003
3735.00,0.0003
3734.00,0.0003
3733.00,0.0003
3732.00,0.0003
3731.00,0.0003
3730.00,0.0004
3729.00,0.0004
3728.00,0.0004
3727.00,0.0004
3726.00,0.0004
3725.00,0.0004
3724.00,0.0003
3723.00,0.0003
3722.00,0.0004
3721.00,0.0004
3720.00,0.0004
3719.00,0.0004
3718.00,0.0004
3717.00,0.0004
3716.00,0.0004
3715.00,0.0004
3714.00,0.0003
3713.00,0.0003
3712.00,0.0003
3711.00,0.0004
3710.00,0.0004
3709.00,0.0004
3708.00,0.0005
3707.00,0.0005
3706.00,0.0005
3705.00,0.0004
3704.00,0.0004
3703.00,0.0004
3702.00,0.0004
3701.00,0.0004
3700.00,0.0004
3699.00,0.0004
3698.00,0.0004
3697.00,0.0004
3696.00,0.0004
3695.00,0.0004
3694.00,0.0004
3693.00,0.0004
3692.00,0.0003
3691.00,0.0003
3690.00,0.0003
3689.00,0.0003
3688.00,0.0003
3687.00,0.0004
3686.00,0.0004
3685.00,0.0004
3684.00,0.0005
3683.00,0.0005
3682.00,0.0006
3681.00,0.0006
3680.00,0.0006
3679.00,0.0006
3678.00,0.0005
3677.00,0.0005
3676.00,0.0005
3675.00,0.0004
3674.00,0.0004
3673.00,0.0004
3672.00,0.0004
3671.00,0.0004
3670.00,0.0005
3669.00,0.0005
3668.00,0.0005
3667.00,0.0005
3666.00,0.0006
3665.00,0.0006
3664.00,0.0007
3663.00,0.0007
3662.00,0.0007
3661.00,0.0007
3660.00,0.0008
3659.00,0.0008
3658.00,0.0007
3657.00,0.0007
3656.00,0.0007
3655.00,0.0007
3654.00,0.0007
3653.00,0.0007
3652.00,0.0006
3651.00,0.0007
3650.00,0.0007
3649.00,0.0007
3648.00,0.0007
3647.00,0.0007
3646.00,0.0007
3645.00,0.0007
3644.00,0.0008
3643.00,0.0008
3642.00,0.0008
3641.00,0.0009
3640.00,0.0009
3639.00,0.0009
3638.00,0.0009
3637.00,0.0010
3636.00,0.0010
3635.00,0.0010
3634.00,0.0010
3633.00,0.0011
3632.00,0.0011
3631.00,0.0010
3630.00,0.0011
3629.00,0.0011
3628.00,0.0011
3627.00,0.0011
3626.00,0.0011
3625.00,0.0012
3624.00,0.0012
3623.00,0.0012
3622.00,0.0012
3621.00,0.0012
3620.00,0.0013
3619.00,0.0013
3618.00,0.0013
3617.00,0.0013
3616.00,0.0013
3615.00,0.0013
3614.00,0.0014
3613.00,0.0014
3612.00,0.0014
3611.00,0.0014
3610.00,0.0014
3609.00,0.0014
3608.00,0.0014
3607.00,0.0014
3606.00,0.0015
3605.00,0.0015
3604.00,0.0015
3603.00,0.0016
3602.00,0.0016
3601.00,0.0017
3600.00,0.0017
3599.00,0.0017
3598.00,0.0017
3597.00,0.0017
3596.00,0.0017
3595.00,0.0017
3594.00,0.0017
3593.00,0.0018
3592.00,0.0018
3591.00,0.0018
3590.00,0.0018
3589.00,0.0018
3588.00,0.0019
3587.00,0.0019
3586.00,0.0019
3585.00,0.0019
3584.00,0.0019
3583.00,0.0020
3582.00,0.0020
3581.00,0.0021
3580.00,0.0021
3579.00,0.0021
3578.00,0.0021
3577.00,0.0021
3576.00,0.0022
3575.00,0.0022
3574.00,0.0023
3573.00,0.0023
3572.00,0.0023
3571.00,0.0023
3570.00,0.0023
3569.00,0.0023
3568.00,0.0023
3567.00,0.0023
3566.00,0.0024
3565.00,0.0024
3564.00,0.0024
3563.00,0.0024
3562.00,0.0024
3561.00,0.0025
3560.00,0.0025
3559.00,0.0025
3558.00,0.0026
3557.00,0.0026
3556.00,0.0026
3555.00,0.0026
3554.00,0.0026
3553.00,0.0026
3552.00,0.0027
3551.00,0.0027
3550.00,0.0027
3549.00,0.0028
3548.00,0.0028
3547.00,0.0028
3546.00,0.0028
3545.00,0.0028
3544.00,0.0029
3543.00,0.0029
3542.00,0.0029
3541.00,0.0030
3540.00,0.0030
3539.00,0.0031
3538.00,0.0031
3537.00,0.0031
3536.00,0.0031
3535.00,0.0032
3534.00,0.0032
3533.00,0.0032
3532.00,0.0032
3531.00,0.0032
3530.00,0.0032
3529.00,0.0033
3528.00,0.0033
3527.00,0.0033
3526.00,0.0034
3525.00,0.0034
3524.00,0.0034
3523.00,0.0034
3522.00,0.0035
3521.00,0.0035
3520.00,0.0035
3519.00,0.0035
3518.00,0.0036
3517.00,0.0036
3516.00,0.0036
3515.00,0.0036
3514.00,0.0036
3513.00,0.0036
3512.00,0.0036
3511.00,0.0036
3510.00,0.0037
3509.00,0.0037
3508.00,0.0038
3507.00,0.0038
3506.00,0.0038
3505.00,0.0038
3504.00,0.0038
3503.00,0.0038
3502.00,0.0038
3501.00,0.0038
3500.00,0.0038
3499.00,0.0038
3498.00,0.0038
3497.00,0.0039
3496.00,0.0039
3495.00,0.0039
3494.00,0.0039
3493.00,0.0039
3492.00,0.0039
3491.00,0.0039
3490.00,0.0039
3489.00,0.0039
3488.00,0.0039
3487.00,0.0039
3486.00,0.0039
3485.00,0.0039
3484.00,0.0039
3483.00,0.0039
3482.00,0.0039
3481.00,0.0040
3480.00,0.0040
3479.00,0.0040
3478.00,0.0040
3477.00,0.0040
3476.00,0.0040
3475.00,0.0040
3474.00,0.0040
3473.00,0.0040
3472.00,0.0040
3471.00,0.0040
3470.00,0.0040
3469.00,0.0041
3468.00,0.0041
3467.00,0.0041
3466.00,0.0041
3465.00,0.0041
3464.00,0.0041
3463.00,0.0041
3462.00,0.0041
3461.00,0.0041
3460.00,0.0041
3459.00,0.0042
3458.00,0.0042
3457.00,0.0042
3456.00,0.0042
3455.00,0.0043
3454.00,0.0043
3453.00,0.0043
3452.00,0.0043
3451.00,0.0043
3450.00,0.0044
3449.00,0.0044
3448.00,0.0044
3447.00,0.0044
3446.00,0.0045
3445.00,0.0045
3444.00,0.0046
3443.00,0.0046
3442.00,0.0046
3441.00,0.0046
3440.00,0.0046
3439.00,0.0046
3438.00,0.0046
3437.00,0.0046
3436.00,0.0046
3435.00,0.0046
3434.00,0.0046
3433.00,0.0047
3432.00,0.0047
3431.00,0.0047
3430.00,0.0047
3429.00,0.0047
3428.00,0.0048
3427.00,0.0048
3426.00,0.0048
3425.00,0.0048
3424.00,0.0049
3423.00,0.0049
3422.00,0.0049
3421.00,0.0049
3420.00,0.0049
3419.00,0.0049
3418.00,0.0049
3417.00,0.0049
3416.00,0.0050
3415.00,0.0050
3414.00,0.0050
3413.00,0.0050
3412.00,0.0050
3411.00,0.0050
3410.00,0.0050
3409.00,0.0050
3408.00,0.0051
3407.00,0.0051
3406.00,0.0051
3405.00,0.0051
3404.00,0.0050
3403.00,0.0050
3402.00,0.0050
3401.00,0.0049
3400.00,0.0050
3399.00,0.0050
3398.00,0.0050
3397.00,0.0050
3396.00,0.0051
3395.00,0.0051
3394.00,0.0050
3393.00,0.0050
3392.00,0.0050
3391.00,0.0050
3390.00,0.0051
3389.00,0.0051
3388.00,0.0051
3387.00,0.0052
3386.00,0.0052
3385.00,0.0052
3384.00,0.0051
3383.00,0.0051
3382.00,0.0051
3381.00,0.0051
3380.00,0.0051
3379.00,0.0052
3378.00,0.0052
3377.00,0.0052
3376.00,0.0052
3375.00,0.0052
3374.00,0.0052
3373.00,0.0052
3372.00,0.0052
3371.00,0.0052
3370.00,0.0052
3369.00,0.0052
3368.00,0.0052
3367.00,0.0052
3366.00,0.0052
3365.00,0.0053
3364.00,0.0053
3363.00,0.0053
3362.00,0.0053
3361.00,0.0053
3360.00,0.0053
3359.00,0.0054
3358.00,0.0054
3357.00,0.0054
3356.00,0.0054
3355.00,0.0054
3354.00,0.0054
3353.00,0.0054
3352.00,0.0054
3351.00,0.0054
3350.00,0.0055
3349.00,0.0055
3348.00,0.0055
3347.00,0.0055
3346.00,0.0055
3345.00,0.0055
3344.00,0.0055
3343.00,0.0055
3342.00,0.0055
3341.00,0.0055
3340.00,0.0056
3339.00,0.0056
3338.00,0.0056
3337.00,0.0057
3336.00,0.0057
3335.00,0.0057
3334.00,0.0057
3333.00,0.0057
3332.00,0.0057
3331.00,0.0057
3330.00,0.0057
3329.00,0.0057
3328.00,0.0057
3327.00,0.0056
3326.00,0.0056
3325.00,0.0056
3324.00,0.0056
3323.00,0.0056
3322.00,0.0057
3321.00,0.0057
3320.00,0.0058
3319.00,0.0058
3318.00,0.0058
3317.00,0.0058
3316.00,0.0058
3315.00,0.0058
3314.00,0.0058
3313.00,0.0058
3312.00,0.0058
3311.00,0.0058
3310.00,0.0057
3309.00,0.0057
3308.00,0.0057
3307.00,0.0057
3306.00,0.0057
3305.00,0.0057
3304.00,0.0057
3303.00,0.0058
3302.00,0.0058
3301.00,0.0059
3300.00,0.0059
3299.00,0.0059
3298.00,0.0059
3297.00,0.0059
3296.00,0.0060
3295.00,0.0060
3294.00,0.0060
3293.00,0.0060
3292.00,0.0060
3291.00,0.0060
3290.00,0.0061
3289.00,0.0061
3288.00,0.0062
3287.00,0.0062
3286.00,0.0063
3285.00,0.0063
3284.00,0.0063
3283.00,0.0063
3282.00,0.0063
3281.00,0.0063
3280.00,0.0063
3279.00,0.0063
3278.00,0.0063
3277.00,0.0063
3276.00,0.0063
3275.00,0.0063
3274.00,0.0063
3273.00,0.0063
3272.00,0.0063
3271.00,0.0064
3270.00,0.0064
3269.00,0.0065
3268.00,0.0065
3267.00,0.0065
3266.00,0.0066
3265.00,0.0066
3264.00,0.0066
3263.00,0.0066
3262.00,0.0067
3261.00,0.0067
3260.00,0.0067
3259.00,0.0067
3258.00,0.0067
3257.00,0.0067
3256.00,0.0067
3255.00,0.0068
3254.00,0.0068
3253.00,0.0068
3252.00,0.0069
3251.00,0.0069
3250.00,0.0069
3249.00,0.0068
3248.00,0.0068
3247.00,0.0068
3246.00,0.0069
3245.00,0.0069
3244.00,0.0069
3243.00,0.0069
3242.00,0.0070
3241.00,0.0070
3240.00,0.0070
3239.00,0.0070
3238.00,0.0070
3237.00,0.0070
3236.00,0.0070
3235.00,0.0070
3234.00,0.0070
3233.00,0.0070
3232.00,0.0071
3231.00,0.0071
3230.00,0.0072
3229.00,0.0072
3228.00,0.0073
3227.00,0.0073
3226.00,0.0073
3225.00,0.0073
3224.00,0.0073
3223.00,0.0073
3222.00,0.0073
3221.00,0.0074
3220.00,0.0074
3219.00,0.0074
3218.00,0.0074
3217.00,0.0074
3216.00,0.0075
3215.00,0.0075
3214.00,0.0075
3213.00,0.0075
3212.00,0.0076
3211.00,0.0076
3210.00,0.0076
3209.00,0.0076
3208.00,0.0077
3207.00,0.0077
3206.00,0.0077
3205.00,0.0077
3204.00,0.0077
3203.00,0.0077
3202.00,0.0077
3201.00,0.0077
3200.00,0.0077
3199.00,0.0077
3198.00,0.0077
3197.00,0.0077
3196.00,0.0077
3195.00,0.0077
3194.00,0.0077
3193.00,0.0078
3192.00,0.0078
3191.00,0.0078
3190.00,0.0078
3189.00,0.0078
3188.00,0.0079
3187.00,0.0079
3186.00,0.0079
3185.00,0.0079
3184.00,0.0079
3183.00,0.0079
3182.00,0.0079
3181.00,0.0079
3180.00,0.0079
3179.00,0.0079
3178.00,0.0079
3177.00,0.0079
3176.00,0.0079
3175.00,0.0079
3174.00,0.0080
3173.00,0.0080
3172.00,0.0080
3171.00,0.0080
3170.00,0.0080
3169.00,0.0080
3168.00,0.0080
3167.00,0.0080
3166.00,0.0081
3165.00,0.0081
3164.00,0.0082
3163.00,0.0082
3162.00,0.0082
3161.00,0.0083
3160.00,0.0083
3159.00,0.0083
3158.00,0.0083
3157.00,0.0083
3156.00,0.0083
3155.00,0.0083
3154.00,0.0083
3153.00,0.0083
3152.00,0.0084
3151.00,0.0084
3150.00,0.0084
3149.00,0.0085
3148.00,0.0085
3147.00,0.0085
3146.00,0.0085
3145.00,0.0085
3144.00,0.0085
3143.00,0.0085
3142.00,0.0086
3141.00,0.0086
3140.00,0.0086
3139.00,0.0086
3138.00,0.0086
3137.00,0.0087
3136.00,0.0087
3135.00,0.0088
3134.00,0.0088
3133.00,0.0088
3132.00,0.0088
3131.00,0.0088
3130.00,0.0089
3129.00,0.0089
3128.00,0.0089
3127.00,0.0089
3126.00,0.0089
3125.00,0.0090
3124.00,0.0090
3123.00,0.0090
3122.00,0.0090
3121.00,0.0090
3120.00,0.0090
3119.00,0.0090
3118.00,0.0090
3117.00,0.0091
3116.00,0.0091
3115.00,0.0091
3114.00,0.0092
3113.00,0.0092
3112.00,0.0092
3111.00,0.0092
3110.00,0.0092
3109.00,0.0092
3108.00,0.0092
3107.00,0.0092
3106.00,0.0092
3105.00,0.0092
3104.00,0.0093
3103.00,0.0094
3102.00,0.0094
3101.00,0.0094
3100.00,0.0094
3099.00,0.0094
3098.00,0.0094
3097.00,0.0094
3096.00,0.0095
3095.00,0.0095
3094.00,0.0096
3093.00,0.0096
3092.00,0.0097
3091.00,0.0098
3090.00,0.0099
3089.00,0.0100
3088.00,0.0101
3087.00,0.0101
3086.00,0.0102
3085.00,0.0103
3084.00,0.0104
3083.00,0.0104
3082.00,0.0105
3081.00,0.0106
3080.00,0.0107
3079.00,0.0107
3078.00,0.0107
3077.00,0.0108
3076.00,0.0108
3075.00,0.0109
3074.00,0.0109
3073.00,0.0109
3072.00,0.0110
3071.00,0.0110
3070.00,0.0110
3069.00,0.0110
3068.00,0.0110
3067.00,0.0110
3066.00,0.0110
3065.00,0.0110
3064.00,0.0110
3063.00,0.0110
3062.00,0.0110
3061.00,0.0110
3060.00,0.0110
3059.00,0.0110
3058.00,0.0111
3057.00,0.0111
3056.00,0.0111
3055.00,0.0111
3054.00,0.0111
3053.00,0.0111
3052.00,0.0112
3051.00,0.0112
3050.00,0.0113
3049.00,0.0113
3048.00,0.0114
3047.00,0.0115
3046.00,0.0115
3045.00,0.0115
3044.00,0.0116
3043.00,0.0116
3042.00,0.0117
3041.00,0.0117
3040.00,0.0118
3039.00,0.0118
3038.00,0.0118
3037.00,0.0119
3036.00,0.0119
3035.00,0.0119
3034.00,0.0119
3033.00,0.0119
3032.00,0.0119
3031.00,0.0119
3030.00,0.0120
3029.00,0.0120
3028.00,0.0121
3027.00,0.0121
3026.00,0.0121
3025.00,0.0121
3024.00,0.0122
3023.00,0.0122
3022.00,0.0123
3021.00,0.0123
3020.00,0.0124
3019.00,0.0125
3018.00,0.0125
3017.00,0.0126
3016.00,0.0126
3015.00,0.0127
3014.00,0.0128
3013.00,0.0129
3012.00,0.0130
3011.00,0.0131
3010.00,0.0132
3009.00,0.0133
3008.00,0.0134
3007.00,0.0135
3006.00,0.0137
3005.00,0.0138
3004.00,0.0140
3003.00,0.0141
3002.00,0.0143
3001.00,0.0145
3000.00,0.0146
2999.00,0.0148
2998.00,0.0150
2997.00,0.0152
2996.00,0.0154
2995.00,0.0156
2994.00,0.0158
2993.00,0.0160
2992.00,0.0162
2991.00,0.0164
2990.00,0.0166
2989.00,0.0168
2988.00,0.0170
2987.00,0.0172
2986.00,0.0173
2985.00,0.0175
2984.00,0.0176
2983.00,0.0177
2982.00,0.0178
2981.00,0.0179
2980.00,0.0180
2979.00,0.0182
2978.00,0.0183
2977.00,0.0184
2976.00,0.0185
2975.00,0.0187
2974.00,0.0188
2973.00,0.0189
2972.00,0.0191
2971.00,0.0192
2970.00,0.0194
2969.00,0.0196
2968.00,0.0198
2967.00,0.0199
2966.00,0.0201
2965.00,0.0203
2964.00,0.0205
2963.00,0.0207
2962.00,0.0209
2961.00,0.0210
2960.00,0.0212
2959.00,0.0213
2958.00,0.0214
2957.00,0.0215
2956.00,0.0216
2955.00,0.0217
2954.00,0.0217
2953.00,0.0218
2952.00,0.0218
2951.00,0.0218
2950.00,0.0217
2949.00,0.0217
2948.00,0.0217
2947.00,0.0217
2946.00,0.0216
2945.00,0.0216
2944.00,0.0216
2943.00,0.0216
2942.00,0.0216
2941.00,0.0216
2940.00,0.0217
2939.00,0.0217
2938.00,0.0218
2937.00,0.0219
2936.00,0.0220
2935.00,0.0220
2934.00,0.0221
2933.00,0.0222
2932.00,0.0223
2931.00,0.0224
2930.00,0.0225
2929.00,0.0226
2928.00,0.0227
2927.00,0.0228
2926.00,0.0229
2925.00,0.0229
2924.00,0.0229
2923.00,0.0229
2922.00,0.0228
2921.00,0.0228
2920.00,0.0228
2919.00,0.0227
2918.00,0.0226
2917.00,0.0225
2916.00,0.0223
2915.00,0.0222
2914.00,0.0220
2913.00,0.0219
2912.00,0.0218
2911.00,0.0216
2910.00,0.0215
2909.00,0.0214
2908.00,0.0213
2907.00,0.0213
2906.00,0.0212
2905.00,0.0211
2904.00,0.0211
2903.00,0.0211
2902.00,0.0211
2901.00,0.0211
2900.00,0.0211
2899.00,0.0212
2898.00,0.0212
2897.00,0.0213
2896.00,0.0213
2895.00,0.0213
2894.00,0.0213
2893.00,0.0213
2892.00,0.0213
2891.00,0.0213
2890.00,0.0213
2889.00,0.0213
2888.00,0.0213
2887.00,0.0213
2886.00,0.0213
2885.00,0.0213
2884.00,0.0213
2883.00,0.0213
2882.00,0.0213
2881.00,0.0213
2880.00,0.0213
2879.00,0.0213
2878.00,0.0212
2877.00,0.0212
2876.00,0.0211
2875.00,0.0210
2874.00,0.0210
2873.00,0.0209
2872.00,0.0208
2871.00,0.0207
2870.00,0.0206
2869.00,0.0205
2868.00,0.0204
2867.00,0.0203
2866.00,0.0202
2865.00,0.0201
2864.00,0.0199
2863.00,0.0198
2862.00,0.0197
2861.00,0.0196
2860.00,0.0194
2859.00,0.0193
2858.00,0.0192
2857.00,0.0191
2856.00,0.0189
2855.00,0.0188
2854.00,0.0186
2853.00,0.0184
2852.00,0.0182
2851.00,0.0180
2850.00,0.0178
2849.00,0.0176
2848.00,0.0174
2847.00,0.0172
2846.00,0.0171
2845.00,0.0169
2844.00,0.0168
2843.00,0.0167
2842.00,0.0166
2841.00,0.0164
2840.00,0.0163
2839.00,0.0162
2838.00,0.0162
2837.00,0.0161
2836.00,0.0160
2835.00,0.0160
2834.00,0.0159
2833.00,0.0159
2832.00,0.0158
2831.00,0.0157
2830.00,0.0157
2829.00,0.0156
2828.00,0.0155
2827.00,0.0155
2826.00,0.0154
2825.00,0.0153
2824.00,0.0153
2823.00,0.0152
2822.00,0.0151
2821.00,0.0151
2820.00,0.0150
2819.00,0.0150
2818.00,0.0149
2817.00,0.0148
2816.00,0.0148
2815.00,0.0148
2814.00,0.0148
2813.00,0.0147
2812.00,0.0147
2811.00,0.0147
2810.00,0.0147
2809.00,0.0147
2808.00,0.0146
2807.00,0.0146
2806.00,0.0146
2805.00,0.0146
2804.00,0.0146
2803.00,0.0146
2802.00,0.0147
2801.00,0.0147
2800.00,0.0147
2799.00,0.0148
2798.00,0.0148
2797.00,0.0148
2796.00,0.0148
2795.00,0.0149
2794.00,0.0149
2793.00,0.0149
2792.00,0.0149
2791.00,0.0150
2790.00,0.0150
2789.00,0.0150
2788.00,0.0150
2787.00,0.0151
2786.00,0.0151
2785.00,0.0151
2784.00,0.0152
2783.00,0.0152
2782.00,0.0152
2781.00,0.0152
2780.00,0.0152
2779.00,0.0152
2778.00,0.0152
2777.00,0.0152
2776.00,0.0152
2775.00,0.0152
2774.00,0.0152
2773.00,0.0152
2772.00,0.0152
2771.00,0.0152
2770.00,0.0152
2769.00,0.0152
2768.00,0.0151
2767.00,0.0151
2766.00,0.0151
2765.00,0.0151
2764.00,0.0150
2763.00,0.0150
2762.00,0.0150
2761.00,0.0149
2760.00,0.0149
2759.00,0.0149
2758.00,0.0148
2757.00,0.0148
2756.00,0.0147
2755.00,0.0147
2754.00,0.0146
2753.00,0.0146
2752.00,0.0145
2751.00,0.0145
2750.00,0.0144
2749.00,0.0143
2748.00,0.0142
2747.00,0.0142
2746.00,0.0141
2745.00,0.0140
2744.00,0.0139
2743.00,0.0138
2742.00,0.0137
2741.00,0.0137
2740.00,0.0136
2739.00,0.0135
2738.00,0.0135
2737.00,0.0134
2736.00,0.0133
2735.00,0.0132
2734.00,0.0132
2733.00,0.0131
2732.00,0.0130
2731.00,0.0129
2730.00,0.0128
2729.00,0.0127
2728.00,0.0126
2727.00,0.0126
2726.00,0.0125
2725.00,0.0124
2724.00,0.0123
2723.00,0.0122
2722.00,0.0122
2721.00,0.0121
2720.00,0.0120
2719.00,0.0120
2718.00,0.0119
2717.00,0.0118
2716.00,0.0117
2715.00,0.0117
2714.00,0.0116
2713.00,0.0116
2712.00,0.0115
2711.00,0.0114
2710.00,0.0114
2709.00,0.0113
2708.00,0.0113
2707.00,0.0112
2706.00,0.0112
2705.00,0.0112
2704.00,0.0111
2703.00,0.0111
2702.00,0.0110
2701.00,0.0110
2700.00,0.0110
2699.00,0.0110
2698.00,0.0110
2697.00,0.0110
2696.00,0.0110
2695.00,0.0110
2694.00,0.0110
2693.00,0.0110
2692.00,0.0110
2691.00,0.0109
2690.00,0.0109
2689.00,0.0109
2688.00,0.0109
2687.00,0.0110
2686.00,0.0110
2685.00,0.0110
2684.00,0.0110
2683.00,0.0110
2682.00,0.0110
2681.00,0.0109
2680.00,0.0109
2679.00,0.0109
2678.00,0.0110
2677.00,0.0110
2676.00,0.0110
2675.00,0.0110
2674.00,0.0110
2673.00,0.0110
2672.00,0.0110
2671.00,0.0110
2670.00,0.0110
2669.00,0.0110
2668.00,0.0111
2667.00,0.0111
2666.00,0.0112
2665.00,0.0112
2664.00,0.0113
2663.00,0.0114
2662.00,0.0114
2661.00,0.0115
2660.00,0.0115
2659.00,0.0116
2658.00,0.0117
2657.00,0.0118
2656.00,0.0118
2655.00,0.0119
2654.00,0.0120
2653.00,0.0120
2652.00,0.0121
2651.00,0.0122
2650.00,0.0122
2649.00,0.0123
2648.00,0.0124
2647.00,0.0125
2646.00,0.0126
2645.00,0.0127
2644.00,0.0127
2643.00,0.0128
2642.00,0.0129
2641.00,0.0130
2640.00,0.0131
2639.00,0.0131
2638.00,0.0132
2637.00,0.0133
2636.00,0.0134
2635.00,0.0135
2634.00,0.0136
2633.00,0.0137
2632.00,0.0139
2631.00,0.0140
2630.00,0.0141
2629.00,0.0142
2628.00,0.0142
2627.00,0.0143
2626.00,0.0144
2625.00,0.0145
2624.00,0.0146
2623.00,0.0147
2622.00,0.0148
2621.00,0.0148
2620.00,0.0149
2619.00,0.0150
2618.00,0.0150
2617.00,0.0151
2616.00,0.0151
2615.00,0.0152
2614.00,0.0153
2613.00,0.0153
2612.00,0.0154
2611.00,0.0154
2610.00,0.0155
2609.00,0.0155
2608.00,0.0155
2607.00,0.0156
2606.00,0.0156
2605.00,0.0156
2604.00,0.0156
2603.00,0.0156
2602.00,0.0156
2601.00,0.0156
2600.00,0.0156
2599.00,0.0155
2598.00,0.0155
2597.00,0.0155
2596.00,0.0155
2595.00,0.0155
2594.00,0.0155
2593.00,0.0154
2592.00,0.0154
2591.00,0.0154
2590.00,0.0154
2589.00,0.0154
2588.00,0.0154
2587.00,0.0153
2586.00,0.0153
2585.00,0.0152
2584.00,0.0151
2583.00,0.0151
2582.00,0.0150
2581.00,0.0150
2580.00,0.0150
2579.00,0.0149
2578.00,0.0149
2577.00,0.0148
2576.00,0.0148
2575.00,0.0148
2574.00,0.0148
2573.00,0.0148
2572.00,0.0148
2571.00,0.0147
2570.00,0.0147
2569.00,0.0146
2568.00,0.0145
2567.00,0.0145
2566.00,0.0144
2565.00,0.0144
2564.00,0.0144
2563.00,0.0144
2562.00,0.0144
2561.00,0.0144
2560.00,0.0144
2559.00,0.0143
2558.00,0.0143
2557.00,0.0142
2556.00,0.0142
2555.00,0.0141
2554.00,0.0141
2553.00,0.0140
2552.00,0.0140
2551.00,0.0140
2550.00,0.0140
2549.00,0.0140
2548.00,0.0140
2547.00,0.0141
2546.00,0.0141
2545.00,0.0140
2544.00,0.0140
2543.00,0.0140
2542.00,0.0140
2541.00,0.0141
2540.00,0.0141
2539.00,0.0142
2538.00,0.0142
2537.00,0.0142
2536.00,0.0142
2535.00,0.0143
2534.00,0.0143
2533.00,0.0144
2532.00,0.0144
2531.00,0.0145
2530.00,0.0145
2529.00,0.0145
2528.00,0.0145
2527.00,0.0145
2526.00,0.0145
2525.00,0.0146
2524.00,0.0146
2523.00,0.0147
2522.00,0.0147
2521.00,0.0147
2520.00,0.0148
2519.00,0.0148
2518.00,0.0149
2517.00,0.0149
2516.00,0.0149
2515.00,0.0149
2514.00,0.0148
2513.00,0.0148
2512.00,0.0148
2511.00,0.0148
2510.00,0.0148
2509.00,0.0148
2508.00,0.0148
2507.00,0.0149
2506.00,0.0149
2505.00,0.0150
2504.00,0.0151
2503.00,0.0151
2502.00,0.0151
2501.00,0.0151
2500.00,0.0151
2499.00,0.0151
2498.00,0.0151
2497.00,0.0151
2496.00,0.0151
2495.00,0.0151
2494.00,0.0151
2493.00,0.0152
2492.00,0.0153
2491.00,0.0153
2490.00,0.0154
2489.00,0.0154
2488.00,0.0154
2487.00,0.0154
2486.00,0.0154
2485.00,0.0154
2484.00,0.0154
2483.00,0.0154
2482.00,0.0154
2481.00,0.0154
2480.00,0.0154
2479.00,0.0153
2478.00,0.0153
2477.00,0.0153
2476.00,0.0153
2475.00,0.0153
2474.00,0.0153
2473.00,0.0152
2472.00,0.0152
2471.00,0.0152
2470.00,0.0152
2469.00,0.0152
2468.00,0.0152
2467.00,0.0152
2466.00,0.0151
2465.00,0.0151
2464.00,0.0150
2463.00,0.0149
2462.00,0.0148
2461.00,0.0148
2460.00,0.0148
2459.00,0.0147
2458.00,0.0147
2457.00,0.0147
2456.00,0.0147
2455.00,0.0146
2454.00,0.0146
2453.00,0.0145
2452.00,0.0144
2451.00,0.0144
2450.00,0.0143
2449.00,0.0143
2448.00,0.0142
2447.00,0.0142
2446.00,0.0141
2445.00,0.0140
2444.00,0.0139
2443.00,0.0139
2442.00,0.0138
2441.00,0.0137
2440.00,0.0137
2439.00,0.0136
2438.00,0.0135
2437.00,0.0134
2436.00,0.0133
2435.00,0.0132
2434.00,0.0131
2433.00,0.0131
2432.00,0.0130
2431.00,0.0129
2430.00,0.0128
2429.00,0.0128
2428.00,0.0127
2427.00,0.0127
2426.00,0.0126
2425.00,0.0126
2424.00,0.0125
2423.00,0.0125
2422.00,0.0124
2421.00,0.0124
2420.00,0.0124
2419.00,0.0123
2418.00,0.0122
2417.00,0.0122
2416.00,0.0121
2415.00,0.0121
2414.00,0.0121
2413.00,0.0120
2412.00,0.0120
2411.00,0.0120
2410.00,0.0119
2409.00,0.0119
2408.00,0.0118
2407.00,0.0118
2406.00,0.0117
2405.00,0.0116
2404.00,0.0116
2403.00,0.0115
2402.00,0.0115
2401.00,0.0114
2400.00,0.0114
2399.00,0.0113
2398.00,0.0113
2397.00,0.0112
2396.00,0.0111
2395.00,0.0110
2394.00,0.0110
2393.00,0.0109
2392.00,0.0109
2391.00,0.0109
2390.00,0.0109
2389.00,0.0108
2388.00,0.0107
2387.00,0.0107
2386.00,0.0106
2385.00,0.0105
2384.00,0.0104
2383.00,0.0103
2382.00,0.0102
2381.00,0.0102
2380.00,0.0101
2379.00,0.0100
2378.00,0.0100
2377.00,0.0100
2376.00,0.0099
2375.00,0.0099
2374.00,0.0099
2373.00,0.0099
2372.00,0.0098
2371.00,0.0098
2370.00,0.0096
2369.00,0.0095
2368.00,0.0095
2367.00,0.0095
2366.00,0.0094
2365.00,0.0094
2364.00,0.0094
2363.00,0.0094
2362.00,0.0093
2361.00,0.0093
2360.00,0.0093
2359.00,0.0092
2358.00,0.0091
2357.00,0.0090
2356.00,0.0089
2355.00,0.0088
2354.00,0.0087
2353.00,0.0087
2352.00,0.0087
2351.00,0.0088
2350.00,0.0089
2349.00,0.0090
2348.00,0.0090
2347.00,0.0089
2346.00,0.0089
2345.00,0.0090
2344.00,0.0090
2343.00,0.0089
2342.00,0.0088
2341.00,0.0088
2340.00,0.0087
2339.00,0.0087
2338.00,0.0086
2337.00,0.0086
2336.00,0.0086
2335.00,0.0086
2334.00,0.0085
2333.00,0.0084
2332.00,0.0083
2331.00,0.0083
2330.00,0.0083
2329.00,0.0084
2328.00,0.0086
2327.00,0.0089
2326.00,0.0092
2325.00,0.0093
2324.00,0.0092
2323.00,0.0090
2322.00,0.0087
2321.00,0.0086
2320.00,0.0085
2319.00,0.0085
2318.00,0.0085
2317.00,0.0084
2316.00,0.0083
2315.00,0.0082
2314.00,0.0080
2313.00,0.0079
2312.00,0.0078
2311.00,0.0078
2310.00,0.0078
2309.00,0.0078
2308.00,0.0078
2307.00,0.0078
2306.00,0.0078
2305.00,0.0078
2304.00,0.0078
2303.00,0.0078
2302.00,0.0078
2301.00,0.0078
2300.00,0.0078
2299.00,0.0078
2298.00,0.0079
2297.00,0.0079
2296.00,0.0079
2295.00,0.0080
2294.00,0.0080
2293.00,0.0080
2292.00,0.0080
2291.00,0.0081
2290.00,0.0080
2289.00,0.0080
2288.00,0.0080
2287.00,0.0079
2286.00,0.0078
2285.00,0.0078
2284.00,0.0077
2283.00,0.0077
2282.00,0.0076
2281.00,0.0075
2280.00,0.0075
2279.00,0.0074
2278.00,0.0073
2277.00,0.0073
2276.00,0.0072
2275.00,0.0071
2274.00,0.0070
2273.00,0.0069
2272.00,0.0070
2271.00,0.0070
2270.00,0.0070
2269.00,0.0069
2268.00,0.0068
2267.00,0.0067
2266.00,0.0066
2265.00,0.0066
2264.00,0.0066
2263.00,0.0065
2262.00,0.0065
2261.00,0.0065
2260.00,0.0065
2259.00,0.0066
2258.00,0.0065
2257.00,0.0065
2256.00,0.0064
2255.00,0.0064
2254.00,0.0063
2253.00,0.0063
2252.00,0.0063
2251.00,0.0063
2250.00,0.0064
2249.00,0.0064
2248.00,0.0064
2247.00,0.0063
2246.00,0.0061
2245.00,0.0060
2244.00,0.0059
2243.00,0.0059
2242.00,0.0059
2241.00,0.0059
2240.00,0.0059
2239.00,0.0059
2238.00,0.0059
2237.00,0.0059
2236.00,0.0059
2235.00,0.0059
2234.00,0.0059
2233.00,0.0060
2232.00,0.0060
2231.00,0.0059
2230.00,0.0058
2229.00,0.0057
2228.00,0.0056
2227.00,0.0056
2226.00,0.0056
2225.00,0.0056
2224.00,0.0057
2223.00,0.0057
2222.00,0.0056
2221.00,0.0055
2220.00,0.0055
2219.00,0.0055
2218.00,0.0056
2217.00,0.0056
2216.00,0.0056
2215.00,0.0054
2214.00,0.0053
2213.00,0.0052
2212.00,0.0052
2211.00,0.0053
2210.00,0.0053
2209.00,0.0053
2208.00,0.0053
2207.00,0.0052
2206.00,0.0052
2205.00,0.0052
2204.00,0.0052
2203.00,0.0053
2202.00,0.0053
2201.00,0.0054
2200.00,0.0055
2199.00,0.0055
2198.00,0.0055
2197.00,0.0054
2196.00,0.0054
2195.00,0.0053
2194.00,0.0052
2193.00,0.0051
2192.00,0.0051
2191.00,0.0051
2190.00,0.0052
2189.00,0.0053
2188.00,0.0055
2187.00,0.0056
2186.00,0.0055
2185.00,0.0052
2184.00,0.0049
2183.00,0.0046
2182.00,0.0043
2181.00,0.0042
2180.00,0.0041
2179.00,0.0042
2178.00,0.0041
2177.00,0.0041
2176.00,0.0042
2175.00,0.0044
2174.00,0.0045
2173.00,0.0047
2172.00,0.0048
2171.00,0.0048
2170.00,0.0048
2169.00,0.0048
2168.00,0.0048
2167.00,0.0047
2166.00,0.0046
2165.00,0.0047
2164.00,0.0050
2163.00,0.0051
2162.00,0.0048
2161.00,0.0041
2160.00,0.0030
2159.00,0.0020
2158.00,0.0014
2157.00,0.0014
2156.00,0.0016
2155.00,0.0018
2154.00,0.0019
2153.00,0.0020
2152.00,0.0022
2151.00,0.0023
2150.00,0.0024
2149.00,0.0024
2148.00,0.0026
2147.00,0.0027
2146.00,0.0027
2145.00,0.0027
2144.00,0.0028
2143.00,0.0029
2142.00,0.0030
2141.00,0.0031
2140.00,0.0032
2139.00,0.0033
2138.00,0.0032
2137.00,0.0031
2136.00,0.0029
2135.00,0.0026
2134.00,0.0025
2133.00,0.0026
2132.00,0.0027
2131.00,0.0029
2130.00,0.0030
2129.00,0.0031
2128.00,0.0032
2127.00,0.0034
2126.00,0.0035
2125.00,0.0036
2124.00,0.0037
2123.00,0.0037
2122.00,0.0038
2121.00,0.0038
2120.00,0.0038
2119.00,0.0039
2118.00,0.0040
2117.00,0.0041
2116.00,0.0042
2115.00,0.0043
2114.00,0.0043
2113.00,0.0042
2112.00,0.0042
2111.00,0.0042
2110.00,0.0042
2109.00,0.0042
2108.00,0.0043
2107.00,0.0044
2106.00,0.0045
2105.00,0.0045
2104.00,0.0045
2103.00,0.0045
2102.00,0.0046
2101.00,0.0046
2100.00,0.0046
2099.00,0.0045
2098.00,0.0044
2097.00,0.0042
2096.00,0.0040
2095.00,0.0038
2094.00,0.0038
2093.00,0.0039
2092.00,0.0040
2091.00,0.0042
2090.00,0.0043
2089.00,0.0043
2088.00,0.0044
2087.00,0.0043
2086.00,0.0043
2085.00,0.0044
2084.00,0.0046
2083.00,0.0047
2082.00,0.0048
2081.00,0.0049
2080.00,0.0049
2079.00,0.0048
2078.00,0.0046
2077.00,0.0046
2076.00,0.0046
2075.00,0.0046
2074.00,0.0046
2073.00,0.0045
2072.00,0.0046
2071.00,0.0047
2070.00,0.0048
2069.00,0.0049
2068.00,0.0050
2067.00,0.0051
2066.00,0.0050
2065.00,0.0048
2064.00,0.0047
2063.00,0.0046
2062.00,0.0047
2061.00,0.0048
2060.00,0.0050
2059.00,0.0051
2058.00,0.0052
2057.00,0.0052
2056.00,0.0051
2055.00,0.0051
2054.00,0.0052
2053.00,0.0055
2052.00,0.0059
2051.00,0.0062
2050.00,0.0060
2049.00,0.0057
2048.00,0.0054
2047.00,0.0052
2046.00,0.0052
2045.00,0.0053
2044.00,0.0055
2043.00,0.0056
2042.00,0.0056
2041.00,0.0056
2040.00,0.0057
2039.00,0.0058
2038.00,0.0060
2037.00,0.0061
2036.00,0.0063
2035.00,0.0063
2034.00,0.0061
2033.00,0.0058
2032.00,0.0056
2031.00,0.0056
2030.00,0.0056
2029.00,0.0057
2028.00,0.0057
2027.00,0.0056
2026.00,0.0055
2025.00,0.0055
2024.00,0.0057
2023.00,0.0058
2022.00,0.0058
2021.00,0.0059
2020.00,0.0060
2019.00,0.0061
2018.00,0.0061
2017.00,0.0061
2016.00,0.0061
2015.00,0.0061
2014.00,0.0059
2013.00,0.0058
2012.00,0.0058
2011.00,0.0059
2010.00,0.0059
2009.00,0.0060
2008.00,0.0060
2007.00,0.0059
2006.00,0.0056
2005.00,0.0054
2004.00,0.0054
2003.00,0.0055
2002.00,0.0055
2001.00,0.0056
2000.00,0.0057
1999.00,0.0059
1998.00,0.0061
1997.00,0.0063
1996.00,0.0066
1995.00,0.0069
1994.00,0.0070
1993.00,0.0071
1992.00,0.0072
1991.00,0.0072
1990.00,0.0072
1989.00,0.0071
1988.00,0.0072
1987.00,0.0073
1986.00,0.0074
1985.00,0.0074
1984.00,0.0075
1983.00,0.0076
1982.00,0.0078
1981.00,0.0078
1980.00,0.0078
1979.00,0.0074
1978.00,0.0069
1977.00,0.0066
1976.00,0.0065
1975.00,0.0065
1974.00,0.0065
1973.00,0.0065
1972.00,0.0066
1971.00,0.0068
1970.00,0.0070
1969.00,0.0072
1968.00,0.0074
1967.00,0.0073
1966.00,0.0070
1965.00,0.0066
1964.00,0.0065
1963.00,0.0066
1962.00,0.0066
1961.00,0.0066
1960.00,0.0065
1959.00,0.0064
1958.00,0.0063
1957.00,0.0065
1956.00,0.0068
1955.00,0.0070
1954.00,0.0070
1953.00,0.0070
1952.00,0.0070
1951.00,0.0072
1950.00,0.0073
1949.00,0.0075
1948.00,0.0076
1947.00,0.0077
1946.00,0.0076
1945.00,0.0076
1944.00,0.0076
1943.00,0.0076
1942.00,0.0075
1941.00,0.0074
1940.00,0.0073
1939.00,0.0073
1938.00,0.0072
1937.00,0.0071
1936.00,0.0071
1935.00,0.0070
1934.00,0.0070
1933.00,0.0069
1932.00,0.0069
1931.00,0.0069
1930.00,0.0070
1929.00,0.0070
1928.00,0.0070
1927.00,0.0070
1926.00,0.0070
1925.00,0.0071
1924.00,0.0072
1923.00,0.0073
1922.00,0.0072
1921.00,0.0070
1920.00,0.0068
1919.00,0.0067
1918.00,0.0068
1917.00,0.0069
1916.00,0.0069
1915.00,0.0069
1914.00,0.0068
1913.00,0.0067
1912.00,0.0067
1911.00,0.0067
1910.00,0.0067
1909.00,0.0066
1908.00,0.0066
1907.00,0.0065
1906.00,0.0063
1905.00,0.0061
1904.00,0.0061
1903.00,0.0061
1902.00,0.0060
1901.00,0.0059
1900.00,0.0059
1899.00,0.0059
1898.00,0.0059
1897.00,0.0059
1896.00,0.0060
1895.00,0.0061
1894.00,0.0061
1893.00,0.0060
1892.00,0.0059
1891.00,0.0059
1890.00,0.0058
1889.00,0.0058
1888.00,0.0058
1887.00,0.0058
1886.00,0.0057
1885.00,0.0057
1884.00,0.0056
1883.00,0.0056
1882.00,0.0055
1881.00,0.0055
1880.00,0.0055
1879.00,0.0055
1878.00,0.0054
1877.00,0.0053
1876.00,0.0053
1875.00,0.0054
1874.00,0.0054
1873.00,0.0055
1872.00,0.0055
1871.00,0.0055
1870.00,0.0055
1869.00,0.0056
1868.00,0.0057
1867.00,0.0056
1866.00,0.0054
1865.00,0.0052
1864.00,0.0051
1863.00,0.0051
1862.00,0.0051
1861.00,0.0051
1860.00,0.0051
1859.00,0.0050
1858.00,0.0050
1857.00,0.0049
1856.00,0.0049
1855.00,0.0049
1854.00,0.0050
1853.00,0.0050
1852.00,0.0051
1851.00,0.0051
1850.00,0.0051
1849.00,0.0051
1848.00,0.0052
1847.00,0.0053
1846.00,0.0053
1845.00,0.0053
1844.00,0.0052
1843.00,0.0052
1842.00,0.0052
1841.00,0.0057
1840.00,0.0056
1839.00,0.0057
1838.00,0.0057
1837.00,0.0057
1836.00,0.0057
1835.00,0.0057
1834.00,0.0057
1833.00,0.0055
1832.00,0.0054
1831.00,0.0054
1830.00,0.0056
1829.00,0.0057
1828.00,0.0057
1827.00,0.0056
1826.00,0.0055
1825.00,0.0055
1824.00,0.0055
1823.00,0.0054
1822.00,0.0052
1821.00,0.0051
1820.00,0.0050
1819.00,0.0049
1818.00,0.0048
1817.00,0.0048
1816.00,0.0048
1815.00,0.0050
1814.00,0.0051
1813.00,0.0052
1812.00,0.0054
1811.00,0.0055
1810.00,0.0056
1809.00,0.0057
1808.00,0.0057
1807.00,0.0058
1806.00,0.0060
1805.00,0.0062
1804.00,0.0065
1803.00,0.0069
1802.00,0.0071
1801.00,0.0072
1800.00,0.0075
1799.00,0.0078
1798.00,0.0082
1797.00,0.0086
1796.00,0.0089
1795.00,0.0089
1794.00,0.0090
1793.00,0.0094
1792.00,0.0101
1791.00,0.0106
1790.00,0.0109
1789.00,0.0112
1788.00,0.0115
1787.00,0.0120
1786.00,0.0127
1785.00,0.0136
1784.00,0.0146
1783.00,0.0158
1782.00,0.0172
1781.00,0.0191
1780.00,0.0214
1779.00,0.0240
1778.00,0.0270
1777.00,0.0304
1776.00,0.0341
1775.00,0.0378
1774.00,0.0416
1773.00,0.0459
1772.00,0.0506
1771.00,0.0549
1770.00,0.0583
1769.00,0.0611
1768.00,0.0633
1767.00,0.0648
1766.00,0.0655
1765.00,0.0654
1764.00,0.0647
1763.00,0.0634
1762.00,0.0616
1761.00,0.0598
1760.00,0.0583
1759.00,0.0570
1758.00,0.0559
1757.00,0.0551
1756.00,0.0545
1755.00,0.0541
1754.00,0.0537
1753.00,0.0531
1752.00,0.0520
1751.00,0.0501
1750.00,0.0476
1749.00,0.0448
1748.00,0.0420
1747.00,0.0393
1746.00,0.0369
1745.00,0.0347
1744.00,0.0326
1743.00,0.0307
1742.00,0.0289
1741.00,0.0275
1740.00,0.0268
1739.00,0.0266
1738.00,0.0265
1737.00,0.0263
1736.00,0.0262
1735.00,0.0268
1734.00,0.0281
1733.00,0.0294
1732.00,0.0304
1731.00,0.0314
1730.00,0.0327
1729.00,0.0344
1728.00,0.0365
1727.00,0.0389
1726.00,0.0415
1725.00,0.0443
1724.00,0.0475
1723.00,0.0510
1722.00,0.0545
1721.00,0.0582
1720.00,0.0621
1719.00,0.0669
1718.00,0.0721
1717.00,0.0770
1716.00,0.0811
1715.00,0.0849
1714.00,0.0883
1713.00,0.0914
1712.00,0.0940
1711.00,0.0960
1710.00,0.0974
1709.00,0.0979
1708.00,0.0975
1707.00,0.0965
1706.00,0.0947
1705.00,0.0924
1704.00,0.0900
1703.00,0.0875
1702.00,0.0843
1701.00,0.0805
1700.00,0.0768
1699.00,0.0741
1698.00,0.0721
1697.00,0.0698
1696.00,0.0672
1695.00,0.0651
1694.00,0.0637
1693.00,0.0632
1692.00,0.0633
1691.00,0.0640
1690.00,0.0651
1689.00,0.0666
1688.00,0.0683
1687.00,0.0701
1686.00,0.0720
1685.00,0.0745
1684.00,0.0776
1683.00,0.0808
1682.00,0.0838
1681.00,0.0866
1680.00,0.0894
1679.00,0.0918
1678.00,0.0936
1677.00,0.0951
1676.00,0.0964
1675.00,0.0977
1674.00,0.0986
1673.00,0.0992
1672.00,0.0994
1671.00,0.0991
1670.00,0.0982
1669.00,0.0971
1668.00,0.0963
1667.00,0.0959
1666.00,0.0956
1665.00,0.0953
1664.00,0.0952
1663.00,0.0954
1662.00,0.0957
1661.00,0.0963
1660.00,0.0971
1659.00,0.0981
1658.00,0.0992
1657.00,0.1004
1656.00,0.1014
1655.00,0.1019
1654.00,0.1019
1653.00,0.1017
1652.00,0.1019
1651.00,0.1025
1650.00,0.1031
1649.00,0.1037
1648.00,0.1042
1647.00,0.1043
1646.00,0.1044
1645.00,0.1049
1644.00,0.1060
1643.00,0.1074
1642.00,0.1090
1641.00,0.1108
1640.00,0.1130
1639.00,0.1153
1638.00,0.1176
1637.00,0.1199
1636.00,0.1222
1635.00,0.1251
1634.00,0.1282
1633.00,0.1316
1632.00,0.1349
1631.00,0.1381
1630.00,0.1408
1629.00,0.1432
1628.00,0.1453
1627.00,0.1470
1626.00,0.1481
1625.00,0.1485
1624.00,0.1480
1623.00,0.1468
1622.00,0.1449
1621.00,0.1428
1620.00,0.1406
1619.00,0.1376
1618.00,0.1331
1617.00,0.1269
1616.00,0.1203
1615.00,0.1147
1614.00,0.1107
1613.00,0.1083
1612.00,0.1078
1611.00,0.1101
1610.00,0.1158
1609.00,0.1247
1608.00,0.1357
1607.00,0.1465
1606.00,0.1542
1605.00,0.1567
1604.00,0.1536
1603.00,0.1459
1602.00,0.1356
1601.00,0.1249
1600.00,0.1151
1599.00,0.1067
1598.00,0.0995
1597.00,0.0932
1596.00,0.0877
1595.00,0.0825
1594.00,0.0778
1593.00,0.0734
1592.00,0.0694
1591.00,0.0659
1590.00,0.0628
1589.00,0.0601
1588.00,0.0578
1587.00,0.0558
1586.00,0.0542
1585.00,0.0529
1584.00,0.0517
1583.00,0.0507
1582.00,0.0497
1581.00,0.0488
1580.00,0.0480
1579.00,0.0472
1578.00,0.0461
1577.00,0.0446
1576.00,0.0428
1575.00,0.0409
1574.00,0.0390
1573.00,0.0371
1572.00,0.0351
1571.00,0.0331
1570.00,0.0315
1569.00,0.0302
1568.00,0.0291
1567.00,0.0280
1566.00,0.0270
1565.00,0.0263
1564.00,0.0258
1563.00,0.0252
1562.00,0.0243
1561.00,0.0229
1560.00,0.0222
1559.00,0.0218
1558.00,0.0216
1557.00,0.0217
1556.00,0.0215
1555.00,0.0211
1554.00,0.0209
1553.00,0.0207
1552.00,0.0204
1551.00,0.0201
1550.00,0.0197
1549.00,0.0192
1548.00,0.0188
1547.00,0.0185
1546.00,0.0185
1545.00,0.0184
1544.00,0.0181
1543.00,0.0175
1542.00,0.0170
1541.00,0.0166
1540.00,0.0164
1539.00,0.0165
1538.00,0.0165
1537.00,0.0161
1536.00,0.0155
1535.00,0.0150
1534.00,0.0150
1533.00,0.0151
1532.00,0.0152
1531.00,0.0152
1530.00,0.0151
1529.00,0.0150
1528.00,0.0150
1527.00,0.0150
1526.00,0.0150
1525.00,0.0149
1524.00,0.0148
1523.00,0.0148
1522.00,0.0149
1521.00,0.0152
1520.00,0.0152
1519.00,0.0151
1518.00,0.0150
1517.00,0.0152
1516.00,0.0153
1515.00,0.0154
1514.00,0.0154
1513.00,0.0157
1512.00,0.0164
1511.00,0.0172
1510.00,0.0180
1509.00,0.0186
1508.00,0.0188
1507.00,0.0188
1506.00,0.0192
1505.00,0.0204
1504.00,0.0215
1503.00,0.0225
1502.00,0.0235
1501.00,0.0247
1500.00,0.0260
1499.00,0.0275
1498.00,0.0291
1497.00,0.0305
1496.00,0.0317
1495.00,0.0324
1494.00,0.0329
1493.00,0.0334
1492.00,0.0341
1491.00,0.0354
1490.00,0.0371
1489.00,0.0390
1488.00,0.0412
1487.00,0.0434
1486.00,0.0451
1485.00,0.0457
1484.00,0.0447
1483.00,0.0423
1482.00,0.0388
1481.00,0.0351
1480.00,0.0317
1479.00,0.0290
1478.00,0.0273
1477.00,0.0265
1476.00,0.0265
1475.00,0.0269
1474.00,0.0279
1473.00,0.0297
1472.00,0.0324
1471.00,0.0356
1470.00,0.0389
1469.00,0.0424
1468.00,0.0459
1467.00,0.0494
1466.00,0.0527
1465.00,0.0558
1464.00,0.0583
1463.00,0.0602
1462.00,0.0616
1461.00,0.0628
1460.00,0.0639
1459.00,0.0649
1458.00,0.0654
1457.00,0.0652
1456.00,0.0645
1455.00,0.0636
1454.00,0.0627
1453.00,0.0622
1452.00,0.0620
1451.00,0.0621
1450.00,0.0625
1449.00,0.0628
1448.00,0.0627
1447.00,0.0621
1446.00,0.0613
1445.00,0.0603
1444.00,0.0593
1443.00,0.0583
1442.00,0.0573
1441.00,0.0565
1440.00,0.0557
1439.00,0.0550
1438.00,0.0543
1437.00,0.0538
1436.00,0.0534
1435.00,0.0532
1434.00,0.0532
1433.00,0.0533
1432.00,0.0535
1431.00,0.0541
1430.00,0.0551
1429.00,0.0566
1428.00,0.0586
1427.00,0.0612
1426.00,0.0640
1425.00,0.0669
1424.00,0.0693
1423.00,0.0705
1422.00,0.0706
1421.00,0.0694
1420.00,0.0666
1419.00,0.0623
1418.00,0.0574
1417.00,0.0527
1416.00,0.0483
1415.00,0.0444
1414.00,0.0410
1413.00,0.0380
1412.00,0.0354
1411.00,0.0332
1410.00,0.0313
1409.00,0.0297
1408.00,0.0284
1407.00,0.0274
1406.00,0.0266
1405.00,0.0259
1404.00,0.0252
1403.00,0.0246
1402.00,0.0242
1401.00,0.0239
1400.00,0.0237
1399.00,0.0237
1398.00,0.0237
1397.00,0.0235
1396.00,0.0233
1395.00,0.0230
1394.00,0.0229
1393.00,0.0229
1392.00,0.0231
1391.00,0.0233
1390.00,0.0238
1389.00,0.0244
1388.00,0.0251
1387.00,0.0257
1386.00,0.0263
1385.00,0.0270
1384.00,0.0277
1383.00,0.0288
1382.00,0.0301
1381.00,0.0317
1380.00,0.0335
1379.00,0.0355
1378.00,0.0379
1377.00,0.0405
1376.00,0.0434
1375.00,0.0467
1374.00,0.0501
1373.00,0.0535
1372.00,0.0568
1371.00,0.0599
1370.00,0.0627
1369.00,0.0648
1368.00,0.0660
1367.00,0.0662
1366.00,0.0655
1365.00,0.0637
1364.00,0.0607
1363.00,0.0564
1362.00,0.0513
1361.00,0.0461
1360.00,0.0413
1359.00,0.0371
1358.00,0.0337
1357.00,0.0308
1356.00,0.0283
1355.00,0.0263
1354.00,0.0247
1353.00,0.0234
1352.00,0.0224
1351.00,0.0216
1350.00,0.0209
1349.00,0.0204
1348.00,0.0199
1347.00,0.0195
1346.00,0.0193
1345.00,0.0191
1344.00,0.0191
1343.00,0.0193
1342.00,0.0197
1341.00,0.0202
1340.00,0.0205
1339.00,0.0205
1338.00,0.0205
1337.00,0.0204
1336.00,0.0204
1335.00,0.0206
1334.00,0.0210
1333.00,0.0215
1332.00,0.0221
1331.00,0.0228
1330.00,0.0237
1329.00,0.0246
1328.00,0.0257
1327.00,0.0268
1326.00,0.0281
1325.00,0.0293
1324.00,0.0306
1323.00,0.0319
1322.00,0.0331
1321.00,0.0343
1320.00,0.0352
1319.00,0.0360
1318.00,0.0365
1317.00,0.0369
1316.00,0.0371
1315.00,0.0372
1314.00,0.0373
1313.00,0.0374
1312.00,0.0376
1311.00,0.0378
1310.00,0.0383
1309.00,0.0391
1308.00,0.0402
1307.00,0.0414
1306.00,0.0430
1305.00,0.0449
1304.00,0.0472
1303.00,0.0498
1302.00,0.0529
1301.00,0.0563
1300.00,0.0603
1299.00,0.0647
1298.00,0.0696
1297.00,0.0748
1296.00,0.0803
1295.00,0.0858
1294.00,0.0914
1293.00,0.0967
1292.00,0.1018
1291.00,0.1066
1290.00,0.1109
1289.00,0.1149
1288.00,0.1182
1287.00,0.1209
1286.00,0.1229
1285.00,0.1243
1284.00,0.1251
1283.00,0.1254
1282.00,0.1254
1281.00,0.1254
1280.00,0.1255
1279.00,0.1258
1278.00,0.1264
1277.00,0.1273
1276.00,0.1283
1275.00,0.1292
1274.00,0.1299
1273.00,0.1300
1272.00,0.1294
1271.00,0.1279
1270.00,0.1254
1269.00,0.1222
1268.00,0.1184
1267.00,0.1144
1266.00,0.1105
1265.00,0.1070
1264.00,0.1041
1263.00,0.1018
1262.00,0.1002
1261.00,0.0994
1260.00,0.0993
1259.00,0.0999
1258.00,0.1012
1257.00,0.1033
1256.00,0.1060
1255.00,0.1091
1254.00,0.1126
1253.00,0.1162
1252.00,0.1199
1251.00,0.1233
1250.00,0.1265
1249.00,0.1292
1248.00,0.1314
1247.00,0.1331
1246.00,0.1343
1245.00,0.1352
1244.00,0.1356
1243.00,0.1358
1242.00,0.1357
1241.00,0.1354
1240.00,0.1349
1239.00,0.1344
1238.00,0.1337
1237.00,0.1330
1236.00,0.1322
1235.00,0.1313
1234.00,0.1304
1233.00,0.1296
1232.00,0.1288
1231.00,0.1282
1230.00,0.1277
1229.00,0.1275
1228.00,0.1276
1227.00,0.1283
1226.00,0.1295
1225.00,0.1312
1224.00,0.1335
1223.00,0.1362
1222.00,0.1392
1221.00,0.1422
1220.00,0.1448
1219.00,0.1467
1218.00,0.1476
1217.00,0.1472
1216.00,0.1457
1215.00,0.1432
1214.00,0.1402
1213.00,0.1372
1212.00,0.1346
1211.00,0.1328
1210.00,0.1321
1209.00,0.1326
1208.00,0.1344
1207.00,0.1373
1206.00,0.1413
1205.00,0.1463
1204.00,0.1523
1203.00,0.1592
1202.00,0.1670
1201.00,0.1757
1200.00,0.1853
1199.00,0.1959
1198.00,0.2074
1197.00,0.2199
1196.00,0.2333
1195.00,0.2476
1194.00,0.2625
1193.00,0.2777
1192.00,0.2928
1191.00,0.3069
1190.00,0.3193
1189.00,0.3291
1188.00,0.3351
1187.00,0.3367
1186.00,0.3334
1185.00,0.3255
1184.00,0.3136
1183.00,0.2985
1182.00,0.2815
1181.00,0.2635
1180.00,0.2455
1179.00,0.2282
1178.00,0.2120
1177.00,0.1972
1176.00,0.1839
1175.00,0.1721
1174.00,0.1616
1173.00,0.1523
1172.00,0.1441
1171.00,0.1368
1170.00,0.1306
1169.00,0.1254
1168.00,0.1213
1167.00,0.1184
1166.00,0.1167
1165.00,0.1162
1164.00,0.1168
1163.00,0.1182
1162.00,0.1202
1161.00,0.1222
1160.00,0.1236
1159.00,0.1239
1158.00,0.1226
1157.00,0.1197
1156.00,0.1150
1155.00,0.1091
1154.00,0.1024
1153.00,0.0955
1152.00,0.0889
1151.00,0.0829
1150.00,0.0777
1149.00,0.0734
1148.00,0.0699
1147.00,0.0674
1146.00,0.0659
1145.00,0.0653
1144.00,0.0656
1143.00,0.0668
1142.00,0.0688
1141.00,0.0711
1140.00,0.0735
1139.00,0.0755
1138.00,0.0769
1137.00,0.0776
1136.00,0.0776
1135.00,0.0773
1134.00,0.0770
1133.00,0.0769
1132.00,0.0770
1131.00,0.0772
1130.00,0.0771
1129.00,0.0765
1128.00,0.0751
1127.00,0.0729
1126.00,0.0701
1125.00,0.0668
1124.00,0.0634
1123.00,0.0600
1122.00,0.0569
1121.00,0.0540
1120.00,0.0514
1119.00,0.0491
1118.00,0.0471
1117.00,0.0455
1116.00,0.0439
1115.00,0.0426
1114.00,0.0414
1113.00,0.0404
1112.00,0.0394
1111.00,0.0385
1110.00,0.0378
1109.00,0.0371
1108.00,0.0365
1107.00,0.0360
1106.00,0.0357
1105.00,0.0354
1104.00,0.0353
1103.00,0.0355
1102.00,0.0358
1101.00,0.0365
1100.00,0.0376
1099.00,0.0391
1098.00,0.0413
1097.00,0.0439
1096.00,0.0470
1095.00,0.0503
1094.00,0.0535
1093.00,0.0561
1092.00,0.0580
1091.00,0.0597
1090.00,0.0615
1089.00,0.0643
1088.00,0.0683
1087.00,0.0740
1086.00,0.0812
1085.00,0.0897
1084.00,0.0986
1083.00,0.1073
1082.00,0.1146
1081.00,0.1197
1080.00,0.1217
1079.00,0.1205
1078.00,0.1167
1077.00,0.1108
1076.00,0.1037
1075.00,0.0961
1074.00,0.0885
1073.00,0.0813
1072.00,0.0746
1071.00,0.0688
1070.00,0.0638
1069.00,0.0595
1068.00,0.0559
1067.00,0.0528
1066.00,0.0503
1065.00,0.0482
1064.00,0.0464
1063.00,0.0449
1062.00,0.0438
1061.00,0.0429
1060.00,0.0421
1059.00,0.0415
1058.00,0.0411
1057.00,0.0408
1056.00,0.0406
1055.00,0.0404
1054.00,0.0405
1053.00,0.0406
1052.00,0.0410
1051.00,0.0416
1050.00,0.0426
1049.00,0.0437
1048.00,0.0451
1047.00,0.0468
1046.00,0.0488
1045.00,0.0510
1044.00,0.0533
1043.00,0.0557
1042.00,0.0581
1041.00,0.0602
1040.00,0.0618
1039.00,0.0628
1038.00,0.0631
1037.00,0.0626
1036.00,0.0617
1035.00,0.0605
1034.00,0.0592
1033.00,0.0580
1032.00,0.0570
1031.00,0.0561
1030.00,0.0555
1029.00,0.0550
1028.00,0.0546
1027.00,0.0544
1026.00,0.0544
1025.00,0.0547
1024.00,0.0551
1023.00,0.0559
1022.00,0.0570
1021.00,0.0584
1020.00,0.0601
1019.00,0.0621
1018.00,0.0644
1017.00,0.0668
1016.00,0.0694
1015.00,0.0721
1014.00,0.0749
1013.00,0.0774
1012.00,0.0797
1011.00,0.0814
1010.00,0.0825
1009.00,0.0827
1008.00,0.0820
1007.00,0.0805
1006.00,0.0784
1005.00,0.0758
1004.00,0.0727
1003.00,0.0694
1002.00,0.0660
1001.00,0.0626
1000.00,0.0594
999.00,0.0565
998.00,0.0541
997.00,0.0519
996.00,0.0501
995.00,0.0485
994.00,0.0471
993.00,0.0460
992.00,0.0451
991.00,0.0443
990.00,0.0435
989.00,0.0428
988.00,0.0421
987.00,0.0414
986.00,0.0409
985.00,0.0404
984.00,0.0399
983.00,0.0394
982.00,0.0390
981.00,0.0387
980.00,0.0383
979.00,0.0380
978.00,0.0378
977.00,0.0377
976.00,0.0377
975.00,0.0377
974.00,0.0379
973.00,0.0381
972.00,0.0385
971.00,0.0389
970.00,0.0394
969.00,0.0400
968.00,0.0406
967.00,0.0413
966.00,0.0420
965.00,0.0428
964.00,0.0435
963.00,0.0441
962.00,0.0445
961.00,0.0448
960.00,0.0449
959.00,0.0447
958.00,0.0443
957.00,0.0437
956.00,0.0428
955.00,0.0418
954.00,0.0408
953.00,0.0397
952.00,0.0386
951.00,0.0376
950.00,0.0367
949.00,0.0359
948.00,0.0352
947.00,0.0346
946.00,0.0341
945.00,0.0338
944.00,0.0335
943.00,0.0334
942.00,0.0333
941.00,0.0333
940.00,0.0334
939.00,0.0337
938.00,0.0341
937.00,0.0347
936.00,0.0353
935.00,0.0361
934.00,0.0368
933.00,0.0374
932.00,0.0379
931.00,0.0385
930.00,0.0393
929.00,0.0404
928.00,0.0421
927.00,0.0446
926.00,0.0480
925.00,0.0523
924.00,0.0574
923.00,0.0634
922.00,0.0702
921.00,0.0775
920.00,0.0849
919.00,0.0919
918.00,0.0981
917.00,0.1029
916.00,0.1058
915.00,0.1065
914.00,0.1049
913.00,0.1011
912.00,0.0956
911.00,0.0889
910.00,0.0817
909.00,0.0747
908.00,0.0681
907.00,0.0623
906.00,0.0575
905.00,0.0535
904.00,0.0502
903.00,0.0477
902.00,0.0459
901.00,0.0446
900.00,0.0436
899.00,0.0428
898.00,0.0422
897.00,0.0416
896.00,0.0411
895.00,0.0407
894.00,0.0403
893.00,0.0399
892.00,0.0396
891.00,0.0394
890.00,0.0394
889.00,0.0396
888.00,0.0399
887.00,0.0404
886.00,0.0411
885.00,0.0421
884.00,0.0430
883.00,0.0441
882.00,0.0451
881.00,0.0460
880.00,0.0466
879.00,0.0471
878.00,0.0472
877.00,0.0470
876.00,0.0462
875.00,0.0451
874.00,0.0438
873.00,0.0423
872.00,0.0406
871.00,0.0390
870.00,0.0376
869.00,0.0363
868.00,0.0352
867.00,0.0344
866.00,0.0337
865.00,0.0331
864.00,0.0326
863.00,0.0322
862.00,0.0320
861.00,0.0318
860.00,0.0317
859.00,0.0316
858.00,0.0317
857.00,0.0319
856.00,0.0322
855.00,0.0326
854.00,0.0331
853.00,0.0338
852.00,0.0344
851.00,0.0351
850.00,0.0359
849.00,0.0365
848.00,0.0371
847.00,0.0378
846.00,0.0385
845.00,0.0396
844.00,0.0411
843.00,0.0431
842.00,0.0461
841.00,0.0499
840.00,0.0546
839.00,0.0600
838.00,0.0659
837.00,0.0718
836.00,0.0771
835.00,0.0812
834.00,0.0838
833.00,0.0846
832.00,0.0833
831.00,0.0802
830.00,0.0758
829.00,0.0704
828.00,0.0646
827.00,0.0589
826.00,0.0537
825.00,0.0491
824.00,0.0451
823.00,0.0416
822.00,0.0387
821.00,0.0363
820.00,0.0342
819.00,0.0323
818.00,0.0308
817.00,0.0295
816.00,0.0283
815.00,0.0272
814.00,0.0263
813.00,0.0256
812.00,0.0250
811.00,0.0247
810.00,0.0248
809.00,0.0253
808.00,0.0261
807.00,0.0273
806.00,0.0290
805.00,0.0310
804.00,0.0331
803.00,0.0352
802.00,0.0372
801.00,0.0387
800.00,0.0395
799.00,0.0397
798.00,0.0393
797.00,0.0383
796.00,0.0369
795.00,0.0355
794.00,0.0342
793.00,0.0333
792.00,0.0329
791.00,0.0330
790.00,0.0339
789.00,0.0354
788.00,0.0377
787.00,0.0408
786.00,0.0448
785.00,0.0497
784.00,0.0551
783.00,0.0610
782.00,0.0672
781.00,0.0730
780.00,0.0781
779.00,0.0818
778.00,0.0840
777.00,0.0842
776.00,0.0824
775.00,0.0791
774.00,0.0747
773.00,0.0694
772.00,0.0639
771.00,0.0585
770.00,0.0537
769.00,0.0496
768.00,0.0462
767.00,0.0437
766.00,0.0421
765.00,0.0412
764.00,0.0411
763.00,0.0417
762.00,0.0432
761.00,0.0456
760.00,0.0489
759.00,0.0533
758.00,0.0587
757.00,0.0652
756.00,0.0726
755.00,0.0809
754.00,0.0900
753.00,0.0996
752.00,0.1093
751.00,0.1187
750.00,0.1272
749.00,0.1339
748.00,0.1382
747.00,0.1393
746.00,0.1371
745.00,0.1316
744.00,0.1236
743.00,0.1141
742.00,0.1045
741.00,0.0955
740.00,0.0877
739.00,0.0812
738.00,0.0761
737.00,0.0719
736.00,0.0683
735.00,0.0651
734.00,0.0623
733.00,0.0596
732.00,0.0568
731.00,0.0541
730.00,0.0514
729.00,0.0487
728.00,0.0462
727.00,0.0438
726.00,0.0416
725.00,0.0398
724.00,0.0381
723.00,0.0367
722.00,0.0356
721.00,0.0345
720.00,0.0336
719.00,0.0330
718.00,0.0326
717.00,0.0326
716.00,0.0329
715.00,0.0336
714.00,0.0347
713.00,0.0364
712.00,0.0385
711.00,0.0413
710.00,0.0449
709.00,0.0494
708.00,0.0548
707.00,0.0613
706.00,0.0687
705.00,0.0763
704.00,0.0836
703.00,0.0894
702.00,0.0926
701.00,0.0925
700.00,0.0889
699.00,0.0824
698.00,0.0746
697.00,0.0665
696.00,0.0592
695.00,0.0532
694.00,0.0485
693.00,0.0450
692.00,0.0425
691.00,0.0407
690.00,0.0396
689.00,0.0388
688.00,0.0382
687.00,0.0377
686.00,0.0373
685.00,0.0370
684.00,0.0368
683.00,0.0368
682.00,0.0369
681.00,0.0371
680.00,0.0373
679.00,0.0378
678.00,0.0386
677.00,0.0397
676.00,0.0414
675.00,0.0438
674.00,0.0472
673.00,0.0516
672.00,0.0568
671.00,0.0625
670.00,0.0686
669.00,0.0755
668.00,0.0827
667.00,0.0880
666.00,0.0897
665.00,0.0887
664.00,0.0858
663.00,0.0817
662.00,0.0776
661.00,0.0739
660.00,0.0710
659.00,0.0690
658.00,0.0678
657.00,0.0672
656.00,0.0667
655.00,0.0663
654.00,0.0660
653.00,0.0657
652.00,0.0653
651.00,0.0652
650.00,0.0657
649.00,0.0674
648.00,0.0709
647.00,0.0769
646.00,0.0855
645.00,0.0960
644.00,0.1069
643.00,0.1164
642.00,0.1226
641.00,0.1245
640.00,0.1221
639.00,0.1164
638.00,0.1086
637.00,0.1001
636.00,0.0915
635.00,0.0836
634.00,0.0768
633.00,0.0710
632.00,0.0661
631.00,0.0621
630.00,0.0588
629.00,0.0560
628.00,0.0536
627.00,0.0515
626.00,0.0498
625.00,0.0482
624.00,0.0467
623.00,0.0455
622.00,0.0446
621.00,0.0438
620.00,0.0429
619.00,0.0420
618.00,0.0415
617.00,0.0412
616.00,0.0409
615.00,0.0405
614.00,0.0403
613.00,0.0400
612.00,0.0396
611.00,0.0393
610.00,0.0394
609.00,0.0396
608.00,0.0399
607.00,0.0405
606.00,0.0414
605.00,0.0427
604.00,0.0443
603.00,0.0465
602.00,0.0493
601.00,0.0527
600.00,0.0566
599.00,0.0609
598.00,0.0654
597.00,0.0697
596.00,0.0732
595.00,0.0759
594.00,0.0776
593.00,0.0783
592.00,0.0777
591.00,0.0762
590.00,0.0743
589.00,0.0722
588.00,0.0700
587.00,0.0680
586.00,0.0666
585.00,0.0656
584.00,0.0649
583.00,0.0646
582.00,0.0648
581.00,0.0651
580.00,0.0655
579.00,0.0659
578.00,0.0666
577.00,0.0672
576.00,0.0676
575.00,0.0677
574.00,0.0680
573.00,0.0682
572.00,0.0685
571.00,0.0689
570.00,0.0692
569.00,0.0694
568.00,0.0692
567.00,0.0688
566.00,0.0685
565.00,0.0681
564.00,0.0673
563.00,0.0665
562.00,0.0659
561.00,0.0652
560.00,0.0646
559.00,0.0641
558.00,0.0638
557.00,0.0633
556.00,0.0626
555.00,0.0616
554.00,0.0607
553.00,0.0596
552.00,0.0583
551.00,0.0571
550.00,0.0562
549.00,0.0553
548.00,0.0545
547.00,0.0541
546.00,0.0544
545.00,0.0555
544.00,0.0573
543.00,0.0601
542.00,0.0636
541.00,0.0671
540.00,0.0701
539.00,0.0721
538.00,0.0728
537.00,0.0720
536.00,0.0699
535.00,0.0670
534.00,0.0637
533.00,0.0603
532.00,0.0568
531.00,0.0538
530.00,0.0513
529.00,0.0494
528.00,0.0475
527.00,0.0460
526.00,0.0449
525.00,0.0440
524.00,0.0434
523.00,0.0434
522.00,0.0440
521.00,0.0449
520.00,0.0460
519.00,0.0475
518.00,0.0495
517.00,0.0519
516.00,0.0542
515.00,0.0568
514.00,0.0595
513.00,0.0622
512.00,0.0643
511.00,0.0658
510.00,0.0666
509.00,0.0665
508.00,0.0655
507.00,0.0639
506.00,0.0623
505.00,0.0604
504.00,0.0581
503.00,0.0556
502.00,0.0534
501.00,0.0511
500.00,0.0488
499.00,0.0469
498.00,0.0454
497.00,0.0442
496.00,0.0431
495.00,0.0422
494.00,0.0419
493.00,0.0416
492.00,0.0411
491.00,0.0405
490.00,0.0401
489.00,0.0398
488.00,0.0392
487.00,0.0389
486.00,0.0388
485.00,0.0385
484.00,0.0378
483.00,0.0371
482.00,0.0367
481.00,0.0365
480.00,0.0364
479.00,0.0364
478.00,0.0368
477.00,0.0371
476.00,0.0370
475.00,0.0370
474.00,0.0375
473.00,0.0379
472.00,0.0377
471.00,0.0373
470.00,0.0373
469.00,0.0374
468.00,0.0371
467.00,0.0367
466.00,0.0366
465.00,0.0366
464.00,0.0362
463.00,0.0361
462.00,0.0364
461.00,0.0369
460.00,0.0371
459.00,0.0375
458.00,0.0381
457.00,0.0385
456.00,0.0383
455.00,0.0381
454.00,0.0385
453.00,0.0387
452.00,0.0385
451.00,0.0384
450.00,0.0390
449.00,0.0399
448.00,0.0407
447.00,0.0414
446.00,0.0424
445.00,0.0431
444.00,0.0433
443.00,0.0433
442.00,0.0437
441.00,0.0440
440.00,0.0438
439.00,0.0437
438.00,0.0440
437.00,0.0443
436.00,0.0440
435.00,0.0438
434.00,0.0442
433.00,0.0449
432.00,0.0455
431.00,0.0462
430.00,0.0474
429.00,0.0486
428.00,0.0491
427.00,0.0497
426.00,0.0511
425.00,0.0527
424.00,0.0541
423.00,0.0556
422.00,0.0575
421.00,0.0589
420.00,0.0592
419.00,0.0593
418.00,0.0600
417.00,0.0606
416.00,0.0608
415.00,0.0615
414.00,0.0627
413.00,0.0632
412.00,0.0621
411.00,0.0608
410.00,0.0606
409.00,0.0604
408.00,0.0592
407.00,0.0580
406.00,0.0580
405.00,0.0583
404.00,0.0578
403.00,0.0576
402.00,0.0592
401.00,0.0608
400.00,0.0608
