Created as New Dataset,Sample 243 By YargerLab Date Sunday, October 05 2025
cm-1,A
4000.00,0.0019
3999.00,0.0019
3998.00,0.0019
3997.00,0.0019
3996.00,0.0019
3995.00,0.0019
3994.00,0.0019
3993.00,0.0019
3992.00,0.0019
3991.00,0.0019
3990.00,0.0019
3989.00,0.0019
3988.00,0.0019
3987.00,0.0019
3986.00,0.0019
3985.00,0.0019
3984.00,0.0019
3983.00,0.0019
3982.00,0.0019
3981.00,0.0019
3980.00,0.0019
3979.00,0.0019
3978.00,0.0019
3977.00,0.0019
3976.00,0.0019
3975.00,0.0019
3974.00,0.0019
3973.00,0.0019
3972.00,0.0019
3971.00,0.0019
3970.00,0.0019
3969.00,0.0019
3968.00,0.0019
3967.00,0.0019
3966.00,0.0019
3965.00,0.0019
3964.00,0.0019
3963.00,0.0019
3962.00,0.0019
3961.00,0.0019
3960.00,0.0019
3959.00,0.0019
3958.00,0.0019
3957.00,0.0019
3956.00,0.0019
3955.00,0.0019
3954.00,0.0019
3953.00,0.0019
3952.00,0.0019
3951.00,0.0018
3950.00,0.0018
3949.00,0.0018
3948.00,0.0019
3947.00,0.0019
3946.00,0.0018
3945.00,0.0018
3944.00,0.0018
3943.00,0.0018
3942.00,0.0018
3941.00,0.0018
3940.00,0.0019
3939.00,0.0019
3938.00,0.0019
3937.00,0.0019
3936.00,0.0019
3935.00,0.0019
3934.00,0.0018
3933.00,0.0018
3932.00,0.0018
3931.00,0.0018
3930.00,0.0018
3929.00,0.0018
3928.00,0.0018
3927.00,0.0018
3926.00,0.0018
3925.00,0.0018
3924.00,0.0018
3923.00,0.0018
3922.00,0.0018
3921.00,0.0018
3920.00,0.0019
3919.00,0.0019
3918.00,0.0019
3917.00,0.0019
3916.00,0.0019
3915.00,0.0019
3914.00,0.0019
3913.00,0.0019
3912.00,0.0019
3911.00,0.0019
3910.00,0.0019
3909.00,0.0019
3908.00,0.0019
3907.00,0.0019
3906.00,0.0019
3905.00,0.0019
3904.00,0.0019
3903.00,0.0019
3902.00,0.0019
3901.00,0.0019
3900.00,0.0019
3899.00,0.0019
3898.00,0.0019
3897.00,0.0019
3896.00,0.0019
3895.00,0.0019
3894.00,0.0018
3893.00,0.0018
3892.00,0.0018
3891.00,0.0018
3890.00,0.0018
3889.00,0.0018
3888.00,0.0019
3887.00,0.0019
3886.00,0.0019
3885.00,0.0019
3884.00,0.0018
3883.00,0.0018
3882.00,0.0018
3881.00,0.0018
3880.00,0.0018
3879.00,0.0018
3878.00,0.0018
3877.00,0.0018
3876.00,0.0018
3875.00,0.0018
3874.00,0.0018
3873.00,0.0018
3872.00,0.0019
3871.00,0.0019
3870.00,0.0019
3869.00,0.0019
3868.00,0.0019
3867.00,0.0019
3866.00,0.0019
3865.00,0.0019
3864.00,0.0018
3863.00,0.0018
3862.00,0.0018
3861.00,0.0018
3860.00,0.0018
3859.00,0.0018
3858.00,0.0018
3857.00,0.0019
3856.00,0.0019
3855.00,0.0019
3854.00,0.0019
3853.00,0.0020
3852.00,0.0020
3851.00,0.0020
3850.00,0.0020
3849.00,0.0019
3848.00,0.0019
3847.00,0.0019
3846.00,0.0018
3845.00,0.0018
3844.00,0.0018
3843.00,0.0018
3842.00,0.0018
3841.00,0.0018
3840.00,0.0018
3839.00,0.0019
3838.00,0.0019
3837.00,0.0019
3836.00,0.0019
3835.00,0.0019
3834.00,0.0018
3833.00,0.0018
3832.00,0.0018
3831.00,0.0018
3830.00,0.0018
3829.00,0.0018
3828.00,0.0017
3827.00,0.0017
3826.00,0.0018
3825.00,0.0018
3824.00,0.0018
3823.00,0.0018
3822.00,0.0018
3821.00,0.0018
3820.00,0.0018
3819.00,0.0019
3818.00,0.0019
3817.00,0.0019
3816.00,0.0018
3815.00,0.0018
3814.00,0.0018
3813.00,0.0018
3812.00,0.0018
3811.00,0.0017
3810.00,0.0017
3809.00,0.0017
3808.00,0.0017
3807.00,0.0017
3806.00,0.0017
3805.00,0.0017
3804.00,0.0017
3803.00,0.0017
3802.00,0.0017
3801.00,0.0017
3800.00,0.0017
3799.00,0.0018
3798.00,0.0018
3797.00,0.0017
3796.00,0.0017
3795.00,0.0017
3794.00,0.0017
3793.00,0.0017
3792.00,0.0017
3791.00,0.0017
3790.00,0.0017
3789.00,0.0017
3788.00,0.0017
3787.00,0.0017
3786.00,0.0017
3785.00,0.0017
3784.00,0.0017
3783.00,0.0017
3782.00,0.0017
3781.00,0.0018
3780.00,0.0017
3779.00,0.0017
3778.00,0.0017
3777.00,0.0017
3776.00,0.0017
3775.00,0.0017
3774.00,0.0017
3773.00,0.0017
3772.00,0.0017
3771.00,0.0017
3770.00,0.0017
3769.00,0.0017
3768.00,0.0017
3767.00,0.0017
3766.00,0.0017
3765.00,0.0017
3764.00,0.0017
3763.00,0.0017
3762.00,0.0017
3761.00,0.0017
3760.00,0.0017
3759.00,0.0017
3758.00,0.0016
3757.00,0.0017
3756.00,0.0017
3755.00,0.0017
3754.00,0.0018
3753.00,0.0018
3752.00,0.0019
3751.00,0.0019
3750.00,0.0019
3749.00,0.0019
3748.00,0.0020
3747.00,0.0020
3746.00,0.0020
3745.00,0.0019
3744.00,0.0019
3743.00,0.0019
3742.00,0.0019
3741.00,0.0018
3740.00,0.0018
3739.00,0.0018
3738.00,0.0018
3737.00,0.0018
3736.00,0.0017
3735.00,0.0017
3734.00,0.0017
3733.00,0.0017
3732.00,0.0017
3731.00,0.0017
3730.00,0.0017
3729.00,0.0017
3728.00,0.0017
3727.00,0.0017
3726.00,0.0017
3725.00,0.0017
3724.00,0.0017
3723.00,0.0017
3722.00,0.0017
3721.00,0.0017
3720.00,0.0017
3719.00,0.0017
3718.00,0.0017
3717.00,0.0017
3716.00,0.0017
3715.00,0.0017
3714.00,0.0018
3713.00,0.0018
3712.00,0.0018
3711.00,0.0018
3710.00,0.0018
3709.00,0.0018
3708.00,0.0018
3707.00,0.0018
3706.00,0.0018
3705.00,0.0018
3704.00,0.0017
3703.00,0.0017
3702.00,0.0017
3701.00,0.0017
3700.00,0.0018
3699.00,0.0018
3698.00,0.0017
3697.00,0.0017
3696.00,0.0017
3695.00,0.0017
3694.00,0.0017
3693.00,0.0018
3692.00,0.0018
3691.00,0.0018
3690.00,0.0018
3689.00,0.0018
3688.00,0.0018
3687.00,0.0019
3686.00,0.0019
3685.00,0.0019
3684.00,0.0019
3683.00,0.0019
3682.00,0.0019
3681.00,0.0020
3680.00,0.0020
3679.00,0.0021
3678.00,0.0021
3677.00,0.0022
3676.00,0.0022
3675.00,0.0022
3674.00,0.0023
3673.00,0.0023
3672.00,0.0023
3671.00,0.0023
3670.00,0.0023
3669.00,0.0023
3668.00,0.0024
3667.00,0.0024
3666.00,0.0024
3665.00,0.0024
3664.00,0.0024
3663.00,0.0024
3662.00,0.0025
3661.00,0.0025
3660.00,0.0026
3659.00,0.0026
3658.00,0.0026
3657.00,0.0027
3656.00,0.0027
3655.00,0.0027
3654.00,0.0028
3653.00,0.0028
3652.00,0.0029
3651.00,0.0029
3650.00,0.0030
3649.00,0.0030
3648.00,0.0031
3647.00,0.0031
3646.00,0.0031
3645.00,0.0031
3644.00,0.0031
3643.00,0.0031
3642.00,0.0032
3641.00,0.0032
3640.00,0.0033
3639.00,0.0033
3638.00,0.0034
3637.00,0.0035
3636.00,0.0035
3635.00,0.0036
3634.00,0.0036
3633.00,0.0037
3632.00,0.0038
3631.00,0.0038
3630.00,0.0039
3629.00,0.0039
3628.00,0.0040
3627.00,0.0040
3626.00,0.0041
3625.00,0.0041
3624.00,0.0041
3623.00,0.0041
3622.00,0.0042
3621.00,0.0042
3620.00,0.0043
3619.00,0.0043
3618.00,0.0044
3617.00,0.0045
3616.00,0.0045
3615.00,0.0046
3614.00,0.0047
3613.00,0.0047
3612.00,0.0048
3611.00,0.0049
3610.00,0.0049
3609.00,0.0050
3608.00,0.0050
3607.00,0.0051
3606.00,0.0051
3605.00,0.0052
3604.00,0.0053
3603.00,0.0053
3602.00,0.0054
3601.00,0.0054
3600.00,0.0055
3599.00,0.0056
3598.00,0.0056
3597.00,0.0057
3596.00,0.0058
3595.00,0.0059
3594.00,0.0060
3593.00,0.0060
3592.00,0.0061
3591.00,0.0062
3590.00,0.0062
3589.00,0.0063
3588.00,0.0064
3587.00,0.0064
3586.00,0.0065
3585.00,0.0066
3584.00,0.0067
3583.00,0.0067
3582.00,0.0067
3581.00,0.0068
3580.00,0.0068
3579.00,0.0069
3578.00,0.0070
3577.00,0.0071
3576.00,0.0072
3575.00,0.0073
3574.00,0.0073
3573.00,0.0074
3572.00,0.0074
3571.00,0.0075
3570.00,0.0075
3569.00,0.0076
3568.00,0.0077
3567.00,0.0078
3566.00,0.0079
3565.00,0.0080
3564.00,0.0081
3563.00,0.0081
3562.00,0.0082
3561.00,0.0082
3560.00,0.0083
3559.00,0.0084
3558.00,0.0085
3557.00,0.0086
3556.00,0.0087
3555.00,0.0088
3554.00,0.0089
3553.00,0.0089
3552.00,0.0090
3551.00,0.0091
3550.00,0.0091
3549.00,0.0092
3548.00,0.0092
3547.00,0.0092
3546.00,0.0093
3545.00,0.0094
3544.00,0.0096
3543.00,0.0097
3542.00,0.0098
3541.00,0.0100
3540.00,0.0101
3539.00,0.0101
3538.00,0.0102
3537.00,0.0102
3536.00,0.0103
3535.00,0.0105
3534.00,0.0106
3533.00,0.0107
3532.00,0.0108
3531.00,0.0109
3530.00,0.0109
3529.00,0.0110
3528.00,0.0110
3527.00,0.0110
3526.00,0.0110
3525.00,0.0111
3524.00,0.0112
3523.00,0.0113
3522.00,0.0114
3521.00,0.0115
3520.00,0.0116
3519.00,0.0116
3518.00,0.0117
3517.00,0.0117
3516.00,0.0118
3515.00,0.0118
3514.00,0.0119
3513.00,0.0119
3512.00,0.0120
3511.00,0.0121
3510.00,0.0122
3509.00,0.0123
3508.00,0.0123
3507.00,0.0123
3506.00,0.0123
3505.00,0.0123
3504.00,0.0123
3503.00,0.0124
3502.00,0.0124
3501.00,0.0125
3500.00,0.0125
3499.00,0.0125
3498.00,0.0126
3497.00,0.0126
3496.00,0.0126
3495.00,0.0126
3494.00,0.0127
3493.00,0.0127
3492.00,0.0128
3491.00,0.0128
3490.00,0.0128
3489.00,0.0129
3488.00,0.0129
3487.00,0.0129
3486.00,0.0129
3485.00,0.0130
3484.00,0.0130
3483.00,0.0130
3482.00,0.0131
3481.00,0.0131
3480.00,0.0131
3479.00,0.0132
3478.00,0.0133
3477.00,0.0133
3476.00,0.0134
3475.00,0.0134
3474.00,0.0135
3473.00,0.0135
3472.00,0.0135
3471.00,0.0135
3470.00,0.0135
3469.00,0.0136
3468.00,0.0137
3467.00,0.0137
3466.00,0.0139
3465.00,0.0139
3464.00,0.0140
3463.00,0.0141
3462.00,0.0141
3461.00,0.0142
3460.00,0.0143
3459.00,0.0144
3458.00,0.0145
3457.00,0.0145
3456.00,0.0146
3455.00,0.0147
3454.00,0.0147
3453.00,0.0148
3452.00,0.0149
3451.00,0.0150
3450.00,0.0150
3449.00,0.0151
3448.00,0.0151
3447.00,0.0152
3446.00,0.0152
3445.00,0.0153
3444.00,0.0154
3443.00,0.0155
3442.00,0.0155
3441.00,0.0156
3440.00,0.0156
3439.00,0.0155
3438.00,0.0155
3437.00,0.0155
3436.00,0.0156
3435.00,0.0157
3434.00,0.0158
3433.00,0.0159
3432.00,0.0160
3431.00,0.0161
3430.00,0.0162
3429.00,0.0163
3428.00,0.0165
3427.00,0.0166
3426.00,0.0167
3425.00,0.0168
3424.00,0.0168
3423.00,0.0168
3422.00,0.0169
3421.00,0.0169
3420.00,0.0170
3419.00,0.0171
3418.00,0.0171
3417.00,0.0171
3416.00,0.0171
3415.00,0.0171
3414.00,0.0170
3413.00,0.0170
3412.00,0.0170
3411.00,0.0171
3410.00,0.0172
3409.00,0.0172
3408.00,0.0173
3407.00,0.0173
3406.00,0.0174
3405.00,0.0173
3404.00,0.0173
3403.00,0.0171
3402.00,0.0170
3401.00,0.0170
3400.00,0.0171
3399.00,0.0172
3398.00,0.0173
3397.00,0.0173
3396.00,0.0173
3395.00,0.0173
3394.00,0.0173
3393.00,0.0172
3392.00,0.0172
3391.00,0.0173
3390.00,0.0174
3389.00,0.0176
3388.00,0.0176
3387.00,0.0177
3386.00,0.0177
3385.00,0.0177
3384.00,0.0177
3383.00,0.0177
3382.00,0.0177
3381.00,0.0177
3380.00,0.0177
3379.00,0.0177
3378.00,0.0178
3377.00,0.0178
3376.00,0.0178
3375.00,0.0179
3374.00,0.0178
3373.00,0.0178
3372.00,0.0177
3371.00,0.0176
3370.00,0.0175
3369.00,0.0176
3368.00,0.0177
3367.00,0.0178
3366.00,0.0180
3365.00,0.0181
3364.00,0.0182
3363.00,0.0183
3362.00,0.0183
3361.00,0.0183
3360.00,0.0184
3359.00,0.0184
3358.00,0.0185
3357.00,0.0186
3356.00,0.0186
3355.00,0.0186
3354.00,0.0186
3353.00,0.0185
3352.00,0.0184
3351.00,0.0184
3350.00,0.0185
3349.00,0.0186
3348.00,0.0187
3347.00,0.0188
3346.00,0.0188
3345.00,0.0188
3344.00,0.0187
3343.00,0.0187
3342.00,0.0187
3341.00,0.0186
3340.00,0.0186
3339.00,0.0185
3338.00,0.0186
3337.00,0.0187
3336.00,0.0188
3335.00,0.0189
3334.00,0.0190
3333.00,0.0190
3332.00,0.0191
3331.00,0.0191
3330.00,0.0191
3329.00,0.0191
3328.00,0.0190
3327.00,0.0189
3326.00,0.0189
3325.00,0.0189
3324.00,0.0190
3323.00,0.0190
3322.00,0.0191
3321.00,0.0191
3320.00,0.0192
3319.00,0.0192
3318.00,0.0192
3317.00,0.0192
3316.00,0.0192
3315.00,0.0192
3314.00,0.0192
3313.00,0.0192
3312.00,0.0191
3311.00,0.0190
3310.00,0.0188
3309.00,0.0187
3308.00,0.0186
3307.00,0.0185
3306.00,0.0186
3305.00,0.0187
3304.00,0.0189
3303.00,0.0192
3302.00,0.0193
3301.00,0.0195
3300.00,0.0195
3299.00,0.0195
3298.00,0.0194
3297.00,0.0193
3296.00,0.0192
3295.00,0.0192
3294.00,0.0192
3293.00,0.0193
3292.00,0.0194
3291.00,0.0196
3290.00,0.0197
3289.00,0.0199
3288.00,0.0199
3287.00,0.0200
3286.00,0.0200
3285.00,0.0200
3284.00,0.0201
3283.00,0.0202
3282.00,0.0202
3281.00,0.0203
3280.00,0.0204
3279.00,0.0204
3278.00,0.0204
3277.00,0.0203
3276.00,0.0203
3275.00,0.0202
3274.00,0.0201
3273.00,0.0201
3272.00,0.0200
3271.00,0.0200
3270.00,0.0202
3269.00,0.0205
3268.00,0.0208
3267.00,0.0210
3266.00,0.0211
3265.00,0.0212
3264.00,0.0212
3263.00,0.0213
3262.00,0.0213
3261.00,0.0214
3260.00,0.0214
3259.00,0.0215
3258.00,0.0214
3257.00,0.0214
3256.00,0.0214
3255.00,0.0215
3254.00,0.0216
3253.00,0.0217
3252.00,0.0218
3251.00,0.0218
3250.00,0.0217
3249.00,0.0216
3248.00,0.0216
3247.00,0.0216
3246.00,0.0217
3245.00,0.0219
3244.00,0.0221
3243.00,0.0222
3242.00,0.0222
3241.00,0.0223
3240.00,0.0223
3239.00,0.0223
3238.00,0.0223
3237.00,0.0222
3236.00,0.0221
3235.00,0.0219
3234.00,0.0219
3233.00,0.0219
3232.00,0.0221
3231.00,0.0223
3230.00,0.0224
3229.00,0.0225
3228.00,0.0226
3227.00,0.0226
3226.00,0.0227
3225.00,0.0227
3224.00,0.0227
3223.00,0.0228
3222.00,0.0228
3221.00,0.0228
3220.00,0.0228
3219.00,0.0229
3218.00,0.0230
3217.00,0.0232
3216.00,0.0233
3215.00,0.0234
3214.00,0.0235
3213.00,0.0236
3212.00,0.0237
3211.00,0.0237
3210.00,0.0237
3209.00,0.0237
3208.00,0.0236
3207.00,0.0236
3206.00,0.0236
3205.00,0.0236
3204.00,0.0236
3203.00,0.0236
3202.00,0.0237
3201.00,0.0237
3200.00,0.0237
3199.00,0.0237
3198.00,0.0237
3197.00,0.0237
3196.00,0.0237
3195.00,0.0237
3194.00,0.0237
3193.00,0.0237
3192.00,0.0237
3191.00,0.0237
3190.00,0.0237
3189.00,0.0237
3188.00,0.0237
3187.00,0.0238
3186.00,0.0238
3185.00,0.0238
3184.00,0.0238
3183.00,0.0239
3182.00,0.0239
3181.00,0.0239
3180.00,0.0240
3179.00,0.0240
3178.00,0.0240
3177.00,0.0241
3176.00,0.0241
3175.00,0.0242
3174.00,0.0242
3173.00,0.0243
3172.00,0.0243
3171.00,0.0244
3170.00,0.0245
3169.00,0.0245
3168.00,0.0246
3167.00,0.0246
3166.00,0.0246
3165.00,0.0247
3164.00,0.0247
3163.00,0.0248
3162.00,0.0249
3161.00,0.0249
3160.00,0.0249
3159.00,0.0250
3158.00,0.0250
3157.00,0.0251
3156.00,0.0251
3155.00,0.0251
3154.00,0.0251
3153.00,0.0251
3152.00,0.0252
3151.00,0.0253
3150.00,0.0253
3149.00,0.0254
3148.00,0.0255
3147.00,0.0256
3146.00,0.0256
3145.00,0.0257
3144.00,0.0258
3143.00,0.0258
3142.00,0.0258
3141.00,0.0258
3140.00,0.0259
3139.00,0.0259
3138.00,0.0260
3137.00,0.0261
3136.00,0.0261
3135.00,0.0262
3134.00,0.0263
3133.00,0.0264
3132.00,0.0264
3131.00,0.0265
3130.00,0.0265
3129.00,0.0266
3128.00,0.0266
3127.00,0.0267
3126.00,0.0267
3125.00,0.0268
3124.00,0.0268
3123.00,0.0268
3122.00,0.0269
3121.00,0.0269
3120.00,0.0269
3119.00,0.0270
3118.00,0.0270
3117.00,0.0271
3116.00,0.0272
3115.00,0.0273
3114.00,0.0274
3113.00,0.0274
3112.00,0.0275
3111.00,0.0275
3110.00,0.0275
3109.00,0.0276
3108.00,0.0276
3107.00,0.0276
3106.00,0.0277
3105.00,0.0277
3104.00,0.0278
3103.00,0.0278
3102.00,0.0279
3101.00,0.0279
3100.00,0.0280
3099.00,0.0281
3098.00,0.0282
3097.00,0.0283
3096.00,0.0284
3095.00,0.0286
3094.00,0.0287
3093.00,0.0289
3092.00,0.0290
3091.00,0.0292
3090.00,0.0294
3089.00,0.0296
3088.00,0.0298
3087.00,0.0301
3086.00,0.0303
3085.00,0.0306
3084.00,0.0308
3083.00,0.0310
3082.00,0.0312
3081.00,0.0314
3080.00,0.0316
3079.00,0.0318
3078.00,0.0319
3077.00,0.0320
3076.00,0.0322
3075.00,0.0323
3074.00,0.0323
3073.00,0.0324
3072.00,0.0325
3071.00,0.0325
3070.00,0.0325
3069.00,0.0326
3068.00,0.0326
3067.00,0.0326
3066.00,0.0327
3065.00,0.0327
3064.00,0.0328
3063.00,0.0328
3062.00,0.0329
3061.00,0.0329
3060.00,0.0329
3059.00,0.0329
3058.00,0.0328
3057.00,0.0328
3056.00,0.0329
3055.00,0.0329
3054.00,0.0330
3053.00,0.0331
3052.00,0.0332
3051.00,0.0333
3050.00,0.0335
3049.00,0.0337
3048.00,0.0338
3047.00,0.0340
3046.00,0.0341
3045.00,0.0343
3044.00,0.0345
3043.00,0.0346
3042.00,0.0347
3041.00,0.0349
3040.00,0.0350
3039.00,0.0351
3038.00,0.0352
3037.00,0.0353
3036.00,0.0353
3035.00,0.0354
3034.00,0.0354
3033.00,0.0354
3032.00,0.0355
3031.00,0.0356
3030.00,0.0357
3029.00,0.0357
3028.00,0.0358
3027.00,0.0359
3026.00,0.0360
3025.00,0.0362
3024.00,0.0363
3023.00,0.0365
3022.00,0.0366
3021.00,0.0368
3020.00,0.0370
3019.00,0.0372
3018.00,0.0374
3017.00,0.0376
3016.00,0.0378
3015.00,0.0380
3014.00,0.0383
3013.00,0.0385
3012.00,0.0388
3011.00,0.0391
3010.00,0.0395
3009.00,0.0399
3008.00,0.0403
3007.00,0.0407
3006.00,0.0411
3005.00,0.0415
3004.00,0.0419
3003.00,0.0424
3002.00,0.0429
3001.00,0.0435
3000.00,0.0440
2999.00,0.0446
2998.00,0.0452
2997.00,0.0459
2996.00,0.0465
2995.00,0.0472
2994.00,0.0479
2993.00,0.0486
2992.00,0.0492
2991.00,0.0499
2990.00,0.0505
2989.00,0.0511
2988.00,0.0517
2987.00,0.0522
2986.00,0.0527
2985.00,0.0531
2984.00,0.0535
2983.00,0.0539
2982.00,0.0542
2981.00,0.0545
2980.00,0.0549
2979.00,0.0552
2978.00,0.0556
2977.00,0.0559
2976.00,0.0563
2975.00,0.0567
2974.00,0.0572
2973.00,0.0576
2972.00,0.0581
2971.00,0.0586
2970.00,0.0592
2969.00,0.0598
2968.00,0.0604
2967.00,0.0610
2966.00,0.0616
2965.00,0.0622
2964.00,0.0627
2963.00,0.0633
2962.00,0.0638
2961.00,0.0643
2960.00,0.0648
2959.00,0.0651
2958.00,0.0655
2957.00,0.0658
2956.00,0.0661
2955.00,0.0664
2954.00,0.0665
2953.00,0.0667
2952.00,0.0668
2951.00,0.0668
2950.00,0.0668
2949.00,0.0667
2948.00,0.0666
2947.00,0.0666
2946.00,0.0665
2945.00,0.0664
2944.00,0.0664
2943.00,0.0663
2942.00,0.0663
2941.00,0.0664
2940.00,0.0664
2939.00,0.0664
2938.00,0.0665
2937.00,0.0666
2936.00,0.0667
2935.00,0.0669
2934.00,0.0670
2933.00,0.0672
2932.00,0.0674
2931.00,0.0676
2930.00,0.0679
2929.00,0.0682
2928.00,0.0685
2927.00,0.0688
2926.00,0.0690
2925.00,0.0692
2924.00,0.0693
2923.00,0.0693
2922.00,0.0693
2921.00,0.0691
2920.00,0.0689
2919.00,0.0686
2918.00,0.0682
2917.00,0.0678
2916.00,0.0674
2915.00,0.0669
2914.00,0.0664
2913.00,0.0660
2912.00,0.0657
2911.00,0.0653
2910.00,0.0650
2909.00,0.0647
2908.00,0.0644
2907.00,0.0641
2906.00,0.0639
2905.00,0.0637
2904.00,0.0636
2903.00,0.0635
2902.00,0.0635
2901.00,0.0635
2900.00,0.0636
2899.00,0.0636
2898.00,0.0636
2897.00,0.0637
2896.00,0.0637
2895.00,0.0638
2894.00,0.0639
2893.00,0.0639
2892.00,0.0639
2891.00,0.0639
2890.00,0.0639
2889.00,0.0638
2888.00,0.0638
2887.00,0.0637
2886.00,0.0637
2885.00,0.0637
2884.00,0.0636
2883.00,0.0636
2882.00,0.0636
2881.00,0.0635
2880.00,0.0634
2879.00,0.0633
2878.00,0.0632
2877.00,0.0630
2876.00,0.0628
2875.00,0.0626
2874.00,0.0623
2873.00,0.0621
2872.00,0.0618
2871.00,0.0615
2870.00,0.0613
2869.00,0.0610
2868.00,0.0607
2867.00,0.0603
2866.00,0.0599
2865.00,0.0596
2864.00,0.0592
2863.00,0.0588
2862.00,0.0584
2861.00,0.0580
2860.00,0.0576
2859.00,0.0572
2858.00,0.0568
2857.00,0.0563
2856.00,0.0558
2855.00,0.0553
2854.00,0.0548
2853.00,0.0542
2852.00,0.0537
2851.00,0.0531
2850.00,0.0525
2849.00,0.0520
2848.00,0.0515
2847.00,0.0510
2846.00,0.0506
2845.00,0.0502
2844.00,0.0499
2843.00,0.0496
2842.00,0.0492
2841.00,0.0489
2840.00,0.0487
2839.00,0.0485
2838.00,0.0483
2837.00,0.0482
2836.00,0.0481
2835.00,0.0480
2834.00,0.0478
2833.00,0.0477
2832.00,0.0476
2831.00,0.0475
2830.00,0.0473
2829.00,0.0471
2828.00,0.0470
2827.00,0.0468
2826.00,0.0467
2825.00,0.0465
2824.00,0.0463
2823.00,0.0462
2822.00,0.0460
2821.00,0.0458
2820.00,0.0456
2819.00,0.0454
2818.00,0.0451
2817.00,0.0450
2816.00,0.0448
2815.00,0.0446
2814.00,0.0445
2813.00,0.0443
2812.00,0.0442
2811.00,0.0441
2810.00,0.0440
2809.00,0.0438
2808.00,0.0438
2807.00,0.0437
2806.00,0.0436
2805.00,0.0436
2804.00,0.0436
2803.00,0.0436
2802.00,0.0435
2801.00,0.0435
2800.00,0.0436
2799.00,0.0436
2798.00,0.0436
2797.00,0.0436
2796.00,0.0436
2795.00,0.0436
2794.00,0.0437
2793.00,0.0437
2792.00,0.0437
2791.00,0.0438
2790.00,0.0438
2789.00,0.0439
2788.00,0.0439
2787.00,0.0439
2786.00,0.0440
2785.00,0.0440
2784.00,0.0440
2783.00,0.0441
2782.00,0.0441
2781.00,0.0441
2780.00,0.0442
2779.00,0.0442
2778.00,0.0441
2777.00,0.0441
2776.00,0.0441
2775.00,0.0441
2774.00,0.0441
2773.00,0.0440
2772.00,0.0440
2771.00,0.0439
2770.00,0.0438
2769.00,0.0438
2768.00,0.0437
2767.00,0.0436
2766.00,0.0435
2765.00,0.0434
2764.00,0.0433
2763.00,0.0432
2762.00,0.0431
2761.00,0.0430
2760.00,0.0429
2759.00,0.0427
2758.00,0.0426
2757.00,0.0425
2756.00,0.0423
2755.00,0.0421
2754.00,0.0419
2753.00,0.0417
2752.00,0.0415
2751.00,0.0413
2750.00,0.0411
2749.00,0.0410
2748.00,0.0408
2747.00,0.0406
2746.00,0.0405
2745.00,0.0403
2744.00,0.0400
2743.00,0.0398
2742.00,0.0396
2741.00,0.0394
2740.00,0.0391
2739.00,0.0389
2738.00,0.0386
2737.00,0.0384
2736.00,0.0382
2735.00,0.0379
2734.00,0.0377
2733.00,0.0375
2732.00,0.0372
2731.00,0.0370
2730.00,0.0367
2729.00,0.0365
2728.00,0.0362
2727.00,0.0360
2726.00,0.0357
2725.00,0.0355
2724.00,0.0353
2723.00,0.0351
2722.00,0.0348
2721.00,0.0346
2720.00,0.0344
2719.00,0.0342
2718.00,0.0340
2717.00,0.0338
2716.00,0.0336
2715.00,0.0334
2714.00,0.0333
2713.00,0.0331
2712.00,0.0329
2711.00,0.0328
2710.00,0.0326
2709.00,0.0325
2708.00,0.0324
2707.00,0.0323
2706.00,0.0322
2705.00,0.0321
2704.00,0.0320
2703.00,0.0319
2702.00,0.0319
2701.00,0.0318
2700.00,0.0317
2699.00,0.0317
2698.00,0.0316
2697.00,0.0316
2696.00,0.0316
2695.00,0.0315
2694.00,0.0315
2693.00,0.0315
2692.00,0.0315
2691.00,0.0315
2690.00,0.0315
2689.00,0.0315
2688.00,0.0316
2687.00,0.0316
2686.00,0.0316
2685.00,0.0316
2684.00,0.0316
2683.00,0.0316
2682.00,0.0316
2681.00,0.0316
2680.00,0.0316
2679.00,0.0316
2678.00,0.0316
2677.00,0.0316
2676.00,0.0316
2675.00,0.0316
2674.00,0.0316
2673.00,0.0316
2672.00,0.0316
2671.00,0.0316
2670.00,0.0316
2669.00,0.0317
2668.00,0.0317
2667.00,0.0317
2666.00,0.0318
2665.00,0.0318
2664.00,0.0319
2663.00,0.0321
2662.00,0.0322
2661.00,0.0323
2660.00,0.0324
2659.00,0.0325
2658.00,0.0326
2657.00,0.0328
2656.00,0.0329
2655.00,0.0331
2654.00,0.0332
2653.00,0.0334
2652.00,0.0336
2651.00,0.0338
2650.00,0.0340
2649.00,0.0342
2648.00,0.0345
2647.00,0.0347
2646.00,0.0349
2645.00,0.0352
2644.00,0.0354
2643.00,0.0357
2642.00,0.0359
2641.00,0.0362
2640.00,0.0364
2639.00,0.0367
2638.00,0.0370
2637.00,0.0372
2636.00,0.0375
2635.00,0.0378
2634.00,0.0380
2633.00,0.0383
2632.00,0.0386
2631.00,0.0388
2630.00,0.0391
2629.00,0.0393
2628.00,0.0396
2627.00,0.0398
2626.00,0.0401
2625.00,0.0403
2624.00,0.0406
2623.00,0.0408
2622.00,0.0411
2621.00,0.0413
2620.00,0.0415
2619.00,0.0417
2618.00,0.0418
2617.00,0.0420
2616.00,0.0422
2615.00,0.0423
2614.00,0.0425
2613.00,0.0426
2612.00,0.0428
2611.00,0.0429
2610.00,0.0430
2609.00,0.0432
2608.00,0.0433
2607.00,0.0433
2606.00,0.0434
2605.00,0.0434
2604.00,0.0435
2603.00,0.0435
2602.00,0.0435
2601.00,0.0435
2600.00,0.0435
2599.00,0.0435
2598.00,0.0434
2597.00,0.0434
2596.00,0.0433
2595.00,0.0433
2594.00,0.0432
2593.00,0.0431
2592.00,0.0431
2591.00,0.0430
2590.00,0.0429
2589.00,0.0428
2588.00,0.0428
2587.00,0.0427
2586.00,0.0427
2585.00,0.0426
2584.00,0.0425
2583.00,0.0424
2582.00,0.0423
2581.00,0.0422
2580.00,0.0421
2579.00,0.0420
2578.00,0.0419
2577.00,0.0418
2576.00,0.0417
2575.00,0.0416
2574.00,0.0415
2573.00,0.0414
2572.00,0.0413
2571.00,0.0411
2570.00,0.0410
2569.00,0.0410
2568.00,0.0409
2567.00,0.0408
2566.00,0.0407
2565.00,0.0406
2564.00,0.0405
2563.00,0.0405
2562.00,0.0404
2561.00,0.0403
2560.00,0.0402
2559.00,0.0401
2558.00,0.0400
2557.00,0.0399
2556.00,0.0398
2555.00,0.0397
2554.00,0.0397
2553.00,0.0396
2552.00,0.0396
2551.00,0.0396
2550.00,0.0395
2549.00,0.0395
2548.00,0.0394
2547.00,0.0395
2546.00,0.0395
2545.00,0.0395
2544.00,0.0396
2543.00,0.0396
2542.00,0.0397
2541.00,0.0397
2540.00,0.0398
2539.00,0.0399
2538.00,0.0399
2537.00,0.0399
2536.00,0.0400
2535.00,0.0401
2534.00,0.0401
2533.00,0.0402
2532.00,0.0403
2531.00,0.0404
2530.00,0.0405
2529.00,0.0406
2528.00,0.0407
2527.00,0.0408
2526.00,0.0409
2525.00,0.0410
2524.00,0.0411
2523.00,0.0412
2522.00,0.0413
2521.00,0.0413
2520.00,0.0414
2519.00,0.0415
2518.00,0.0415
2517.00,0.0416
2516.00,0.0416
2515.00,0.0417
2514.00,0.0417
2513.00,0.0416
2512.00,0.0416
2511.00,0.0416
2510.00,0.0416
2509.00,0.0416
2508.00,0.0416
2507.00,0.0416
2506.00,0.0416
2505.00,0.0416
2504.00,0.0416
2503.00,0.0416
2502.00,0.0417
2501.00,0.0417
2500.00,0.0418
2499.00,0.0418
2498.00,0.0419
2497.00,0.0419
2496.00,0.0420
2495.00,0.0420
2494.00,0.0421
2493.00,0.0422
2492.00,0.0423
2491.00,0.0423
2490.00,0.0423
2489.00,0.0424
2488.00,0.0425
2487.00,0.0425
2486.00,0.0425
2485.00,0.0425
2484.00,0.0426
2483.00,0.0426
2482.00,0.0426
2481.00,0.0426
2480.00,0.0426
2479.00,0.0425
2478.00,0.0425
2477.00,0.0424
2476.00,0.0423
2475.00,0.0422
2474.00,0.0421
2473.00,0.0421
2472.00,0.0420
2471.00,0.0419
2470.00,0.0418
2469.00,0.0417
2468.00,0.0416
2467.00,0.0415
2466.00,0.0413
2465.00,0.0412
2464.00,0.0411
2463.00,0.0410
2462.00,0.0409
2461.00,0.0408
2460.00,0.0407
2459.00,0.0406
2458.00,0.0405
2457.00,0.0404
2456.00,0.0403
2455.00,0.0402
2454.00,0.0400
2453.00,0.0397
2452.00,0.0396
2451.00,0.0394
2450.00,0.0392
2449.00,0.0391
2448.00,0.0389
2447.00,0.0388
2446.00,0.0386
2445.00,0.0384
2444.00,0.0383
2443.00,0.0381
2442.00,0.0379
2441.00,0.0377
2440.00,0.0376
2439.00,0.0374
2438.00,0.0372
2437.00,0.0370
2436.00,0.0368
2435.00,0.0367
2434.00,0.0365
2433.00,0.0363
2432.00,0.0362
2431.00,0.0360
2430.00,0.0358
2429.00,0.0356
2428.00,0.0354
2427.00,0.0352
2426.00,0.0350
2425.00,0.0349
2424.00,0.0348
2423.00,0.0346
2422.00,0.0345
2421.00,0.0343
2420.00,0.0342
2419.00,0.0341
2418.00,0.0339
2417.00,0.0339
2416.00,0.0338
2415.00,0.0337
2414.00,0.0336
2413.00,0.0335
2412.00,0.0334
2411.00,0.0333
2410.00,0.0331
2409.00,0.0330
2408.00,0.0329
2407.00,0.0327
2406.00,0.0326
2405.00,0.0325
2404.00,0.0324
2403.00,0.0323
2402.00,0.0322
2401.00,0.0320
2400.00,0.0319
2399.00,0.0318
2398.00,0.0316
2397.00,0.0314
2396.00,0.0313
2395.00,0.0311
2394.00,0.0310
2393.00,0.0308
2392.00,0.0307
2391.00,0.0305
2390.00,0.0304
2389.00,0.0302
2388.00,0.0301
2387.00,0.0299
2386.00,0.0298
2385.00,0.0296
2384.00,0.0295
2383.00,0.0294
2382.00,0.0292
2381.00,0.0291
2380.00,0.0290
2379.00,0.0289
2378.00,0.0287
2377.00,0.0286
2376.00,0.0285
2375.00,0.0284
2374.00,0.0282
2373.00,0.0281
2372.00,0.0280
2371.00,0.0278
2370.00,0.0276
2369.00,0.0275
2368.00,0.0274
2367.00,0.0273
2366.00,0.0272
2365.00,0.0271
2364.00,0.0270
2363.00,0.0269
2362.00,0.0268
2361.00,0.0267
2360.00,0.0266
2359.00,0.0265
2358.00,0.0264
2357.00,0.0264
2356.00,0.0263
2355.00,0.0262
2354.00,0.0260
2353.00,0.0259
2352.00,0.0258
2351.00,0.0257
2350.00,0.0256
2349.00,0.0255
2348.00,0.0254
2347.00,0.0253
2346.00,0.0252
2345.00,0.0251
2344.00,0.0250
2343.00,0.0249
2342.00,0.0248
2341.00,0.0248
2340.00,0.0247
2339.00,0.0247
2338.00,0.0246
2337.00,0.0246
2336.00,0.0245
2335.00,0.0244
2334.00,0.0243
2333.00,0.0241
2332.00,0.0240
2331.00,0.0239
2330.00,0.0239
2329.00,0.0239
2328.00,0.0241
2327.00,0.0244
2326.00,0.0245
2325.00,0.0245
2324.00,0.0244
2323.00,0.0241
2322.00,0.0238
2321.00,0.0235
2320.00,0.0234
2319.00,0.0232
2318.00,0.0230
2317.00,0.0229
2316.00,0.0228
2315.00,0.0227
2314.00,0.0225
2313.00,0.0224
2312.00,0.0223
2311.00,0.0222
2310.00,0.0220
2309.00,0.0220
2308.00,0.0219
2307.00,0.0219
2306.00,0.0217
2305.00,0.0216
2304.00,0.0215
2303.00,0.0214
2302.00,0.0214
2301.00,0.0214
2300.00,0.0213
2299.00,0.0213
2298.00,0.0212
2297.00,0.0212
2296.00,0.0212
2295.00,0.0212
2294.00,0.0211
2293.00,0.0211
2292.00,0.0211
2291.00,0.0211
2290.00,0.0210
2289.00,0.0209
2288.00,0.0208
2287.00,0.0207
2286.00,0.0206
2285.00,0.0205
2284.00,0.0204
2283.00,0.0203
2282.00,0.0201
2281.00,0.0200
2280.00,0.0198
2279.00,0.0197
2278.00,0.0195
2277.00,0.0193
2276.00,0.0192
2275.00,0.0191
2274.00,0.0189
2273.00,0.0188
2272.00,0.0187
2271.00,0.0186
2270.00,0.0185
2269.00,0.0184
2268.00,0.0183
2267.00,0.0182
2266.00,0.0181
2265.00,0.0179
2264.00,0.0179
2263.00,0.0179
2262.00,0.0179
2261.00,0.0179
2260.00,0.0179
2259.00,0.0178
2258.00,0.0177
2257.00,0.0176
2256.00,0.0175
2255.00,0.0174
2254.00,0.0173
2253.00,0.0172
2252.00,0.0173
2251.00,0.0172
2250.00,0.0171
2249.00,0.0170
2248.00,0.0169
2247.00,0.0169
2246.00,0.0169
2245.00,0.0169
2244.00,0.0169
2243.00,0.0168
2242.00,0.0167
2241.00,0.0166
2240.00,0.0165
2239.00,0.0165
2238.00,0.0164
2237.00,0.0163
2236.00,0.0163
2235.00,0.0163
2234.00,0.0162
2233.00,0.0162
2232.00,0.0162
2231.00,0.0161
2230.00,0.0161
2229.00,0.0161
2228.00,0.0162
2227.00,0.0162
2226.00,0.0161
2225.00,0.0160
2224.00,0.0160
2223.00,0.0159
2222.00,0.0157
2221.00,0.0156
2220.00,0.0155
2219.00,0.0155
2218.00,0.0154
2217.00,0.0154
2216.00,0.0154
2215.00,0.0153
2214.00,0.0152
2213.00,0.0151
2212.00,0.0152
2211.00,0.0152
2210.00,0.0151
2209.00,0.0149
2208.00,0.0149
2207.00,0.0148
2206.00,0.0148
2205.00,0.0148
2204.00,0.0148
2203.00,0.0147
2202.00,0.0146
2201.00,0.0146
2200.00,0.0147
2199.00,0.0147
2198.00,0.0146
2197.00,0.0145
2196.00,0.0145
2195.00,0.0145
2194.00,0.0144
2193.00,0.0144
2192.00,0.0144
2191.00,0.0143
2190.00,0.0141
2189.00,0.0140
2188.00,0.0141
2187.00,0.0141
2186.00,0.0139
2185.00,0.0138
2184.00,0.0135
2183.00,0.0132
2182.00,0.0129
2181.00,0.0130
2180.00,0.0132
2179.00,0.0133
2178.00,0.0131
2177.00,0.0129
2176.00,0.0127
2175.00,0.0126
2174.00,0.0125
2173.00,0.0125
2172.00,0.0127
2171.00,0.0128
2170.00,0.0128
2169.00,0.0128
2168.00,0.0129
2167.00,0.0128
2166.00,0.0125
2165.00,0.0124
2164.00,0.0125
2163.00,0.0124
2162.00,0.0118
2161.00,0.0109
2160.00,0.0099
2159.00,0.0090
2158.00,0.0085
2157.00,0.0086
2156.00,0.0090
2155.00,0.0092
2154.00,0.0094
2153.00,0.0097
2152.00,0.0101
2151.00,0.0103
2150.00,0.0104
2149.00,0.0104
2148.00,0.0105
2147.00,0.0105
2146.00,0.0105
2145.00,0.0107
2144.00,0.0110
2143.00,0.0112
2142.00,0.0112
2141.00,0.0112
2140.00,0.0113
2139.00,0.0114
2138.00,0.0114
2137.00,0.0112
2136.00,0.0111
2135.00,0.0109
2134.00,0.0108
2133.00,0.0108
2132.00,0.0110
2131.00,0.0113
2130.00,0.0114
2129.00,0.0116
2128.00,0.0118
2127.00,0.0119
2126.00,0.0120
2125.00,0.0120
2124.00,0.0122
2123.00,0.0123
2122.00,0.0123
2121.00,0.0123
2120.00,0.0124
2119.00,0.0125
2118.00,0.0125
2117.00,0.0126
2116.00,0.0128
2115.00,0.0129
2114.00,0.0129
2113.00,0.0129
2112.00,0.0129
2111.00,0.0129
2110.00,0.0128
2109.00,0.0128
2108.00,0.0129
2107.00,0.0130
2106.00,0.0129
2105.00,0.0129
2104.00,0.0130
2103.00,0.0130
2102.00,0.0130
2101.00,0.0130
2100.00,0.0130
2099.00,0.0130
2098.00,0.0129
2097.00,0.0128
2096.00,0.0128
2095.00,0.0127
2094.00,0.0126
2093.00,0.0127
2092.00,0.0129
2091.00,0.0130
2090.00,0.0130
2089.00,0.0129
2088.00,0.0130
2087.00,0.0130
2086.00,0.0130
2085.00,0.0130
2084.00,0.0131
2083.00,0.0131
2082.00,0.0131
2081.00,0.0132
2080.00,0.0134
2079.00,0.0135
2078.00,0.0135
2077.00,0.0135
2076.00,0.0135
2075.00,0.0135
2074.00,0.0134
2073.00,0.0134
2072.00,0.0135
2071.00,0.0135
2070.00,0.0135
2069.00,0.0135
2068.00,0.0137
2067.00,0.0139
2066.00,0.0140
2065.00,0.0140
2064.00,0.0141
2063.00,0.0141
2062.00,0.0140
2061.00,0.0140
2060.00,0.0142
2059.00,0.0144
2058.00,0.0145
2057.00,0.0147
2056.00,0.0149
2055.00,0.0151
2054.00,0.0152
2053.00,0.0156
2052.00,0.0160
2051.00,0.0162
2050.00,0.0160
2049.00,0.0158
2048.00,0.0157
2047.00,0.0156
2046.00,0.0155
2045.00,0.0155
2044.00,0.0158
2043.00,0.0160
2042.00,0.0161
2041.00,0.0164
2040.00,0.0167
2039.00,0.0167
2038.00,0.0166
2037.00,0.0165
2036.00,0.0164
2035.00,0.0163
2034.00,0.0160
2033.00,0.0159
2032.00,0.0161
2031.00,0.0162
2030.00,0.0161
2029.00,0.0161
2028.00,0.0162
2027.00,0.0163
2026.00,0.0162
2025.00,0.0162
2024.00,0.0165
2023.00,0.0167
2022.00,0.0166
2021.00,0.0166
2020.00,0.0167
2019.00,0.0167
2018.00,0.0164
2017.00,0.0162
2016.00,0.0162
2015.00,0.0162
2014.00,0.0162
2013.00,0.0163
2012.00,0.0166
2011.00,0.0166
2010.00,0.0164
2009.00,0.0161
2008.00,0.0162
2007.00,0.0162
2006.00,0.0163
2005.00,0.0166
2004.00,0.0171
2003.00,0.0174
2002.00,0.0175
2001.00,0.0176
2000.00,0.0178
1999.00,0.0179
1998.00,0.0180
1997.00,0.0183
1996.00,0.0187
1995.00,0.0191
1994.00,0.0193
1993.00,0.0195
1992.00,0.0198
1991.00,0.0199
1990.00,0.0198
1989.00,0.0197
1988.00,0.0199
1987.00,0.0199
1986.00,0.0199
1985.00,0.0201
1984.00,0.0204
1983.00,0.0206
1982.00,0.0207
1981.00,0.0208
1980.00,0.0208
1979.00,0.0206
1978.00,0.0200
1977.00,0.0197
1976.00,0.0197
1975.00,0.0196
1974.00,0.0194
1973.00,0.0195
1972.00,0.0198
1971.00,0.0200
1970.00,0.0201
1969.00,0.0202
1968.00,0.0205
1967.00,0.0206
1966.00,0.0206
1965.00,0.0206
1964.00,0.0207
1963.00,0.0207
1962.00,0.0206
1961.00,0.0206
1960.00,0.0207
1959.00,0.0207
1958.00,0.0207
1957.00,0.0208
1956.00,0.0211
1955.00,0.0213
1954.00,0.0213
1953.00,0.0213
1952.00,0.0214
1951.00,0.0214
1950.00,0.0214
1949.00,0.0215
1948.00,0.0217
1947.00,0.0219
1946.00,0.0219
1945.00,0.0220
1944.00,0.0222
1943.00,0.0222
1942.00,0.0221
1941.00,0.0220
1940.00,0.0220
1939.00,0.0219
1938.00,0.0216
1937.00,0.0213
1936.00,0.0213
1935.00,0.0213
1934.00,0.0212
1933.00,0.0211
1932.00,0.0211
1931.00,0.0210
1930.00,0.0207
1929.00,0.0206
1928.00,0.0206
1927.00,0.0205
1926.00,0.0204
1925.00,0.0204
1924.00,0.0206
1923.00,0.0208
1922.00,0.0209
1921.00,0.0209
1920.00,0.0208
1919.00,0.0205
1918.00,0.0201
1917.00,0.0199
1916.00,0.0199
1915.00,0.0198
1914.00,0.0197
1913.00,0.0195
1912.00,0.0194
1911.00,0.0194
1910.00,0.0194
1909.00,0.0195
1908.00,0.0195
1907.00,0.0194
1906.00,0.0191
1905.00,0.0187
1904.00,0.0185
1903.00,0.0183
1902.00,0.0181
1901.00,0.0179
1900.00,0.0179
1899.00,0.0178
1898.00,0.0176
1897.00,0.0176
1896.00,0.0177
1895.00,0.0177
1894.00,0.0176
1893.00,0.0176
1892.00,0.0176
1891.00,0.0175
1890.00,0.0174
1889.00,0.0173
1888.00,0.0174
1887.00,0.0173
1886.00,0.0170
1885.00,0.0169
1884.00,0.0168
1883.00,0.0167
1882.00,0.0165
1881.00,0.0164
1880.00,0.0164
1879.00,0.0164
1878.00,0.0162
1877.00,0.0161
1876.00,0.0160
1875.00,0.0159
1874.00,0.0157
1873.00,0.0157
1872.00,0.0159
1871.00,0.0160
1870.00,0.0160
1869.00,0.0161
1868.00,0.0164
1867.00,0.0166
1866.00,0.0165
1865.00,0.0162
1864.00,0.0159
1863.00,0.0156
1862.00,0.0153
1861.00,0.0152
1860.00,0.0152
1859.00,0.0152
1858.00,0.0152
1857.00,0.0152
1856.00,0.0152
1855.00,0.0153
1854.00,0.0152
1853.00,0.0153
1852.00,0.0154
1851.00,0.0155
1850.00,0.0155
1849.00,0.0157
1848.00,0.0160
1847.00,0.0164
1846.00,0.0165
1845.00,0.0164
1844.00,0.0162
1843.00,0.0160
1842.00,0.0161
1841.00,0.0164
1840.00,0.0168
1839.00,0.0168
1838.00,0.0167
1837.00,0.0168
1836.00,0.0169
1835.00,0.0169
1834.00,0.0167
1833.00,0.0166
1832.00,0.0167
1831.00,0.0167
1830.00,0.0166
1829.00,0.0167
1828.00,0.0168
1827.00,0.0168
1826.00,0.0165
1825.00,0.0162
1824.00,0.0160
1823.00,0.0158
1822.00,0.0156
1821.00,0.0154
1820.00,0.0152
1819.00,0.0151
1818.00,0.0149
1817.00,0.0149
1816.00,0.0150
1815.00,0.0151
1814.00,0.0152
1813.00,0.0155
1812.00,0.0159
1811.00,0.0163
1810.00,0.0166
1809.00,0.0169
1808.00,0.0172
1807.00,0.0175
1806.00,0.0177
1805.00,0.0181
1804.00,0.0186
1803.00,0.0193
1802.00,0.0201
1801.00,0.0209
1800.00,0.0219
1799.00,0.0227
1798.00,0.0235
1797.00,0.0243
1796.00,0.0254
1795.00,0.0264
1794.00,0.0271
1793.00,0.0279
1792.00,0.0290
1791.00,0.0302
1790.00,0.0314
1789.00,0.0326
1788.00,0.0339
1787.00,0.0353
1786.00,0.0368
1785.00,0.0390
1784.00,0.0418
1783.00,0.0453
1782.00,0.0498
1781.00,0.0554
1780.00,0.0623
1779.00,0.0699
1778.00,0.0781
1777.00,0.0871
1776.00,0.0967
1775.00,0.1067
1774.00,0.1169
1773.00,0.1281
1772.00,0.1395
1771.00,0.1495
1770.00,0.1571
1769.00,0.1627
1768.00,0.1666
1767.00,0.1685
1766.00,0.1684
1765.00,0.1668
1764.00,0.1639
1763.00,0.1596
1762.00,0.1545
1761.00,0.1497
1760.00,0.1457
1759.00,0.1425
1758.00,0.1399
1757.00,0.1377
1756.00,0.1358
1755.00,0.1341
1754.00,0.1322
1753.00,0.1295
1752.00,0.1257
1751.00,0.1208
1750.00,0.1153
1749.00,0.1097
1748.00,0.1039
1747.00,0.0979
1746.00,0.0920
1745.00,0.0868
1744.00,0.0823
1743.00,0.0786
1742.00,0.0755
1741.00,0.0730
1740.00,0.0709
1739.00,0.0695
1738.00,0.0690
1737.00,0.0693
1736.00,0.0699
1735.00,0.0708
1734.00,0.0728
1733.00,0.0761
1732.00,0.0803
1731.00,0.0851
1730.00,0.0902
1729.00,0.0955
1728.00,0.1011
1727.00,0.1072
1726.00,0.1139
1725.00,0.1214
1724.00,0.1297
1723.00,0.1386
1722.00,0.1474
1721.00,0.1558
1720.00,0.1645
1719.00,0.1744
1718.00,0.1863
1717.00,0.1990
1716.00,0.2101
1715.00,0.2190
1714.00,0.2258
1713.00,0.2308
1712.00,0.2341
1711.00,0.2361
1710.00,0.2367
1709.00,0.2359
1708.00,0.2335
1707.00,0.2300
1706.00,0.2253
1705.00,0.2198
1704.00,0.2140
1703.00,0.2081
1702.00,0.2011
1701.00,0.1924
1700.00,0.1835
1699.00,0.1774
1698.00,0.1743
1697.00,0.1718
1696.00,0.1689
1695.00,0.1661
1694.00,0.1646
1693.00,0.1649
1692.00,0.1669
1691.00,0.1699
1690.00,0.1740
1689.00,0.1793
1688.00,0.1849
1687.00,0.1905
1686.00,0.1965
1685.00,0.2049
1684.00,0.2160
1683.00,0.2266
1682.00,0.2344
1681.00,0.2406
1680.00,0.2465
1679.00,0.2515
1678.00,0.2552
1677.00,0.2579
1676.00,0.2604
1675.00,0.2624
1674.00,0.2636
1673.00,0.2639
1672.00,0.2635
1671.00,0.2621
1670.00,0.2601
1669.00,0.2581
1668.00,0.2561
1667.00,0.2543
1666.00,0.2527
1665.00,0.2514
1664.00,0.2508
1663.00,0.2512
1662.00,0.2522
1661.00,0.2536
1660.00,0.2549
1659.00,0.2561
1658.00,0.2570
1657.00,0.2575
1656.00,0.2578
1655.00,0.2579
1654.00,0.2583
1653.00,0.2599
1652.00,0.2614
1651.00,0.2617
1650.00,0.2619
1649.00,0.2619
1648.00,0.2620
1647.00,0.2627
1646.00,0.2637
1645.00,0.2644
1644.00,0.2652
1643.00,0.2666
1642.00,0.2685
1641.00,0.2710
1640.00,0.2741
1639.00,0.2776
1638.00,0.2814
1637.00,0.2863
1636.00,0.2932
1635.00,0.3010
1634.00,0.3071
1633.00,0.3116
1632.00,0.3158
1631.00,0.3197
1630.00,0.3233
1629.00,0.3266
1628.00,0.3296
1627.00,0.3318
1626.00,0.3324
1625.00,0.3315
1624.00,0.3294
1623.00,0.3262
1622.00,0.3216
1621.00,0.3155
1620.00,0.3085
1619.00,0.3002
1618.00,0.2902
1617.00,0.2786
1616.00,0.2669
1615.00,0.2569
1614.00,0.2491
1613.00,0.2442
1612.00,0.2434
1611.00,0.2488
1610.00,0.2614
1609.00,0.2799
1608.00,0.3012
1607.00,0.3202
1606.00,0.3316
1605.00,0.3324
1604.00,0.3228
1603.00,0.3052
1602.00,0.2837
1601.00,0.2619
1600.00,0.2422
1599.00,0.2252
1598.00,0.2108
1597.00,0.1983
1596.00,0.1871
1595.00,0.1768
1594.00,0.1673
1593.00,0.1584
1592.00,0.1503
1591.00,0.1430
1590.00,0.1366
1589.00,0.1310
1588.00,0.1262
1587.00,0.1221
1586.00,0.1188
1585.00,0.1159
1584.00,0.1135
1583.00,0.1114
1582.00,0.1095
1581.00,0.1075
1580.00,0.1055
1579.00,0.1035
1578.00,0.1012
1577.00,0.0981
1576.00,0.0943
1575.00,0.0903
1574.00,0.0866
1573.00,0.0833
1572.00,0.0798
1571.00,0.0760
1570.00,0.0722
1569.00,0.0691
1568.00,0.0667
1567.00,0.0647
1566.00,0.0630
1565.00,0.0613
1564.00,0.0597
1563.00,0.0584
1562.00,0.0572
1561.00,0.0554
1560.00,0.0531
1559.00,0.0518
1558.00,0.0519
1557.00,0.0513
1556.00,0.0506
1555.00,0.0502
1554.00,0.0494
1553.00,0.0484
1552.00,0.0477
1551.00,0.0473
1550.00,0.0469
1549.00,0.0462
1548.00,0.0454
1547.00,0.0446
1546.00,0.0438
1545.00,0.0434
1544.00,0.0432
1543.00,0.0432
1542.00,0.0429
1541.00,0.0424
1540.00,0.0419
1539.00,0.0411
1538.00,0.0400
1537.00,0.0395
1536.00,0.0395
1535.00,0.0392
1534.00,0.0387
1533.00,0.0383
1532.00,0.0381
1531.00,0.0380
1530.00,0.0378
1529.00,0.0376
1528.00,0.0375
1527.00,0.0375
1526.00,0.0375
1525.00,0.0376
1524.00,0.0376
1523.00,0.0377
1522.00,0.0377
1521.00,0.0376
1520.00,0.0376
1519.00,0.0377
1518.00,0.0382
1517.00,0.0388
1516.00,0.0392
1515.00,0.0394
1514.00,0.0395
1513.00,0.0397
1512.00,0.0402
1511.00,0.0412
1510.00,0.0428
1509.00,0.0447
1508.00,0.0470
1507.00,0.0500
1506.00,0.0526
1505.00,0.0540
1504.00,0.0558
1503.00,0.0588
1502.00,0.0623
1501.00,0.0659
1500.00,0.0694
1499.00,0.0729
1498.00,0.0766
1497.00,0.0800
1496.00,0.0827
1495.00,0.0845
1494.00,0.0858
1493.00,0.0869
1492.00,0.0882
1491.00,0.0904
1490.00,0.0945
1489.00,0.1002
1488.00,0.1061
1487.00,0.1110
1486.00,0.1139
1485.00,0.1139
1484.00,0.1104
1483.00,0.1040
1482.00,0.0956
1481.00,0.0869
1480.00,0.0793
1479.00,0.0735
1478.00,0.0696
1477.00,0.0677
1476.00,0.0677
1475.00,0.0694
1474.00,0.0729
1473.00,0.0787
1472.00,0.0863
1471.00,0.0945
1470.00,0.1029
1469.00,0.1115
1468.00,0.1202
1467.00,0.1287
1466.00,0.1370
1465.00,0.1448
1464.00,0.1510
1463.00,0.1552
1462.00,0.1578
1461.00,0.1595
1460.00,0.1606
1459.00,0.1612
1458.00,0.1616
1457.00,0.1613
1456.00,0.1598
1455.00,0.1573
1454.00,0.1553
1453.00,0.1540
1452.00,0.1532
1451.00,0.1533
1450.00,0.1539
1449.00,0.1547
1448.00,0.1549
1447.00,0.1543
1446.00,0.1531
1445.00,0.1514
1444.00,0.1494
1443.00,0.1474
1442.00,0.1454
1441.00,0.1436
1440.00,0.1421
1439.00,0.1406
1438.00,0.1392
1437.00,0.1382
1436.00,0.1379
1435.00,0.1383
1434.00,0.1390
1433.00,0.1398
1432.00,0.1407
1431.00,0.1422
1430.00,0.1449
1429.00,0.1489
1428.00,0.1540
1427.00,0.1598
1426.00,0.1662
1425.00,0.1727
1424.00,0.1780
1423.00,0.1806
1422.00,0.1798
1421.00,0.1752
1420.00,0.1667
1419.00,0.1554
1418.00,0.1437
1417.00,0.1329
1416.00,0.1227
1415.00,0.1131
1414.00,0.1042
1413.00,0.0965
1412.00,0.0899
1411.00,0.0844
1410.00,0.0797
1409.00,0.0758
1408.00,0.0725
1407.00,0.0697
1406.00,0.0675
1405.00,0.0657
1404.00,0.0640
1403.00,0.0626
1402.00,0.0614
1401.00,0.0604
1400.00,0.0596
1399.00,0.0592
1398.00,0.0591
1397.00,0.0592
1396.00,0.0591
1395.00,0.0591
1394.00,0.0591
1393.00,0.0592
1392.00,0.0595
1391.00,0.0601
1390.00,0.0610
1389.00,0.0622
1388.00,0.0636
1387.00,0.0654
1386.00,0.0675
1385.00,0.0696
1384.00,0.0719
1383.00,0.0746
1382.00,0.0777
1381.00,0.0815
1380.00,0.0858
1379.00,0.0908
1378.00,0.0964
1377.00,0.1025
1376.00,0.1095
1375.00,0.1173
1374.00,0.1258
1373.00,0.1339
1372.00,0.1411
1371.00,0.1471
1370.00,0.1522
1369.00,0.1560
1368.00,0.1577
1367.00,0.1571
1366.00,0.1539
1365.00,0.1483
1364.00,0.1403
1363.00,0.1304
1362.00,0.1195
1361.00,0.1084
1360.00,0.0980
1359.00,0.0888
1358.00,0.0810
1357.00,0.0746
1356.00,0.0693
1355.00,0.0651
1354.00,0.0617
1353.00,0.0589
1352.00,0.0565
1351.00,0.0547
1350.00,0.0532
1349.00,0.0520
1348.00,0.0510
1347.00,0.0502
1346.00,0.0497
1345.00,0.0493
1344.00,0.0491
1343.00,0.0491
1342.00,0.0494
1341.00,0.0501
1340.00,0.0510
1339.00,0.0519
1338.00,0.0527
1337.00,0.0534
1336.00,0.0539
1335.00,0.0547
1334.00,0.0557
1333.00,0.0571
1332.00,0.0588
1331.00,0.0608
1330.00,0.0632
1329.00,0.0657
1328.00,0.0685
1327.00,0.0715
1326.00,0.0747
1325.00,0.0780
1324.00,0.0812
1323.00,0.0843
1322.00,0.0872
1321.00,0.0899
1320.00,0.0921
1319.00,0.0939
1318.00,0.0952
1317.00,0.0959
1316.00,0.0963
1315.00,0.0965
1314.00,0.0967
1313.00,0.0969
1312.00,0.0974
1311.00,0.0981
1310.00,0.0993
1309.00,0.1011
1308.00,0.1036
1307.00,0.1069
1306.00,0.1109
1305.00,0.1158
1304.00,0.1216
1303.00,0.1284
1302.00,0.1361
1301.00,0.1449
1300.00,0.1548
1299.00,0.1657
1298.00,0.1775
1297.00,0.1902
1296.00,0.2032
1295.00,0.2161
1294.00,0.2287
1293.00,0.2406
1292.00,0.2516
1291.00,0.2617
1290.00,0.2708
1289.00,0.2787
1288.00,0.2853
1287.00,0.2903
1286.00,0.2936
1285.00,0.2953
1284.00,0.2957
1283.00,0.2951
1282.00,0.2940
1281.00,0.2930
1280.00,0.2924
1279.00,0.2925
1278.00,0.2931
1277.00,0.2944
1276.00,0.2959
1275.00,0.2972
1274.00,0.2980
1273.00,0.2977
1272.00,0.2960
1271.00,0.2925
1270.00,0.2872
1269.00,0.2803
1268.00,0.2724
1267.00,0.2640
1266.00,0.2559
1265.00,0.2486
1264.00,0.2424
1263.00,0.2376
1262.00,0.2344
1261.00,0.2328
1260.00,0.2328
1259.00,0.2343
1258.00,0.2373
1257.00,0.2417
1256.00,0.2474
1255.00,0.2540
1254.00,0.2613
1253.00,0.2688
1252.00,0.2761
1251.00,0.2829
1250.00,0.2888
1249.00,0.2937
1248.00,0.2976
1247.00,0.3003
1246.00,0.3021
1245.00,0.3031
1244.00,0.3034
1243.00,0.3030
1242.00,0.3022
1241.00,0.3011
1240.00,0.2997
1239.00,0.2981
1238.00,0.2963
1237.00,0.2944
1236.00,0.2925
1235.00,0.2905
1234.00,0.2886
1233.00,0.2867
1232.00,0.2850
1231.00,0.2835
1230.00,0.2825
1229.00,0.2821
1228.00,0.2824
1227.00,0.2837
1226.00,0.2861
1225.00,0.2896
1224.00,0.2941
1223.00,0.2993
1222.00,0.3048
1221.00,0.3102
1220.00,0.3149
1219.00,0.3181
1218.00,0.3193
1217.00,0.3182
1216.00,0.3150
1215.00,0.3100
1214.00,0.3042
1213.00,0.2985
1212.00,0.2939
1211.00,0.2910
1210.00,0.2903
1209.00,0.2921
1208.00,0.2963
1207.00,0.3027
1206.00,0.3111
1205.00,0.3213
1204.00,0.3332
1203.00,0.3465
1202.00,0.3611
1201.00,0.3769
1200.00,0.3940
1199.00,0.4121
1198.00,0.4311
1197.00,0.4511
1196.00,0.4718
1195.00,0.4927
1194.00,0.5135
1193.00,0.5338
1192.00,0.5529
1191.00,0.5698
1190.00,0.5833
1189.00,0.5926
1188.00,0.5966
1187.00,0.5942
1186.00,0.5852
1185.00,0.5698
1184.00,0.5489
1183.00,0.5233
1182.00,0.4948
1181.00,0.4650
1180.00,0.4352
1179.00,0.4064
1178.00,0.3795
1177.00,0.3550
1176.00,0.3330
1175.00,0.3134
1174.00,0.2961
1173.00,0.2809
1172.00,0.2675
1171.00,0.2557
1170.00,0.2457
1169.00,0.2373
1168.00,0.2308
1167.00,0.2263
1166.00,0.2239
1165.00,0.2236
1164.00,0.2251
1163.00,0.2279
1162.00,0.2312
1161.00,0.2342
1160.00,0.2358
1159.00,0.2350
1158.00,0.2312
1157.00,0.2242
1156.00,0.2144
1155.00,0.2025
1154.00,0.1897
1153.00,0.1769
1152.00,0.1649
1151.00,0.1542
1150.00,0.1453
1149.00,0.1380
1148.00,0.1325
1147.00,0.1286
1146.00,0.1266
1145.00,0.1265
1144.00,0.1281
1143.00,0.1313
1142.00,0.1358
1141.00,0.1408
1140.00,0.1455
1139.00,0.1493
1138.00,0.1516
1137.00,0.1523
1136.00,0.1518
1135.00,0.1508
1134.00,0.1500
1133.00,0.1498
1132.00,0.1501
1131.00,0.1504
1130.00,0.1500
1129.00,0.1483
1128.00,0.1450
1127.00,0.1402
1126.00,0.1343
1125.00,0.1277
1124.00,0.1210
1123.00,0.1147
1122.00,0.1089
1121.00,0.1037
1120.00,0.0993
1119.00,0.0954
1118.00,0.0922
1117.00,0.0893
1116.00,0.0869
1115.00,0.0847
1114.00,0.0828
1113.00,0.0812
1112.00,0.0797
1111.00,0.0785
1110.00,0.0774
1109.00,0.0765
1108.00,0.0758
1107.00,0.0752
1106.00,0.0749
1105.00,0.0747
1104.00,0.0748
1103.00,0.0753
1102.00,0.0764
1101.00,0.0781
1100.00,0.0806
1099.00,0.0843
1098.00,0.0892
1097.00,0.0952
1096.00,0.1020
1095.00,0.1091
1094.00,0.1155
1093.00,0.1207
1092.00,0.1245
1091.00,0.1277
1090.00,0.1315
1089.00,0.1373
1088.00,0.1460
1087.00,0.1580
1086.00,0.1729
1085.00,0.1897
1084.00,0.2069
1083.00,0.2226
1082.00,0.2347
1081.00,0.2415
1080.00,0.2423
1079.00,0.2371
1078.00,0.2269
1077.00,0.2133
1076.00,0.1979
1075.00,0.1821
1074.00,0.1668
1073.00,0.1527
1072.00,0.1401
1071.00,0.1290
1070.00,0.1197
1069.00,0.1119
1068.00,0.1054
1067.00,0.1000
1066.00,0.0956
1065.00,0.0921
1064.00,0.0891
1063.00,0.0868
1062.00,0.0850
1061.00,0.0835
1060.00,0.0824
1059.00,0.0816
1058.00,0.0811
1057.00,0.0810
1056.00,0.0812
1055.00,0.0817
1054.00,0.0826
1053.00,0.0838
1052.00,0.0855
1051.00,0.0877
1050.00,0.0906
1049.00,0.0941
1048.00,0.0981
1047.00,0.1028
1046.00,0.1080
1045.00,0.1138
1044.00,0.1199
1043.00,0.1262
1042.00,0.1323
1041.00,0.1379
1040.00,0.1426
1039.00,0.1461
1038.00,0.1481
1037.00,0.1489
1036.00,0.1487
1035.00,0.1478
1034.00,0.1466
1033.00,0.1453
1032.00,0.1440
1031.00,0.1428
1030.00,0.1416
1029.00,0.1405
1028.00,0.1394
1027.00,0.1385
1026.00,0.1378
1025.00,0.1375
1024.00,0.1376
1023.00,0.1383
1022.00,0.1397
1021.00,0.1419
1020.00,0.1446
1019.00,0.1479
1018.00,0.1517
1017.00,0.1559
1016.00,0.1601
1015.00,0.1645
1014.00,0.1687
1013.00,0.1726
1012.00,0.1757
1011.00,0.1777
1010.00,0.1782
1009.00,0.1771
1008.00,0.1743
1007.00,0.1702
1006.00,0.1649
1005.00,0.1588
1004.00,0.1521
1003.00,0.1450
1002.00,0.1378
1001.00,0.1308
1000.00,0.1242
999.00,0.1181
998.00,0.1127
997.00,0.1082
996.00,0.1043
995.00,0.1010
994.00,0.0983
993.00,0.0959
992.00,0.0939
991.00,0.0921
990.00,0.0905
989.00,0.0890
988.00,0.0877
987.00,0.0864
986.00,0.0853
985.00,0.0842
984.00,0.0832
983.00,0.0823
982.00,0.0815
981.00,0.0809
980.00,0.0803
979.00,0.0798
978.00,0.0795
977.00,0.0794
976.00,0.0794
975.00,0.0795
974.00,0.0799
973.00,0.0804
972.00,0.0811
971.00,0.0820
970.00,0.0831
969.00,0.0843
968.00,0.0857
967.00,0.0871
966.00,0.0886
965.00,0.0900
964.00,0.0911
963.00,0.0921
962.00,0.0927
961.00,0.0930
960.00,0.0928
959.00,0.0922
958.00,0.0911
957.00,0.0896
956.00,0.0877
955.00,0.0856
954.00,0.0835
953.00,0.0813
952.00,0.0793
951.00,0.0774
950.00,0.0759
949.00,0.0745
948.00,0.0734
947.00,0.0725
946.00,0.0718
945.00,0.0712
944.00,0.0709
943.00,0.0707
942.00,0.0707
941.00,0.0709
940.00,0.0713
939.00,0.0721
938.00,0.0731
937.00,0.0746
936.00,0.0762
935.00,0.0779
934.00,0.0795
933.00,0.0810
932.00,0.0822
931.00,0.0834
930.00,0.0849
929.00,0.0874
928.00,0.0911
927.00,0.0964
926.00,0.1036
925.00,0.1126
924.00,0.1235
923.00,0.1359
922.00,0.1497
921.00,0.1641
920.00,0.1784
919.00,0.1914
918.00,0.2023
917.00,0.2100
916.00,0.2137
915.00,0.2129
914.00,0.2077
913.00,0.1987
912.00,0.1866
911.00,0.1727
910.00,0.1582
909.00,0.1442
908.00,0.1315
907.00,0.1204
906.00,0.1113
905.00,0.1040
904.00,0.0984
903.00,0.0941
902.00,0.0909
901.00,0.0886
900.00,0.0870
899.00,0.0858
898.00,0.0849
897.00,0.0842
896.00,0.0836
895.00,0.0830
894.00,0.0824
893.00,0.0818
892.00,0.0814
891.00,0.0811
890.00,0.0811
889.00,0.0815
888.00,0.0823
887.00,0.0834
886.00,0.0848
885.00,0.0866
884.00,0.0886
883.00,0.0906
882.00,0.0925
881.00,0.0941
880.00,0.0953
879.00,0.0958
878.00,0.0957
877.00,0.0948
876.00,0.0930
875.00,0.0906
874.00,0.0876
873.00,0.0844
872.00,0.0812
871.00,0.0781
870.00,0.0754
869.00,0.0731
868.00,0.0712
867.00,0.0697
866.00,0.0685
865.00,0.0676
864.00,0.0670
863.00,0.0665
862.00,0.0664
861.00,0.0663
860.00,0.0665
859.00,0.0668
858.00,0.0673
857.00,0.0680
856.00,0.0689
855.00,0.0700
854.00,0.0714
853.00,0.0729
852.00,0.0747
851.00,0.0765
850.00,0.0782
849.00,0.0798
848.00,0.0813
847.00,0.0828
846.00,0.0847
845.00,0.0871
844.00,0.0904
843.00,0.0948
842.00,0.1009
841.00,0.1087
840.00,0.1182
839.00,0.1289
838.00,0.1403
837.00,0.1513
836.00,0.1608
835.00,0.1677
834.00,0.1713
833.00,0.1711
832.00,0.1671
831.00,0.1598
830.00,0.1500
829.00,0.1389
828.00,0.1273
827.00,0.1160
826.00,0.1056
825.00,0.0964
824.00,0.0885
823.00,0.0818
822.00,0.0762
821.00,0.0716
820.00,0.0677
819.00,0.0644
818.00,0.0616
817.00,0.0592
816.00,0.0572
815.00,0.0554
814.00,0.0540
813.00,0.0530
812.00,0.0523
811.00,0.0521
810.00,0.0526
809.00,0.0538
808.00,0.0557
807.00,0.0585
806.00,0.0621
805.00,0.0664
804.00,0.0710
803.00,0.0754
802.00,0.0793
801.00,0.0822
800.00,0.0837
799.00,0.0837
798.00,0.0824
797.00,0.0800
796.00,0.0770
795.00,0.0739
794.00,0.0713
793.00,0.0694
792.00,0.0686
791.00,0.0690
790.00,0.0708
789.00,0.0742
788.00,0.0793
787.00,0.0862
786.00,0.0949
785.00,0.1052
784.00,0.1169
783.00,0.1293
782.00,0.1416
781.00,0.1530
780.00,0.1623
779.00,0.1686
778.00,0.1713
777.00,0.1702
776.00,0.1654
775.00,0.1576
774.00,0.1478
773.00,0.1369
772.00,0.1260
771.00,0.1158
770.00,0.1069
769.00,0.0995
768.00,0.0939
767.00,0.0899
766.00,0.0875
765.00,0.0866
764.00,0.0871
763.00,0.0892
762.00,0.0929
761.00,0.0984
760.00,0.1058
759.00,0.1152
758.00,0.1267
757.00,0.1402
756.00,0.1555
755.00,0.1722
754.00,0.1898
753.00,0.2077
752.00,0.2250
751.00,0.2408
750.00,0.2539
749.00,0.2632
748.00,0.2673
747.00,0.2657
746.00,0.2580
745.00,0.2451
744.00,0.2285
743.00,0.2102
742.00,0.1923
741.00,0.1762
740.00,0.1627
739.00,0.1518
738.00,0.1432
737.00,0.1364
736.00,0.1307
735.00,0.1257
734.00,0.1209
733.00,0.1161
732.00,0.1112
731.00,0.1062
730.00,0.1013
729.00,0.0965
728.00,0.0919
727.00,0.0876
726.00,0.0837
725.00,0.0802
724.00,0.0772
723.00,0.0746
722.00,0.0724
721.00,0.0706
720.00,0.0693
719.00,0.0684
718.00,0.0680
717.00,0.0681
716.00,0.0689
715.00,0.0704
714.00,0.0728
713.00,0.0763
712.00,0.0810
711.00,0.0870
710.00,0.0946
709.00,0.1040
708.00,0.1152
707.00,0.1282
706.00,0.1423
705.00,0.1566
704.00,0.1694
703.00,0.1786
702.00,0.1824
701.00,0.1795
700.00,0.1704
699.00,0.1567
698.00,0.1410
697.00,0.1257
696.00,0.1124
695.00,0.1018
694.00,0.0939
693.00,0.0881
692.00,0.0842
691.00,0.0816
690.00,0.0800
689.00,0.0790
688.00,0.0784
687.00,0.0782
686.00,0.0780
685.00,0.0780
684.00,0.0781
683.00,0.0784
682.00,0.0787
681.00,0.0791
680.00,0.0798
679.00,0.0809
678.00,0.0825
677.00,0.0849
676.00,0.0885
675.00,0.0936
674.00,0.1004
673.00,0.1093
672.00,0.1197
671.00,0.1307
670.00,0.1423
669.00,0.1555
668.00,0.1693
667.00,0.1784
666.00,0.1801
665.00,0.1765
664.00,0.1699
663.00,0.1619
662.00,0.1541
661.00,0.1477
660.00,0.1431
659.00,0.1403
658.00,0.1388
657.00,0.1382
656.00,0.1381
655.00,0.1381
654.00,0.1382
653.00,0.1381
652.00,0.1379
651.00,0.1381
650.00,0.1394
649.00,0.1431
648.00,0.1504
647.00,0.1622
646.00,0.1783
645.00,0.1971
644.00,0.2156
643.00,0.2304
642.00,0.2386
641.00,0.2387
640.00,0.2315
639.00,0.2187
638.00,0.2030
637.00,0.1866
636.00,0.1710
635.00,0.1570
634.00,0.1450
633.00,0.1350
632.00,0.1267
631.00,0.1199
630.00,0.1143
629.00,0.1096
628.00,0.1055
627.00,0.1020
626.00,0.0991
625.00,0.0965
624.00,0.0943
623.00,0.0923
622.00,0.0907
621.00,0.0892
620.00,0.0879
619.00,0.0868
618.00,0.0860
617.00,0.0853
616.00,0.0847
615.00,0.0842
614.00,0.0838
613.00,0.0836
612.00,0.0835
611.00,0.0835
610.00,0.0837
609.00,0.0839
608.00,0.0844
607.00,0.0852
606.00,0.0868
605.00,0.0890
604.00,0.0920
603.00,0.0961
602.00,0.1014
601.00,0.1080
600.00,0.1156
599.00,0.1239
598.00,0.1321
597.00,0.1397
596.00,0.1459
595.00,0.1503
594.00,0.1526
593.00,0.1528
592.00,0.1511
591.00,0.1480
590.00,0.1442
589.00,0.1403
588.00,0.1368
587.00,0.1338
586.00,0.1318
585.00,0.1305
584.00,0.1299
583.00,0.1299
582.00,0.1305
581.00,0.1314
580.00,0.1326
579.00,0.1338
578.00,0.1350
577.00,0.1361
576.00,0.1370
575.00,0.1377
574.00,0.1383
573.00,0.1389
572.00,0.1392
571.00,0.1395
570.00,0.1396
569.00,0.1395
568.00,0.1390
567.00,0.1384
566.00,0.1376
565.00,0.1365
564.00,0.1349
563.00,0.1331
562.00,0.1313
561.00,0.1296
560.00,0.1281
559.00,0.1267
558.00,0.1252
557.00,0.1237
556.00,0.1220
555.00,0.1201
554.00,0.1181
553.00,0.1159
552.00,0.1136
551.00,0.1111
550.00,0.1089
549.00,0.1071
548.00,0.1058
547.00,0.1055
546.00,0.1063
545.00,0.1085
544.00,0.1122
543.00,0.1173
542.00,0.1234
541.00,0.1294
540.00,0.1341
539.00,0.1368
538.00,0.1369
537.00,0.1346
536.00,0.1302
535.00,0.1245
534.00,0.1181
533.00,0.1119
532.00,0.1061
531.00,0.1009
530.00,0.0966
529.00,0.0930
528.00,0.0901
527.00,0.0878
526.00,0.0862
525.00,0.0850
524.00,0.0842
523.00,0.0840
522.00,0.0846
521.00,0.0858
520.00,0.0877
519.00,0.0906
518.00,0.0945
517.00,0.0991
516.00,0.1039
515.00,0.1087
514.00,0.1134
513.00,0.1175
512.00,0.1207
511.00,0.1227
510.00,0.1235
509.00,0.1229
508.00,0.1209
507.00,0.1177
506.00,0.1138
505.00,0.1096
504.00,0.1053
503.00,0.1010
502.00,0.0970
501.00,0.0934
500.00,0.0901
499.00,0.0873
498.00,0.0851
497.00,0.0832
496.00,0.0814
495.00,0.0799
494.00,0.0789
493.00,0.0781
492.00,0.0773
491.00,0.0764
490.00,0.0755
489.00,0.0747
488.00,0.0740
487.00,0.0733
486.00,0.0728
485.00,0.0725
484.00,0.0721
483.00,0.0718
482.00,0.0716
481.00,0.0713
480.00,0.0710
479.00,0.0709
478.00,0.0711
477.00,0.0714
476.00,0.0714
475.00,0.0713
474.00,0.0716
473.00,0.0720
472.00,0.0721
471.00,0.0718
470.00,0.0714
469.00,0.0711
468.00,0.0707
467.00,0.0703
466.00,0.0702
465.00,0.0701
464.00,0.0700
463.00,0.0699
462.00,0.0699
461.00,0.0697
460.00,0.0694
459.00,0.0696
458.00,0.0705
457.00,0.0715
456.00,0.0720
455.00,0.0722
454.00,0.0725
453.00,0.0728
452.00,0.0731
451.00,0.0738
450.00,0.0749
449.00,0.0762
448.00,0.0773
447.00,0.0781
446.00,0.0790
445.00,0.0798
444.00,0.0807
443.00,0.0815
442.00,0.0823
441.00,0.0825
440.00,0.0823
439.00,0.0822
438.00,0.0826
437.00,0.0832
436.00,0.0837
435.00,0.0840
434.00,0.0844
433.00,0.0851
432.00,0.0860
431.00,0.0874
430.00,0.0893
429.00,0.0911
428.00,0.0925
427.00,0.0940
426.00,0.0957
425.00,0.0978
424.00,0.0998
423.00,0.1021
422.00,0.1047
421.00,0.1072
420.00,0.1094
419.00,0.1112
418.00,0.1120
417.00,0.1115
416.00,0.1104
415.00,0.1097
414.00,0.1099
413.00,0.1104
412.00,0.1103
411.00,0.1097
410.00,0.1093
409.00,0.1091
408.00,0.1088
407.00,0.1084
406.00,0.1083
405.00,0.1083
404.00,0.1080
403.00,0.1076
402.00,0.1074
401.00,0.1069
400.00,0.1058
