Created as New Dataset,Sample 266 By YargerLab Date Saturday, October 18 2025
cm-1,A
4000.00,0.0040
3999.00,0.0040
3998.00,0.0040
3997.00,0.0040
3996.00,0.0040
3995.00,0.0040
3994.00,0.0040
3993.00,0.0040
3992.00,0.0040
3991.00,0.0040
3990.00,0.0040
3989.00,0.0040
3988.00,0.0040
3987.00,0.0040
3986.00,0.0040
3985.00,0.0040
3984.00,0.0040
3983.00,0.0040
3982.00,0.0040
3981.00,0.0040
3980.00,0.0040
3979.00,0.0040
3978.00,0.0040
3977.00,0.0040
3976.00,0.0040
3975.00,0.0040
3974.00,0.0040
3973.00,0.0040
3972.00,0.0040
3971.00,0.0040
3970.00,0.0040
3969.00,0.0040
3968.00,0.0040
3967.00,0.0040
3966.00,0.0040
3965.00,0.0040
3964.00,0.0040
3963.00,0.0040
3962.00,0.0040
3961.00,0.0040
3960.00,0.0040
3959.00,0.0040
3958.00,0.0040
3957.00,0.0040
3956.00,0.0040
3955.00,0.0040
3954.00,0.0040
3953.00,0.0040
3952.00,0.0040
3951.00,0.0040
3950.00,0.0040
3949.00,0.0041
3948.00,0.0041
3947.00,0.0041
3946.00,0.0041
3945.00,0.0041
3944.00,0.0041
3943.00,0.0041
3942.00,0.0041
3941.00,0.0041
3940.00,0.0041
3939.00,0.0041
3938.00,0.0041
3937.00,0.0041
3936.00,0.0041
3935.00,0.0041
3934.00,0.0041
3933.00,0.0041
3932.00,0.0041
3931.00,0.0041
3930.00,0.0041
3929.00,0.0041
3928.00,0.0041
3927.00,0.0041
3926.00,0.0041
3925.00,0.0041
3924.00,0.0041
3923.00,0.0041
3922.00,0.0041
3921.00,0.0042
3920.00,0.0042
3919.00,0.0041
3918.00,0.0041
3917.00,0.0041
3916.00,0.0041
3915.00,0.0041
3914.00,0.0041
3913.00,0.0041
3912.00,0.0040
3911.00,0.0040
3910.00,0.0040
3909.00,0.0040
3908.00,0.0040
3907.00,0.0041
3906.00,0.0041
3905.00,0.0042
3904.00,0.0042
3903.00,0.0043
3902.00,0.0043
3901.00,0.0044
3900.00,0.0043
3899.00,0.0043
3898.00,0.0042
3897.00,0.0042
3896.00,0.0041
3895.00,0.0041
3894.00,0.0041
3893.00,0.0042
3892.00,0.0041
3891.00,0.0041
3890.00,0.0041
3889.00,0.0041
3888.00,0.0042
3887.00,0.0042
3886.00,0.0042
3885.00,0.0042
3884.00,0.0042
3883.00,0.0043
3882.00,0.0043
3881.00,0.0042
3880.00,0.0042
3879.00,0.0041
3878.00,0.0041
3877.00,0.0042
3876.00,0.0042
3875.00,0.0042
3874.00,0.0042
3873.00,0.0042
3872.00,0.0043
3871.00,0.0043
3870.00,0.0042
3869.00,0.0042
3868.00,0.0043
3867.00,0.0043
3866.00,0.0043
3865.00,0.0042
3864.00,0.0042
3863.00,0.0042
3862.00,0.0042
3861.00,0.0042
3860.00,0.0042
3859.00,0.0041
3858.00,0.0041
3857.00,0.0042
3856.00,0.0042
3855.00,0.0042
3854.00,0.0042
3853.00,0.0043
3852.00,0.0043
3851.00,0.0043
3850.00,0.0043
3849.00,0.0043
3848.00,0.0042
3847.00,0.0042
3846.00,0.0041
3845.00,0.0041
3844.00,0.0041
3843.00,0.0041
3842.00,0.0042
3841.00,0.0042
3840.00,0.0043
3839.00,0.0043
3838.00,0.0043
3837.00,0.0043
3836.00,0.0043
3835.00,0.0042
3834.00,0.0042
3833.00,0.0042
3832.00,0.0041
3831.00,0.0041
3830.00,0.0041
3829.00,0.0041
3828.00,0.0042
3827.00,0.0042
3826.00,0.0041
3825.00,0.0042
3824.00,0.0042
3823.00,0.0042
3822.00,0.0042
3821.00,0.0042
3820.00,0.0043
3819.00,0.0043
3818.00,0.0043
3817.00,0.0043
3816.00,0.0042
3815.00,0.0042
3814.00,0.0041
3813.00,0.0041
3812.00,0.0041
3811.00,0.0041
3810.00,0.0041
3809.00,0.0041
3808.00,0.0041
3807.00,0.0040
3806.00,0.0041
3805.00,0.0041
3804.00,0.0042
3803.00,0.0042
3802.00,0.0042
3801.00,0.0042
3800.00,0.0042
3799.00,0.0043
3798.00,0.0043
3797.00,0.0042
3796.00,0.0041
3795.00,0.0041
3794.00,0.0040
3793.00,0.0040
3792.00,0.0040
3791.00,0.0040
3790.00,0.0039
3789.00,0.0039
3788.00,0.0039
3787.00,0.0040
3786.00,0.0040
3785.00,0.0040
3784.00,0.0040
3783.00,0.0040
3782.00,0.0040
3781.00,0.0040
3780.00,0.0040
3779.00,0.0040
3778.00,0.0040
3777.00,0.0040
3776.00,0.0040
3775.00,0.0040
3774.00,0.0039
3773.00,0.0040
3772.00,0.0040
3771.00,0.0040
3770.00,0.0041
3769.00,0.0041
3768.00,0.0041
3767.00,0.0041
3766.00,0.0041
3765.00,0.0040
3764.00,0.0040
3763.00,0.0040
3762.00,0.0041
3761.00,0.0041
3760.00,0.0040
3759.00,0.0040
3758.00,0.0040
3757.00,0.0041
3756.00,0.0041
3755.00,0.0041
3754.00,0.0041
3753.00,0.0041
3752.00,0.0042
3751.00,0.0042
3750.00,0.0042
3749.00,0.0042
3748.00,0.0043
3747.00,0.0044
3746.00,0.0044
3745.00,0.0043
3744.00,0.0042
3743.00,0.0042
3742.00,0.0042
3741.00,0.0042
3740.00,0.0042
3739.00,0.0041
3738.00,0.0042
3737.00,0.0042
3736.00,0.0042
3735.00,0.0042
3734.00,0.0043
3733.00,0.0043
3732.00,0.0042
3731.00,0.0042
3730.00,0.0041
3729.00,0.0041
3728.00,0.0041
3727.00,0.0040
3726.00,0.0040
3725.00,0.0040
3724.00,0.0040
3723.00,0.0040
3722.00,0.0040
3721.00,0.0040
3720.00,0.0040
3719.00,0.0040
3718.00,0.0040
3717.00,0.0040
3716.00,0.0040
3715.00,0.0040
3714.00,0.0040
3713.00,0.0040
3712.00,0.0041
3711.00,0.0041
3710.00,0.0041
3709.00,0.0041
3708.00,0.0041
3707.00,0.0041
3706.00,0.0040
3705.00,0.0040
3704.00,0.0040
3703.00,0.0040
3702.00,0.0039
3701.00,0.0039
3700.00,0.0039
3699.00,0.0040
3698.00,0.0040
3697.00,0.0040
3696.00,0.0040
3695.00,0.0040
3694.00,0.0040
3693.00,0.0040
3692.00,0.0040
3691.00,0.0041
3690.00,0.0041
3689.00,0.0041
3688.00,0.0041
3687.00,0.0041
3686.00,0.0041
3685.00,0.0041
3684.00,0.0040
3683.00,0.0040
3682.00,0.0040
3681.00,0.0039
3680.00,0.0040
3679.00,0.0040
3678.00,0.0041
3677.00,0.0042
3676.00,0.0042
3675.00,0.0042
3674.00,0.0043
3673.00,0.0044
3672.00,0.0044
3671.00,0.0044
3670.00,0.0044
3669.00,0.0044
3668.00,0.0043
3667.00,0.0043
3666.00,0.0042
3665.00,0.0041
3664.00,0.0040
3663.00,0.0040
3662.00,0.0040
3661.00,0.0040
3660.00,0.0040
3659.00,0.0041
3658.00,0.0041
3657.00,0.0042
3656.00,0.0042
3655.00,0.0042
3654.00,0.0043
3653.00,0.0044
3652.00,0.0044
3651.00,0.0044
3650.00,0.0044
3649.00,0.0045
3648.00,0.0045
3647.00,0.0045
3646.00,0.0045
3645.00,0.0044
3644.00,0.0043
3643.00,0.0043
3642.00,0.0042
3641.00,0.0042
3640.00,0.0042
3639.00,0.0042
3638.00,0.0042
3637.00,0.0042
3636.00,0.0042
3635.00,0.0043
3634.00,0.0042
3633.00,0.0043
3632.00,0.0043
3631.00,0.0044
3630.00,0.0044
3629.00,0.0044
3628.00,0.0044
3627.00,0.0044
3626.00,0.0044
3625.00,0.0043
3624.00,0.0043
3623.00,0.0043
3622.00,0.0044
3621.00,0.0044
3620.00,0.0044
3619.00,0.0044
3618.00,0.0044
3617.00,0.0045
3616.00,0.0045
3615.00,0.0045
3614.00,0.0045
3613.00,0.0045
3612.00,0.0045
3611.00,0.0045
3610.00,0.0045
3609.00,0.0045
3608.00,0.0045
3607.00,0.0045
3606.00,0.0045
3605.00,0.0045
3604.00,0.0045
3603.00,0.0045
3602.00,0.0045
3601.00,0.0045
3600.00,0.0045
3599.00,0.0044
3598.00,0.0044
3597.00,0.0045
3596.00,0.0045
3595.00,0.0045
3594.00,0.0045
3593.00,0.0045
3592.00,0.0045
3591.00,0.0045
3590.00,0.0045
3589.00,0.0046
3588.00,0.0046
3587.00,0.0046
3586.00,0.0046
3585.00,0.0046
3584.00,0.0046
3583.00,0.0046
3582.00,0.0045
3581.00,0.0045
3580.00,0.0045
3579.00,0.0046
3578.00,0.0046
3577.00,0.0047
3576.00,0.0047
3575.00,0.0047
3574.00,0.0047
3573.00,0.0047
3572.00,0.0047
3571.00,0.0047
3570.00,0.0048
3569.00,0.0049
3568.00,0.0049
3567.00,0.0050
3566.00,0.0050
3565.00,0.0050
3564.00,0.0050
3563.00,0.0049
3562.00,0.0049
3561.00,0.0049
3560.00,0.0049
3559.00,0.0049
3558.00,0.0049
3557.00,0.0049
3556.00,0.0050
3555.00,0.0050
3554.00,0.0050
3553.00,0.0050
3552.00,0.0050
3551.00,0.0050
3550.00,0.0050
3549.00,0.0051
3548.00,0.0051
3547.00,0.0052
3546.00,0.0052
3545.00,0.0052
3544.00,0.0052
3543.00,0.0052
3542.00,0.0052
3541.00,0.0052
3540.00,0.0052
3539.00,0.0052
3538.00,0.0052
3537.00,0.0052
3536.00,0.0052
3535.00,0.0052
3534.00,0.0053
3533.00,0.0053
3532.00,0.0053
3531.00,0.0053
3530.00,0.0054
3529.00,0.0054
3528.00,0.0054
3527.00,0.0055
3526.00,0.0055
3525.00,0.0055
3524.00,0.0056
3523.00,0.0056
3522.00,0.0056
3521.00,0.0056
3520.00,0.0057
3519.00,0.0057
3518.00,0.0057
3517.00,0.0057
3516.00,0.0057
3515.00,0.0058
3514.00,0.0058
3513.00,0.0058
3512.00,0.0059
3511.00,0.0059
3510.00,0.0059
3509.00,0.0059
3508.00,0.0060
3507.00,0.0060
3506.00,0.0061
3505.00,0.0062
3504.00,0.0062
3503.00,0.0063
3502.00,0.0064
3501.00,0.0064
3500.00,0.0064
3499.00,0.0064
3498.00,0.0064
3497.00,0.0065
3496.00,0.0065
3495.00,0.0065
3494.00,0.0066
3493.00,0.0066
3492.00,0.0067
3491.00,0.0067
3490.00,0.0068
3489.00,0.0068
3488.00,0.0069
3487.00,0.0069
3486.00,0.0070
3485.00,0.0070
3484.00,0.0071
3483.00,0.0072
3482.00,0.0072
3481.00,0.0073
3480.00,0.0073
3479.00,0.0074
3478.00,0.0075
3477.00,0.0075
3476.00,0.0076
3475.00,0.0076
3474.00,0.0077
3473.00,0.0077
3472.00,0.0077
3471.00,0.0078
3470.00,0.0079
3469.00,0.0079
3468.00,0.0080
3467.00,0.0080
3466.00,0.0081
3465.00,0.0081
3464.00,0.0082
3463.00,0.0082
3462.00,0.0083
3461.00,0.0083
3460.00,0.0084
3459.00,0.0084
3458.00,0.0085
3457.00,0.0085
3456.00,0.0086
3455.00,0.0086
3454.00,0.0087
3453.00,0.0087
3452.00,0.0087
3451.00,0.0087
3450.00,0.0088
3449.00,0.0089
3448.00,0.0089
3447.00,0.0090
3446.00,0.0091
3445.00,0.0091
3444.00,0.0091
3443.00,0.0092
3442.00,0.0092
3441.00,0.0092
3440.00,0.0092
3439.00,0.0092
3438.00,0.0092
3437.00,0.0093
3436.00,0.0093
3435.00,0.0094
3434.00,0.0094
3433.00,0.0094
3432.00,0.0094
3431.00,0.0094
3430.00,0.0094
3429.00,0.0095
3428.00,0.0095
3427.00,0.0095
3426.00,0.0096
3425.00,0.0096
3424.00,0.0096
3423.00,0.0096
3422.00,0.0097
3421.00,0.0097
3420.00,0.0097
3419.00,0.0097
3418.00,0.0098
3417.00,0.0098
3416.00,0.0098
3415.00,0.0098
3414.00,0.0099
3413.00,0.0099
3412.00,0.0099
3411.00,0.0100
3410.00,0.0100
3409.00,0.0100
3408.00,0.0101
3407.00,0.0101
3406.00,0.0101
3405.00,0.0101
3404.00,0.0102
3403.00,0.0102
3402.00,0.0102
3401.00,0.0102
3400.00,0.0103
3399.00,0.0103
3398.00,0.0103
3397.00,0.0104
3396.00,0.0104
3395.00,0.0104
3394.00,0.0104
3393.00,0.0105
3392.00,0.0105
3391.00,0.0105
3390.00,0.0106
3389.00,0.0106
3388.00,0.0107
3387.00,0.0107
3386.00,0.0107
3385.00,0.0108
3384.00,0.0108
3383.00,0.0108
3382.00,0.0109
3381.00,0.0109
3380.00,0.0110
3379.00,0.0110
3378.00,0.0111
3377.00,0.0111
3376.00,0.0111
3375.00,0.0112
3374.00,0.0112
3373.00,0.0112
3372.00,0.0112
3371.00,0.0112
3370.00,0.0112
3369.00,0.0112
3368.00,0.0113
3367.00,0.0113
3366.00,0.0114
3365.00,0.0114
3364.00,0.0115
3363.00,0.0115
3362.00,0.0116
3361.00,0.0116
3360.00,0.0116
3359.00,0.0117
3358.00,0.0118
3357.00,0.0118
3356.00,0.0119
3355.00,0.0119
3354.00,0.0119
3353.00,0.0119
3352.00,0.0119
3351.00,0.0119
3350.00,0.0120
3349.00,0.0120
3348.00,0.0121
3347.00,0.0122
3346.00,0.0122
3345.00,0.0122
3344.00,0.0123
3343.00,0.0123
3342.00,0.0123
3341.00,0.0122
3340.00,0.0122
3339.00,0.0123
3338.00,0.0123
3337.00,0.0124
3336.00,0.0124
3335.00,0.0125
3334.00,0.0126
3333.00,0.0126
3332.00,0.0127
3331.00,0.0127
3330.00,0.0127
3329.00,0.0127
3328.00,0.0127
3327.00,0.0127
3326.00,0.0127
3325.00,0.0127
3324.00,0.0128
3323.00,0.0128
3322.00,0.0129
3321.00,0.0130
3320.00,0.0130
3319.00,0.0130
3318.00,0.0130
3317.00,0.0131
3316.00,0.0131
3315.00,0.0131
3314.00,0.0132
3313.00,0.0132
3312.00,0.0132
3311.00,0.0131
3310.00,0.0131
3309.00,0.0130
3308.00,0.0130
3307.00,0.0130
3306.00,0.0130
3305.00,0.0131
3304.00,0.0132
3303.00,0.0132
3302.00,0.0133
3301.00,0.0134
3300.00,0.0134
3299.00,0.0134
3298.00,0.0133
3297.00,0.0133
3296.00,0.0133
3295.00,0.0133
3294.00,0.0133
3293.00,0.0133
3292.00,0.0133
3291.00,0.0134
3290.00,0.0134
3289.00,0.0135
3288.00,0.0135
3287.00,0.0136
3286.00,0.0136
3285.00,0.0136
3284.00,0.0136
3283.00,0.0136
3282.00,0.0136
3281.00,0.0136
3280.00,0.0136
3279.00,0.0136
3278.00,0.0136
3277.00,0.0135
3276.00,0.0135
3275.00,0.0135
3274.00,0.0135
3273.00,0.0135
3272.00,0.0135
3271.00,0.0135
3270.00,0.0135
3269.00,0.0136
3268.00,0.0136
3267.00,0.0137
3266.00,0.0137
3265.00,0.0137
3264.00,0.0136
3263.00,0.0136
3262.00,0.0137
3261.00,0.0137
3260.00,0.0137
3259.00,0.0137
3258.00,0.0137
3257.00,0.0136
3256.00,0.0136
3255.00,0.0136
3254.00,0.0137
3253.00,0.0137
3252.00,0.0137
3251.00,0.0137
3250.00,0.0137
3249.00,0.0137
3248.00,0.0137
3247.00,0.0137
3246.00,0.0137
3245.00,0.0137
3244.00,0.0137
3243.00,0.0137
3242.00,0.0137
3241.00,0.0136
3240.00,0.0136
3239.00,0.0136
3238.00,0.0136
3237.00,0.0136
3236.00,0.0136
3235.00,0.0136
3234.00,0.0136
3233.00,0.0136
3232.00,0.0136
3231.00,0.0136
3230.00,0.0136
3229.00,0.0136
3228.00,0.0136
3227.00,0.0136
3226.00,0.0136
3225.00,0.0136
3224.00,0.0136
3223.00,0.0136
3222.00,0.0135
3221.00,0.0135
3220.00,0.0135
3219.00,0.0135
3218.00,0.0135
3217.00,0.0135
3216.00,0.0135
3215.00,0.0134
3214.00,0.0134
3213.00,0.0134
3212.00,0.0134
3211.00,0.0134
3210.00,0.0134
3209.00,0.0134
3208.00,0.0134
3207.00,0.0134
3206.00,0.0134
3205.00,0.0134
3204.00,0.0134
3203.00,0.0134
3202.00,0.0134
3201.00,0.0134
3200.00,0.0134
3199.00,0.0133
3198.00,0.0133
3197.00,0.0133
3196.00,0.0133
3195.00,0.0133
3194.00,0.0133
3193.00,0.0133
3192.00,0.0132
3191.00,0.0132
3190.00,0.0132
3189.00,0.0132
3188.00,0.0131
3187.00,0.0131
3186.00,0.0131
3185.00,0.0131
3184.00,0.0131
3183.00,0.0131
3182.00,0.0130
3181.00,0.0130
3180.00,0.0130
3179.00,0.0129
3178.00,0.0129
3177.00,0.0129
3176.00,0.0128
3175.00,0.0128
3174.00,0.0128
3173.00,0.0128
3172.00,0.0127
3171.00,0.0127
3170.00,0.0126
3169.00,0.0126
3168.00,0.0126
3167.00,0.0125
3166.00,0.0125
3165.00,0.0124
3164.00,0.0124
3163.00,0.0124
3162.00,0.0123
3161.00,0.0123
3160.00,0.0123
3159.00,0.0123
3158.00,0.0122
3157.00,0.0122
3156.00,0.0121
3155.00,0.0120
3154.00,0.0120
3153.00,0.0119
3152.00,0.0119
3151.00,0.0119
3150.00,0.0118
3149.00,0.0118
3148.00,0.0118
3147.00,0.0117
3146.00,0.0117
3145.00,0.0117
3144.00,0.0116
3143.00,0.0116
3142.00,0.0115
3141.00,0.0115
3140.00,0.0115
3139.00,0.0115
3138.00,0.0114
3137.00,0.0114
3136.00,0.0114
3135.00,0.0114
3134.00,0.0113
3133.00,0.0113
3132.00,0.0113
3131.00,0.0112
3130.00,0.0112
3129.00,0.0112
3128.00,0.0112
3127.00,0.0111
3126.00,0.0111
3125.00,0.0111
3124.00,0.0110
3123.00,0.0110
3122.00,0.0109
3121.00,0.0109
3120.00,0.0109
3119.00,0.0109
3118.00,0.0108
3117.00,0.0108
3116.00,0.0107
3115.00,0.0106
3114.00,0.0106
3113.00,0.0106
3112.00,0.0105
3111.00,0.0105
3110.00,0.0105
3109.00,0.0105
3108.00,0.0104
3107.00,0.0104
3106.00,0.0104
3105.00,0.0103
3104.00,0.0103
3103.00,0.0102
3102.00,0.0102
3101.00,0.0102
3100.00,0.0101
3099.00,0.0101
3098.00,0.0101
3097.00,0.0100
3096.00,0.0100
3095.00,0.0100
3094.00,0.0100
3093.00,0.0099
3092.00,0.0099
3091.00,0.0099
3090.00,0.0099
3089.00,0.0099
3088.00,0.0099
3087.00,0.0099
3086.00,0.0099
3085.00,0.0099
3084.00,0.0098
3083.00,0.0098
3082.00,0.0099
3081.00,0.0099
3080.00,0.0099
3079.00,0.0099
3078.00,0.0099
3077.00,0.0099
3076.00,0.0100
3075.00,0.0100
3074.00,0.0100
3073.00,0.0100
3072.00,0.0100
3071.00,0.0100
3070.00,0.0099
3069.00,0.0099
3068.00,0.0098
3067.00,0.0098
3066.00,0.0097
3065.00,0.0096
3064.00,0.0096
3063.00,0.0095
3062.00,0.0094
3061.00,0.0093
3060.00,0.0092
3059.00,0.0091
3058.00,0.0090
3057.00,0.0089
3056.00,0.0089
3055.00,0.0088
3054.00,0.0088
3053.00,0.0088
3052.00,0.0087
3051.00,0.0087
3050.00,0.0087
3049.00,0.0087
3048.00,0.0086
3047.00,0.0086
3046.00,0.0086
3045.00,0.0086
3044.00,0.0085
3043.00,0.0085
3042.00,0.0085
3041.00,0.0085
3040.00,0.0085
3039.00,0.0085
3038.00,0.0085
3037.00,0.0084
3036.00,0.0084
3035.00,0.0084
3034.00,0.0084
3033.00,0.0084
3032.00,0.0084
3031.00,0.0083
3030.00,0.0083
3029.00,0.0083
3028.00,0.0083
3027.00,0.0082
3026.00,0.0082
3025.00,0.0082
3024.00,0.0082
3023.00,0.0082
3022.00,0.0082
3021.00,0.0082
3020.00,0.0082
3019.00,0.0082
3018.00,0.0082
3017.00,0.0082
3016.00,0.0082
3015.00,0.0082
3014.00,0.0082
3013.00,0.0083
3012.00,0.0083
3011.00,0.0084
3010.00,0.0084
3009.00,0.0085
3008.00,0.0085
3007.00,0.0085
3006.00,0.0086
3005.00,0.0087
3004.00,0.0087
3003.00,0.0088
3002.00,0.0089
3001.00,0.0090
3000.00,0.0090
2999.00,0.0091
2998.00,0.0092
2997.00,0.0094
2996.00,0.0095
2995.00,0.0096
2994.00,0.0097
2993.00,0.0099
2992.00,0.0100
2991.00,0.0101
2990.00,0.0103
2989.00,0.0105
2988.00,0.0106
2987.00,0.0108
2986.00,0.0110
2985.00,0.0111
2984.00,0.0113
2983.00,0.0115
2982.00,0.0116
2981.00,0.0118
2980.00,0.0120
2979.00,0.0121
2978.00,0.0123
2977.00,0.0125
2976.00,0.0127
2975.00,0.0130
2974.00,0.0132
2973.00,0.0135
2972.00,0.0138
2971.00,0.0141
2970.00,0.0144
2969.00,0.0148
2968.00,0.0152
2967.00,0.0156
2966.00,0.0160
2965.00,0.0165
2964.00,0.0169
2963.00,0.0173
2962.00,0.0177
2961.00,0.0181
2960.00,0.0184
2959.00,0.0186
2958.00,0.0189
2957.00,0.0190
2956.00,0.0192
2955.00,0.0192
2954.00,0.0192
2953.00,0.0192
2952.00,0.0191
2951.00,0.0190
2950.00,0.0189
2949.00,0.0188
2948.00,0.0186
2947.00,0.0186
2946.00,0.0185
2945.00,0.0185
2944.00,0.0186
2943.00,0.0188
2942.00,0.0190
2941.00,0.0192
2940.00,0.0195
2939.00,0.0199
2938.00,0.0203
2937.00,0.0208
2936.00,0.0212
2935.00,0.0217
2934.00,0.0222
2933.00,0.0227
2932.00,0.0232
2931.00,0.0237
2930.00,0.0241
2929.00,0.0244
2928.00,0.0248
2927.00,0.0251
2926.00,0.0253
2925.00,0.0255
2924.00,0.0256
2923.00,0.0256
2922.00,0.0256
2921.00,0.0255
2920.00,0.0253
2919.00,0.0251
2918.00,0.0249
2917.00,0.0246
2916.00,0.0243
2915.00,0.0240
2914.00,0.0236
2913.00,0.0233
2912.00,0.0230
2911.00,0.0226
2910.00,0.0222
2909.00,0.0219
2908.00,0.0215
2907.00,0.0212
2906.00,0.0208
2905.00,0.0205
2904.00,0.0203
2903.00,0.0200
2902.00,0.0198
2901.00,0.0196
2900.00,0.0194
2899.00,0.0192
2898.00,0.0190
2897.00,0.0189
2896.00,0.0187
2895.00,0.0186
2894.00,0.0184
2893.00,0.0182
2892.00,0.0181
2891.00,0.0179
2890.00,0.0178
2889.00,0.0177
2888.00,0.0175
2887.00,0.0174
2886.00,0.0173
2885.00,0.0172
2884.00,0.0172
2883.00,0.0171
2882.00,0.0171
2881.00,0.0170
2880.00,0.0170
2879.00,0.0170
2878.00,0.0170
2877.00,0.0170
2876.00,0.0171
2875.00,0.0172
2874.00,0.0172
2873.00,0.0173
2872.00,0.0174
2871.00,0.0175
2870.00,0.0176
2869.00,0.0175
2868.00,0.0175
2867.00,0.0175
2866.00,0.0175
2865.00,0.0175
2864.00,0.0176
2863.00,0.0177
2862.00,0.0179
2861.00,0.0181
2860.00,0.0184
2859.00,0.0187
2858.00,0.0189
2857.00,0.0191
2856.00,0.0192
2855.00,0.0191
2854.00,0.0190
2853.00,0.0188
2852.00,0.0184
2851.00,0.0180
2850.00,0.0175
2849.00,0.0170
2848.00,0.0165
2847.00,0.0160
2846.00,0.0154
2845.00,0.0149
2844.00,0.0144
2843.00,0.0139
2842.00,0.0135
2841.00,0.0132
2840.00,0.0129
2839.00,0.0126
2838.00,0.0124
2837.00,0.0123
2836.00,0.0123
2835.00,0.0122
2834.00,0.0122
2833.00,0.0122
2832.00,0.0122
2831.00,0.0122
2830.00,0.0121
2829.00,0.0120
2828.00,0.0118
2827.00,0.0116
2826.00,0.0114
2825.00,0.0111
2824.00,0.0109
2823.00,0.0106
2822.00,0.0103
2821.00,0.0101
2820.00,0.0098
2819.00,0.0096
2818.00,0.0094
2817.00,0.0093
2816.00,0.0091
2815.00,0.0090
2814.00,0.0089
2813.00,0.0088
2812.00,0.0087
2811.00,0.0086
2810.00,0.0085
2809.00,0.0084
2808.00,0.0084
2807.00,0.0083
2806.00,0.0082
2805.00,0.0082
2804.00,0.0081
2803.00,0.0081
2802.00,0.0080
2801.00,0.0080
2800.00,0.0079
2799.00,0.0078
2798.00,0.0078
2797.00,0.0077
2796.00,0.0077
2795.00,0.0077
2794.00,0.0076
2793.00,0.0076
2792.00,0.0076
2791.00,0.0075
2790.00,0.0075
2789.00,0.0075
2788.00,0.0074
2787.00,0.0074
2786.00,0.0074
2785.00,0.0074
2784.00,0.0074
2783.00,0.0073
2782.00,0.0073
2781.00,0.0073
2780.00,0.0073
2779.00,0.0073
2778.00,0.0072
2777.00,0.0072
2776.00,0.0072
2775.00,0.0071
2774.00,0.0071
2773.00,0.0071
2772.00,0.0071
2771.00,0.0071
2770.00,0.0071
2769.00,0.0071
2768.00,0.0070
2767.00,0.0070
2766.00,0.0070
2765.00,0.0070
2764.00,0.0070
2763.00,0.0070
2762.00,0.0070
2761.00,0.0070
2760.00,0.0070
2759.00,0.0070
2758.00,0.0070
2757.00,0.0070
2756.00,0.0070
2755.00,0.0070
2754.00,0.0070
2753.00,0.0070
2752.00,0.0070
2751.00,0.0070
2750.00,0.0070
2749.00,0.0069
2748.00,0.0069
2747.00,0.0069
2746.00,0.0069
2745.00,0.0069
2744.00,0.0069
2743.00,0.0069
2742.00,0.0069
2741.00,0.0070
2740.00,0.0070
2739.00,0.0070
2738.00,0.0070
2737.00,0.0070
2736.00,0.0070
2735.00,0.0070
2734.00,0.0070
2733.00,0.0070
2732.00,0.0070
2731.00,0.0070
2730.00,0.0070
2729.00,0.0070
2728.00,0.0070
2727.00,0.0070
2726.00,0.0071
2725.00,0.0071
2724.00,0.0071
2723.00,0.0071
2722.00,0.0071
2721.00,0.0071
2720.00,0.0070
2719.00,0.0070
2718.00,0.0070
2717.00,0.0069
2716.00,0.0069
2715.00,0.0069
2714.00,0.0069
2713.00,0.0069
2712.00,0.0069
2711.00,0.0068
2710.00,0.0068
2709.00,0.0068
2708.00,0.0068
2707.00,0.0067
2706.00,0.0067
2705.00,0.0067
2704.00,0.0068
2703.00,0.0067
2702.00,0.0067
2701.00,0.0067
2700.00,0.0067
2699.00,0.0067
2698.00,0.0067
2697.00,0.0067
2696.00,0.0067
2695.00,0.0067
2694.00,0.0067
2693.00,0.0067
2692.00,0.0067
2691.00,0.0067
2690.00,0.0067
2689.00,0.0067
2688.00,0.0067
2687.00,0.0067
2686.00,0.0067
2685.00,0.0067
2684.00,0.0067
2683.00,0.0067
2682.00,0.0067
2681.00,0.0067
2680.00,0.0067
2679.00,0.0067
2678.00,0.0067
2677.00,0.0067
2676.00,0.0067
2675.00,0.0066
2674.00,0.0066
2673.00,0.0066
2672.00,0.0067
2671.00,0.0067
2670.00,0.0067
2669.00,0.0067
2668.00,0.0067
2667.00,0.0067
2666.00,0.0066
2665.00,0.0066
2664.00,0.0066
2663.00,0.0066
2662.00,0.0066
2661.00,0.0065
2660.00,0.0065
2659.00,0.0065
2658.00,0.0065
2657.00,0.0065
2656.00,0.0065
2655.00,0.0065
2654.00,0.0064
2653.00,0.0064
2652.00,0.0064
2651.00,0.0064
2650.00,0.0064
2649.00,0.0063
2648.00,0.0063
2647.00,0.0063
2646.00,0.0063
2645.00,0.0063
2644.00,0.0063
2643.00,0.0063
2642.00,0.0063
2641.00,0.0063
2640.00,0.0063
2639.00,0.0063
2638.00,0.0063
2637.00,0.0062
2636.00,0.0062
2635.00,0.0062
2634.00,0.0061
2633.00,0.0061
2632.00,0.0062
2631.00,0.0062
2630.00,0.0062
2629.00,0.0061
2628.00,0.0061
2627.00,0.0061
2626.00,0.0061
2625.00,0.0061
2624.00,0.0061
2623.00,0.0061
2622.00,0.0060
2621.00,0.0060
2620.00,0.0060
2619.00,0.0060
2618.00,0.0060
2617.00,0.0060
2616.00,0.0060
2615.00,0.0060
2614.00,0.0060
2613.00,0.0060
2612.00,0.0060
2611.00,0.0060
2610.00,0.0060
2609.00,0.0060
2608.00,0.0060
2607.00,0.0060
2606.00,0.0060
2605.00,0.0059
2604.00,0.0059
2603.00,0.0060
2602.00,0.0060
2601.00,0.0060
2600.00,0.0060
2599.00,0.0060
2598.00,0.0060
2597.00,0.0059
2596.00,0.0059
2595.00,0.0059
2594.00,0.0059
2593.00,0.0059
2592.00,0.0059
2591.00,0.0059
2590.00,0.0059
2589.00,0.0059
2588.00,0.0059
2587.00,0.0059
2586.00,0.0059
2585.00,0.0059
2584.00,0.0059
2583.00,0.0059
2582.00,0.0059
2581.00,0.0059
2580.00,0.0059
2579.00,0.0059
2578.00,0.0059
2577.00,0.0059
2576.00,0.0059
2575.00,0.0059
2574.00,0.0058
2573.00,0.0058
2572.00,0.0058
2571.00,0.0058
2570.00,0.0057
2569.00,0.0057
2568.00,0.0058
2567.00,0.0058
2566.00,0.0058
2565.00,0.0058
2564.00,0.0058
2563.00,0.0058
2562.00,0.0058
2561.00,0.0058
2560.00,0.0058
2559.00,0.0058
2558.00,0.0058
2557.00,0.0058
2556.00,0.0057
2555.00,0.0057
2554.00,0.0057
2553.00,0.0057
2552.00,0.0057
2551.00,0.0057
2550.00,0.0057
2549.00,0.0057
2548.00,0.0057
2547.00,0.0057
2546.00,0.0057
2545.00,0.0057
2544.00,0.0056
2543.00,0.0056
2542.00,0.0056
2541.00,0.0056
2540.00,0.0056
2539.00,0.0056
2538.00,0.0056
2537.00,0.0056
2536.00,0.0056
2535.00,0.0056
2534.00,0.0055
2533.00,0.0055
2532.00,0.0055
2531.00,0.0056
2530.00,0.0056
2529.00,0.0056
2528.00,0.0056
2527.00,0.0055
2526.00,0.0055
2525.00,0.0055
2524.00,0.0055
2523.00,0.0055
2522.00,0.0055
2521.00,0.0055
2520.00,0.0055
2519.00,0.0055
2518.00,0.0055
2517.00,0.0055
2516.00,0.0055
2515.00,0.0055
2514.00,0.0054
2513.00,0.0054
2512.00,0.0054
2511.00,0.0054
2510.00,0.0054
2509.00,0.0054
2508.00,0.0055
2507.00,0.0054
2506.00,0.0054
2505.00,0.0054
2504.00,0.0054
2503.00,0.0053
2502.00,0.0053
2501.00,0.0053
2500.00,0.0053
2499.00,0.0053
2498.00,0.0053
2497.00,0.0054
2496.00,0.0054
2495.00,0.0054
2494.00,0.0053
2493.00,0.0053
2492.00,0.0053
2491.00,0.0052
2490.00,0.0052
2489.00,0.0052
2488.00,0.0053
2487.00,0.0053
2486.00,0.0052
2485.00,0.0052
2484.00,0.0052
2483.00,0.0052
2482.00,0.0052
2481.00,0.0052
2480.00,0.0052
2479.00,0.0052
2478.00,0.0052
2477.00,0.0052
2476.00,0.0052
2475.00,0.0052
2474.00,0.0052
2473.00,0.0052
2472.00,0.0052
2471.00,0.0052
2470.00,0.0051
2469.00,0.0051
2468.00,0.0051
2467.00,0.0051
2466.00,0.0051
2465.00,0.0051
2464.00,0.0051
2463.00,0.0051
2462.00,0.0051
2461.00,0.0051
2460.00,0.0051
2459.00,0.0051
2458.00,0.0051
2457.00,0.0051
2456.00,0.0051
2455.00,0.0051
2454.00,0.0051
2453.00,0.0051
2452.00,0.0050
2451.00,0.0050
2450.00,0.0050
2449.00,0.0050
2448.00,0.0050
2447.00,0.0050
2446.00,0.0050
2445.00,0.0050
2444.00,0.0050
2443.00,0.0050
2442.00,0.0050
2441.00,0.0050
2440.00,0.0050
2439.00,0.0050
2438.00,0.0050
2437.00,0.0050
2436.00,0.0050
2435.00,0.0049
2434.00,0.0049
2433.00,0.0049
2432.00,0.0049
2431.00,0.0049
2430.00,0.0049
2429.00,0.0049
2428.00,0.0049
2427.00,0.0049
2426.00,0.0049
2425.00,0.0049
2424.00,0.0049
2423.00,0.0049
2422.00,0.0049
2421.00,0.0049
2420.00,0.0049
2419.00,0.0049
2418.00,0.0049
2417.00,0.0049
2416.00,0.0049
2415.00,0.0050
2414.00,0.0050
2413.00,0.0050
2412.00,0.0050
2411.00,0.0050
2410.00,0.0050
2409.00,0.0050
2408.00,0.0050
2407.00,0.0050
2406.00,0.0050
2405.00,0.0050
2404.00,0.0050
2403.00,0.0049
2402.00,0.0049
2401.00,0.0049
2400.00,0.0049
2399.00,0.0049
2398.00,0.0049
2397.00,0.0049
2396.00,0.0049
2395.00,0.0050
2394.00,0.0050
2393.00,0.0050
2392.00,0.0049
2391.00,0.0049
2390.00,0.0049
2389.00,0.0049
2388.00,0.0048
2387.00,0.0048
2386.00,0.0048
2385.00,0.0047
2384.00,0.0047
2383.00,0.0047
2382.00,0.0047
2381.00,0.0048
2380.00,0.0048
2379.00,0.0048
2378.00,0.0048
2377.00,0.0048
2376.00,0.0048
2375.00,0.0048
2374.00,0.0047
2373.00,0.0047
2372.00,0.0047
2371.00,0.0048
2370.00,0.0048
2369.00,0.0048
2368.00,0.0048
2367.00,0.0048
2366.00,0.0047
2365.00,0.0047
2364.00,0.0047
2363.00,0.0047
2362.00,0.0047
2361.00,0.0047
2360.00,0.0047
2359.00,0.0048
2358.00,0.0049
2357.00,0.0049
2356.00,0.0050
2355.00,0.0050
2354.00,0.0049
2353.00,0.0049
2352.00,0.0048
2351.00,0.0047
2350.00,0.0047
2349.00,0.0047
2348.00,0.0047
2347.00,0.0047
2346.00,0.0047
2345.00,0.0046
2344.00,0.0047
2343.00,0.0047
2342.00,0.0047
2341.00,0.0047
2340.00,0.0047
2339.00,0.0047
2338.00,0.0047
2337.00,0.0047
2336.00,0.0047
2335.00,0.0048
2334.00,0.0048
2333.00,0.0048
2332.00,0.0048
2331.00,0.0048
2330.00,0.0048
2329.00,0.0048
2328.00,0.0048
2327.00,0.0048
2326.00,0.0047
2325.00,0.0047
2324.00,0.0046
2323.00,0.0046
2322.00,0.0046
2321.00,0.0046
2320.00,0.0046
2319.00,0.0046
2318.00,0.0046
2317.00,0.0046
2316.00,0.0046
2315.00,0.0046
2314.00,0.0046
2313.00,0.0046
2312.00,0.0046
2311.00,0.0046
2310.00,0.0046
2309.00,0.0046
2308.00,0.0046
2307.00,0.0046
2306.00,0.0045
2305.00,0.0045
2304.00,0.0045
2303.00,0.0045
2302.00,0.0045
2301.00,0.0045
2300.00,0.0045
2299.00,0.0046
2298.00,0.0046
2297.00,0.0046
2296.00,0.0046
2295.00,0.0046
2294.00,0.0046
2293.00,0.0046
2292.00,0.0045
2291.00,0.0045
2290.00,0.0045
2289.00,0.0045
2288.00,0.0045
2287.00,0.0045
2286.00,0.0045
2285.00,0.0045
2284.00,0.0045
2283.00,0.0045
2282.00,0.0045
2281.00,0.0045
2280.00,0.0045
2279.00,0.0045
2278.00,0.0045
2277.00,0.0046
2276.00,0.0046
2275.00,0.0046
2274.00,0.0045
2273.00,0.0045
2272.00,0.0045
2271.00,0.0044
2270.00,0.0044
2269.00,0.0044
2268.00,0.0044
2267.00,0.0044
2266.00,0.0044
2265.00,0.0044
2264.00,0.0044
2263.00,0.0044
2262.00,0.0044
2261.00,0.0043
2260.00,0.0043
2259.00,0.0044
2258.00,0.0044
2257.00,0.0045
2256.00,0.0045
2255.00,0.0044
2254.00,0.0044
2253.00,0.0044
2252.00,0.0044
2251.00,0.0045
2250.00,0.0045
2249.00,0.0045
2248.00,0.0045
2247.00,0.0045
2246.00,0.0044
2245.00,0.0045
2244.00,0.0045
2243.00,0.0045
2242.00,0.0045
2241.00,0.0044
2240.00,0.0044
2239.00,0.0044
2238.00,0.0044
2237.00,0.0044
2236.00,0.0043
2235.00,0.0042
2234.00,0.0041
2233.00,0.0041
2232.00,0.0042
2231.00,0.0043
2230.00,0.0044
2229.00,0.0044
2228.00,0.0044
2227.00,0.0044
2226.00,0.0043
2225.00,0.0043
2224.00,0.0042
2223.00,0.0043
2222.00,0.0043
2221.00,0.0044
2220.00,0.0045
2219.00,0.0045
2218.00,0.0044
2217.00,0.0044
2216.00,0.0043
2215.00,0.0043
2214.00,0.0043
2213.00,0.0043
2212.00,0.0044
2211.00,0.0045
2210.00,0.0045
2209.00,0.0045
2208.00,0.0046
2207.00,0.0046
2206.00,0.0046
2205.00,0.0046
2204.00,0.0045
2203.00,0.0045
2202.00,0.0043
2201.00,0.0042
2200.00,0.0041
2199.00,0.0041
2198.00,0.0041
2197.00,0.0042
2196.00,0.0044
2195.00,0.0045
2194.00,0.0045
2193.00,0.0045
2192.00,0.0044
2191.00,0.0043
2190.00,0.0041
2189.00,0.0041
2188.00,0.0041
2187.00,0.0042
2186.00,0.0041
2185.00,0.0041
2184.00,0.0041
2183.00,0.0043
2182.00,0.0045
2181.00,0.0046
2180.00,0.0047
2179.00,0.0046
2178.00,0.0044
2177.00,0.0042
2176.00,0.0042
2175.00,0.0043
2174.00,0.0043
2173.00,0.0043
2172.00,0.0042
2171.00,0.0042
2170.00,0.0043
2169.00,0.0044
2168.00,0.0045
2167.00,0.0044
2166.00,0.0043
2165.00,0.0042
2164.00,0.0041
2163.00,0.0041
2162.00,0.0041
2161.00,0.0040
2160.00,0.0040
2159.00,0.0040
2158.00,0.0040
2157.00,0.0041
2156.00,0.0042
2155.00,0.0043
2154.00,0.0043
2153.00,0.0043
2152.00,0.0042
2151.00,0.0041
2150.00,0.0041
2149.00,0.0040
2148.00,0.0040
2147.00,0.0040
2146.00,0.0041
2145.00,0.0043
2144.00,0.0045
2143.00,0.0045
2142.00,0.0044
2141.00,0.0043
2140.00,0.0042
2139.00,0.0041
2138.00,0.0041
2137.00,0.0041
2136.00,0.0041
2135.00,0.0042
2134.00,0.0042
2133.00,0.0043
2132.00,0.0044
2131.00,0.0044
2130.00,0.0044
2129.00,0.0043
2128.00,0.0043
2127.00,0.0043
2126.00,0.0043
2125.00,0.0044
2124.00,0.0044
2123.00,0.0044
2122.00,0.0045
2121.00,0.0045
2120.00,0.0044
2119.00,0.0043
2118.00,0.0042
2117.00,0.0042
2116.00,0.0042
2115.00,0.0043
2114.00,0.0043
2113.00,0.0043
2112.00,0.0043
2111.00,0.0042
2110.00,0.0042
2109.00,0.0042
2108.00,0.0043
2107.00,0.0043
2106.00,0.0043
2105.00,0.0042
2104.00,0.0042
2103.00,0.0042
2102.00,0.0042
2101.00,0.0043
2100.00,0.0043
2099.00,0.0043
2098.00,0.0042
2097.00,0.0041
2096.00,0.0041
2095.00,0.0041
2094.00,0.0040
2093.00,0.0040
2092.00,0.0041
2091.00,0.0041
2090.00,0.0042
2089.00,0.0042
2088.00,0.0042
2087.00,0.0042
2086.00,0.0041
2085.00,0.0041
2084.00,0.0040
2083.00,0.0040
2082.00,0.0040
2081.00,0.0040
2080.00,0.0041
2079.00,0.0041
2078.00,0.0041
2077.00,0.0041
2076.00,0.0041
2075.00,0.0041
2074.00,0.0041
2073.00,0.0041
2072.00,0.0041
2071.00,0.0041
2070.00,0.0040
2069.00,0.0040
2068.00,0.0040
2067.00,0.0041
2066.00,0.0041
2065.00,0.0041
2064.00,0.0040
2063.00,0.0040
2062.00,0.0039
2061.00,0.0038
2060.00,0.0038
2059.00,0.0037
2058.00,0.0037
2057.00,0.0037
2056.00,0.0037
2055.00,0.0037
2054.00,0.0037
2053.00,0.0038
2052.00,0.0038
2051.00,0.0038
2050.00,0.0037
2049.00,0.0037
2048.00,0.0037
2047.00,0.0038
2046.00,0.0037
2045.00,0.0037
2044.00,0.0038
2043.00,0.0038
2042.00,0.0037
2041.00,0.0038
2040.00,0.0039
2039.00,0.0039
2038.00,0.0038
2037.00,0.0038
2036.00,0.0038
2035.00,0.0040
2034.00,0.0041
2033.00,0.0042
2032.00,0.0041
2031.00,0.0040
2030.00,0.0040
2029.00,0.0041
2028.00,0.0041
2027.00,0.0040
2026.00,0.0039
2025.00,0.0039
2024.00,0.0040
2023.00,0.0041
2022.00,0.0040
2021.00,0.0039
2020.00,0.0039
2019.00,0.0039
2018.00,0.0039
2017.00,0.0039
2016.00,0.0039
2015.00,0.0039
2014.00,0.0039
2013.00,0.0040
2012.00,0.0041
2011.00,0.0041
2010.00,0.0041
2009.00,0.0040
2008.00,0.0039
2007.00,0.0038
2006.00,0.0037
2005.00,0.0037
2004.00,0.0038
2003.00,0.0038
2002.00,0.0037
2001.00,0.0036
2000.00,0.0036
1999.00,0.0036
1998.00,0.0037
1997.00,0.0038
1996.00,0.0039
1995.00,0.0039
1994.00,0.0039
1993.00,0.0038
1992.00,0.0038
1991.00,0.0037
1990.00,0.0037
1989.00,0.0037
1988.00,0.0039
1987.00,0.0041
1986.00,0.0041
1985.00,0.0041
1984.00,0.0041
1983.00,0.0039
1982.00,0.0037
1981.00,0.0036
1980.00,0.0036
1979.00,0.0036
1978.00,0.0037
1977.00,0.0038
1976.00,0.0039
1975.00,0.0039
1974.00,0.0040
1973.00,0.0040
1972.00,0.0041
1971.00,0.0041
1970.00,0.0041
1969.00,0.0040
1968.00,0.0039
1967.00,0.0038
1966.00,0.0038
1965.00,0.0038
1964.00,0.0039
1963.00,0.0040
1962.00,0.0040
1961.00,0.0040
1960.00,0.0040
1959.00,0.0039
1958.00,0.0038
1957.00,0.0037
1956.00,0.0036
1955.00,0.0036
1954.00,0.0036
1953.00,0.0036
1952.00,0.0037
1951.00,0.0038
1950.00,0.0038
1949.00,0.0038
1948.00,0.0038
1947.00,0.0038
1946.00,0.0039
1945.00,0.0039
1944.00,0.0039
1943.00,0.0039
1942.00,0.0039
1941.00,0.0039
1940.00,0.0040
1939.00,0.0040
1938.00,0.0041
1937.00,0.0041
1936.00,0.0042
1935.00,0.0042
1934.00,0.0042
1933.00,0.0041
1932.00,0.0041
1931.00,0.0041
1930.00,0.0041
1929.00,0.0040
1928.00,0.0040
1927.00,0.0041
1926.00,0.0041
1925.00,0.0041
1924.00,0.0041
1923.00,0.0041
1922.00,0.0041
1921.00,0.0041
1920.00,0.0041
1919.00,0.0042
1918.00,0.0041
1917.00,0.0041
1916.00,0.0041
1915.00,0.0040
1914.00,0.0040
1913.00,0.0039
1912.00,0.0039
1911.00,0.0039
1910.00,0.0040
1909.00,0.0041
1908.00,0.0041
1907.00,0.0041
1906.00,0.0041
1905.00,0.0041
1904.00,0.0041
1903.00,0.0041
1902.00,0.0040
1901.00,0.0040
1900.00,0.0040
1899.00,0.0040
1898.00,0.0040
1897.00,0.0040
1896.00,0.0040
1895.00,0.0040
1894.00,0.0040
1893.00,0.0040
1892.00,0.0041
1891.00,0.0041
1890.00,0.0040
1889.00,0.0040
1888.00,0.0040
1887.00,0.0041
1886.00,0.0041
1885.00,0.0041
1884.00,0.0041
1883.00,0.0041
1882.00,0.0040
1881.00,0.0040
1880.00,0.0040
1879.00,0.0039
1878.00,0.0039
1877.00,0.0039
1876.00,0.0039
1875.00,0.0039
1874.00,0.0039
1873.00,0.0039
1872.00,0.0040
1871.00,0.0040
1870.00,0.0040
1869.00,0.0040
1868.00,0.0040
1867.00,0.0040
1866.00,0.0040
1865.00,0.0040
1864.00,0.0040
1863.00,0.0039
1862.00,0.0039
1861.00,0.0040
1860.00,0.0040
1859.00,0.0040
1858.00,0.0040
1857.00,0.0039
1856.00,0.0039
1855.00,0.0040
1854.00,0.0039
1853.00,0.0039
1852.00,0.0039
1851.00,0.0039
1850.00,0.0040
1849.00,0.0040
1848.00,0.0040
1847.00,0.0040
1846.00,0.0040
1845.00,0.0040
1844.00,0.0040
1843.00,0.0040
1842.00,0.0040
1841.00,0.0040
1840.00,0.0040
1839.00,0.0040
1838.00,0.0040
1837.00,0.0039
1836.00,0.0039
1835.00,0.0039
1834.00,0.0039
1833.00,0.0039
1832.00,0.0040
1831.00,0.0040
1830.00,0.0040
1829.00,0.0040
1828.00,0.0040
1827.00,0.0040
1826.00,0.0040
1825.00,0.0040
1824.00,0.0040
1823.00,0.0040
1822.00,0.0039
1821.00,0.0039
1820.00,0.0039
1819.00,0.0039
1818.00,0.0039
1817.00,0.0039
1816.00,0.0039
1815.00,0.0039
1814.00,0.0039
1813.00,0.0039
1812.00,0.0039
1811.00,0.0039
1810.00,0.0039
1809.00,0.0039
1808.00,0.0039
1807.00,0.0039
1806.00,0.0039
1805.00,0.0038
1804.00,0.0039
1803.00,0.0039
1802.00,0.0039
1801.00,0.0039
1800.00,0.0039
1799.00,0.0039
1798.00,0.0039
1797.00,0.0038
1796.00,0.0038
1795.00,0.0038
1794.00,0.0038
1793.00,0.0038
1792.00,0.0038
1791.00,0.0039
1790.00,0.0039
1789.00,0.0039
1788.00,0.0039
1787.00,0.0039
1786.00,0.0039
1785.00,0.0039
1784.00,0.0039
1783.00,0.0039
1782.00,0.0039
1781.00,0.0040
1780.00,0.0039
1779.00,0.0039
1778.00,0.0039
1777.00,0.0039
1776.00,0.0039
1775.00,0.0039
1774.00,0.0039
1773.00,0.0039
1772.00,0.0039
1771.00,0.0039
1770.00,0.0039
1769.00,0.0039
1768.00,0.0039
1767.00,0.0039
1766.00,0.0039
1765.00,0.0039
1764.00,0.0039
1763.00,0.0039
1762.00,0.0039
1761.00,0.0039
1760.00,0.0039
1759.00,0.0039
1758.00,0.0039
1757.00,0.0039
1756.00,0.0039
1755.00,0.0039
1754.00,0.0039
1753.00,0.0039
1752.00,0.0040
1751.00,0.0040
1750.00,0.0040
1749.00,0.0041
1748.00,0.0041
1747.00,0.0041
1746.00,0.0041
1745.00,0.0041
1744.00,0.0041
1743.00,0.0041
1742.00,0.0040
1741.00,0.0040
1740.00,0.0040
1739.00,0.0040
1738.00,0.0040
1737.00,0.0040
1736.00,0.0041
1735.00,0.0042
1734.00,0.0042
1733.00,0.0042
1732.00,0.0043
1731.00,0.0044
1730.00,0.0044
1729.00,0.0044
1728.00,0.0044
1727.00,0.0045
1726.00,0.0045
1725.00,0.0045
1724.00,0.0046
1723.00,0.0047
1722.00,0.0047
1721.00,0.0047
1720.00,0.0049
1719.00,0.0050
1718.00,0.0051
1717.00,0.0052
1716.00,0.0054
1715.00,0.0055
1714.00,0.0056
1713.00,0.0057
1712.00,0.0059
1711.00,0.0060
1710.00,0.0062
1709.00,0.0065
1708.00,0.0068
1707.00,0.0072
1706.00,0.0077
1705.00,0.0081
1704.00,0.0086
1703.00,0.0091
1702.00,0.0098
1701.00,0.0107
1700.00,0.0120
1699.00,0.0133
1698.00,0.0145
1697.00,0.0158
1696.00,0.0174
1695.00,0.0192
1694.00,0.0208
1693.00,0.0223
1692.00,0.0239
1691.00,0.0256
1690.00,0.0274
1689.00,0.0290
1688.00,0.0306
1687.00,0.0319
1686.00,0.0332
1685.00,0.0346
1684.00,0.0359
1683.00,0.0369
1682.00,0.0376
1681.00,0.0382
1680.00,0.0388
1679.00,0.0393
1678.00,0.0398
1677.00,0.0404
1676.00,0.0411
1675.00,0.0420
1674.00,0.0430
1673.00,0.0442
1672.00,0.0455
1671.00,0.0471
1670.00,0.0489
1669.00,0.0508
1668.00,0.0526
1667.00,0.0544
1666.00,0.0560
1665.00,0.0576
1664.00,0.0593
1663.00,0.0609
1662.00,0.0623
1661.00,0.0635
1660.00,0.0646
1659.00,0.0654
1658.00,0.0661
1657.00,0.0667
1656.00,0.0672
1655.00,0.0676
1654.00,0.0671
1653.00,0.0654
1652.00,0.0637
1651.00,0.0628
1650.00,0.0622
1649.00,0.0615
1648.00,0.0602
1647.00,0.0580
1646.00,0.0555
1645.00,0.0532
1644.00,0.0514
1643.00,0.0497
1642.00,0.0478
1641.00,0.0458
1640.00,0.0438
1639.00,0.0420
1638.00,0.0401
1637.00,0.0381
1636.00,0.0359
1635.00,0.0338
1634.00,0.0325
1633.00,0.0317
1632.00,0.0312
1631.00,0.0309
1630.00,0.0307
1629.00,0.0306
1628.00,0.0306
1627.00,0.0307
1626.00,0.0307
1625.00,0.0307
1624.00,0.0306
1623.00,0.0304
1622.00,0.0302
1621.00,0.0300
1620.00,0.0298
1619.00,0.0295
1618.00,0.0291
1617.00,0.0283
1616.00,0.0273
1615.00,0.0264
1614.00,0.0255
1613.00,0.0245
1612.00,0.0235
1611.00,0.0224
1610.00,0.0214
1609.00,0.0205
1608.00,0.0196
1607.00,0.0189
1606.00,0.0184
1605.00,0.0181
1604.00,0.0179
1603.00,0.0180
1602.00,0.0182
1601.00,0.0186
1600.00,0.0191
1599.00,0.0199
1598.00,0.0207
1597.00,0.0217
1596.00,0.0226
1595.00,0.0235
1594.00,0.0243
1593.00,0.0249
1592.00,0.0255
1591.00,0.0259
1590.00,0.0263
1589.00,0.0266
1588.00,0.0267
1587.00,0.0268
1586.00,0.0268
1585.00,0.0265
1584.00,0.0261
1583.00,0.0255
1582.00,0.0247
1581.00,0.0238
1580.00,0.0229
1579.00,0.0220
1578.00,0.0211
1577.00,0.0200
1576.00,0.0188
1575.00,0.0178
1574.00,0.0171
1573.00,0.0165
1572.00,0.0159
1571.00,0.0153
1570.00,0.0147
1569.00,0.0141
1568.00,0.0136
1567.00,0.0133
1566.00,0.0129
1565.00,0.0126
1564.00,0.0122
1563.00,0.0120
1562.00,0.0118
1561.00,0.0115
1560.00,0.0112
1559.00,0.0110
1558.00,0.0109
1557.00,0.0108
1556.00,0.0108
1555.00,0.0107
1554.00,0.0106
1553.00,0.0104
1552.00,0.0104
1551.00,0.0103
1550.00,0.0102
1549.00,0.0101
1548.00,0.0100
1547.00,0.0100
1546.00,0.0100
1545.00,0.0100
1544.00,0.0099
1543.00,0.0099
1542.00,0.0099
1541.00,0.0099
1540.00,0.0099
1539.00,0.0099
1538.00,0.0100
1537.00,0.0100
1536.00,0.0100
1535.00,0.0100
1534.00,0.0100
1533.00,0.0100
1532.00,0.0100
1531.00,0.0100
1530.00,0.0101
1529.00,0.0101
1528.00,0.0102
1527.00,0.0102
1526.00,0.0103
1525.00,0.0104
1524.00,0.0105
1523.00,0.0106
1522.00,0.0107
1521.00,0.0108
1520.00,0.0108
1519.00,0.0108
1518.00,0.0108
1517.00,0.0108
1516.00,0.0107
1515.00,0.0106
1514.00,0.0106
1513.00,0.0105
1512.00,0.0104
1511.00,0.0104
1510.00,0.0104
1509.00,0.0104
1508.00,0.0105
1507.00,0.0105
1506.00,0.0105
1505.00,0.0107
1504.00,0.0109
1503.00,0.0112
1502.00,0.0116
1501.00,0.0120
1500.00,0.0126
1499.00,0.0132
1498.00,0.0139
1497.00,0.0146
1496.00,0.0152
1495.00,0.0156
1494.00,0.0159
1493.00,0.0159
1492.00,0.0158
1491.00,0.0155
1490.00,0.0150
1489.00,0.0142
1488.00,0.0135
1487.00,0.0127
1486.00,0.0120
1485.00,0.0115
1484.00,0.0110
1483.00,0.0107
1482.00,0.0104
1481.00,0.0102
1480.00,0.0100
1479.00,0.0100
1478.00,0.0101
1477.00,0.0102
1476.00,0.0105
1475.00,0.0109
1474.00,0.0115
1473.00,0.0124
1472.00,0.0136
1471.00,0.0149
1470.00,0.0163
1469.00,0.0178
1468.00,0.0195
1467.00,0.0212
1466.00,0.0232
1465.00,0.0252
1464.00,0.0271
1463.00,0.0285
1462.00,0.0295
1461.00,0.0301
1460.00,0.0304
1459.00,0.0304
1458.00,0.0299
1457.00,0.0292
1456.00,0.0286
1455.00,0.0282
1454.00,0.0282
1453.00,0.0284
1452.00,0.0289
1451.00,0.0296
1450.00,0.0305
1449.00,0.0317
1448.00,0.0332
1447.00,0.0347
1446.00,0.0363
1445.00,0.0378
1444.00,0.0393
1443.00,0.0408
1442.00,0.0421
1441.00,0.0432
1440.00,0.0443
1439.00,0.0451
1438.00,0.0458
1437.00,0.0464
1436.00,0.0469
1435.00,0.0474
1434.00,0.0481
1433.00,0.0490
1432.00,0.0502
1431.00,0.0515
1430.00,0.0528
1429.00,0.0540
1428.00,0.0549
1427.00,0.0555
1426.00,0.0557
1425.00,0.0556
1424.00,0.0552
1423.00,0.0544
1422.00,0.0534
1421.00,0.0521
1420.00,0.0500
1419.00,0.0470
1418.00,0.0436
1417.00,0.0405
1416.00,0.0377
1415.00,0.0351
1414.00,0.0327
1413.00,0.0306
1412.00,0.0287
1411.00,0.0271
1410.00,0.0258
1409.00,0.0248
1408.00,0.0239
1407.00,0.0232
1406.00,0.0227
1405.00,0.0223
1404.00,0.0219
1403.00,0.0216
1402.00,0.0215
1401.00,0.0214
1400.00,0.0213
1399.00,0.0213
1398.00,0.0213
1397.00,0.0214
1396.00,0.0214
1395.00,0.0214
1394.00,0.0214
1393.00,0.0214
1392.00,0.0215
1391.00,0.0216
1390.00,0.0218
1389.00,0.0220
1388.00,0.0223
1387.00,0.0226
1386.00,0.0229
1385.00,0.0233
1384.00,0.0238
1383.00,0.0245
1382.00,0.0253
1381.00,0.0262
1380.00,0.0272
1379.00,0.0282
1378.00,0.0292
1377.00,0.0300
1376.00,0.0306
1375.00,0.0308
1374.00,0.0307
1373.00,0.0303
1372.00,0.0297
1371.00,0.0290
1370.00,0.0284
1369.00,0.0277
1368.00,0.0270
1367.00,0.0264
1366.00,0.0258
1365.00,0.0253
1364.00,0.0247
1363.00,0.0241
1362.00,0.0235
1361.00,0.0230
1360.00,0.0225
1359.00,0.0221
1358.00,0.0218
1357.00,0.0216
1356.00,0.0214
1355.00,0.0213
1354.00,0.0212
1353.00,0.0210
1352.00,0.0209
1351.00,0.0207
1350.00,0.0205
1349.00,0.0204
1348.00,0.0202
1347.00,0.0200
1346.00,0.0199
1345.00,0.0198
1344.00,0.0197
1343.00,0.0197
1342.00,0.0196
1341.00,0.0197
1340.00,0.0196
1339.00,0.0196
1338.00,0.0196
1337.00,0.0196
1336.00,0.0196
1335.00,0.0196
1334.00,0.0197
1333.00,0.0197
1332.00,0.0198
1331.00,0.0198
1330.00,0.0199
1329.00,0.0201
1328.00,0.0203
1327.00,0.0206
1326.00,0.0210
1325.00,0.0215
1324.00,0.0221
1323.00,0.0227
1322.00,0.0233
1321.00,0.0239
1320.00,0.0244
1319.00,0.0247
1318.00,0.0250
1317.00,0.0251
1316.00,0.0251
1315.00,0.0249
1314.00,0.0246
1313.00,0.0243
1312.00,0.0239
1311.00,0.0235
1310.00,0.0232
1309.00,0.0229
1308.00,0.0227
1307.00,0.0225
1306.00,0.0224
1305.00,0.0224
1304.00,0.0225
1303.00,0.0228
1302.00,0.0233
1301.00,0.0241
1300.00,0.0253
1299.00,0.0269
1298.00,0.0289
1297.00,0.0313
1296.00,0.0340
1295.00,0.0369
1294.00,0.0399
1293.00,0.0427
1292.00,0.0450
1291.00,0.0469
1290.00,0.0482
1289.00,0.0489
1288.00,0.0490
1287.00,0.0486
1286.00,0.0479
1285.00,0.0469
1284.00,0.0457
1283.00,0.0444
1282.00,0.0432
1281.00,0.0421
1280.00,0.0412
1279.00,0.0407
1278.00,0.0404
1277.00,0.0403
1276.00,0.0404
1275.00,0.0406
1274.00,0.0407
1273.00,0.0406
1272.00,0.0402
1271.00,0.0397
1270.00,0.0388
1269.00,0.0378
1268.00,0.0367
1267.00,0.0354
1266.00,0.0342
1265.00,0.0331
1264.00,0.0320
1263.00,0.0311
1262.00,0.0304
1261.00,0.0300
1260.00,0.0298
1259.00,0.0299
1258.00,0.0302
1257.00,0.0307
1256.00,0.0313
1255.00,0.0321
1254.00,0.0328
1253.00,0.0336
1252.00,0.0342
1251.00,0.0347
1250.00,0.0351
1249.00,0.0354
1248.00,0.0355
1247.00,0.0356
1246.00,0.0357
1245.00,0.0356
1244.00,0.0354
1243.00,0.0351
1242.00,0.0347
1241.00,0.0342
1240.00,0.0336
1239.00,0.0329
1238.00,0.0322
1237.00,0.0315
1236.00,0.0309
1235.00,0.0303
1234.00,0.0298
1233.00,0.0295
1232.00,0.0291
1231.00,0.0289
1230.00,0.0287
1229.00,0.0286
1228.00,0.0285
1227.00,0.0285
1226.00,0.0286
1225.00,0.0285
1224.00,0.0284
1223.00,0.0283
1222.00,0.0281
1221.00,0.0278
1220.00,0.0275
1219.00,0.0272
1218.00,0.0269
1217.00,0.0265
1216.00,0.0261
1215.00,0.0257
1214.00,0.0254
1213.00,0.0250
1212.00,0.0246
1211.00,0.0242
1210.00,0.0239
1209.00,0.0236
1208.00,0.0234
1207.00,0.0233
1206.00,0.0233
1205.00,0.0234
1204.00,0.0235
1203.00,0.0236
1202.00,0.0235
1201.00,0.0234
1200.00,0.0231
1199.00,0.0226
1198.00,0.0221
1197.00,0.0216
1196.00,0.0211
1195.00,0.0207
1194.00,0.0204
1193.00,0.0202
1192.00,0.0200
1191.00,0.0199
1190.00,0.0198
1189.00,0.0197
1188.00,0.0196
1187.00,0.0194
1186.00,0.0193
1185.00,0.0191
1184.00,0.0188
1183.00,0.0187
1182.00,0.0186
1181.00,0.0186
1180.00,0.0187
1179.00,0.0189
1178.00,0.0194
1177.00,0.0199
1176.00,0.0205
1175.00,0.0212
1174.00,0.0217
1173.00,0.0222
1172.00,0.0224
1171.00,0.0223
1170.00,0.0221
1169.00,0.0217
1168.00,0.0211
1167.00,0.0204
1166.00,0.0197
1165.00,0.0190
1164.00,0.0184
1163.00,0.0179
1162.00,0.0175
1161.00,0.0172
1160.00,0.0171
1159.00,0.0173
1158.00,0.0178
1157.00,0.0186
1156.00,0.0194
1155.00,0.0204
1154.00,0.0212
1153.00,0.0218
1152.00,0.0221
1151.00,0.0221
1150.00,0.0218
1149.00,0.0213
1148.00,0.0204
1147.00,0.0193
1146.00,0.0181
1145.00,0.0170
1144.00,0.0159
1143.00,0.0151
1142.00,0.0145
1141.00,0.0140
1140.00,0.0136
1139.00,0.0134
1138.00,0.0133
1137.00,0.0132
1136.00,0.0132
1135.00,0.0131
1134.00,0.0130
1133.00,0.0128
1132.00,0.0126
1131.00,0.0124
1130.00,0.0122
1129.00,0.0121
1128.00,0.0119
1127.00,0.0118
1126.00,0.0118
1125.00,0.0117
1124.00,0.0116
1123.00,0.0116
1122.00,0.0116
1121.00,0.0116
1120.00,0.0116
1119.00,0.0116
1118.00,0.0116
1117.00,0.0117
1116.00,0.0117
1115.00,0.0119
1114.00,0.0120
1113.00,0.0122
1112.00,0.0123
1111.00,0.0123
1110.00,0.0124
1109.00,0.0124
1108.00,0.0124
1107.00,0.0124
1106.00,0.0124
1105.00,0.0124
1104.00,0.0124
1103.00,0.0125
1102.00,0.0126
1101.00,0.0128
1100.00,0.0130
1099.00,0.0132
1098.00,0.0134
1097.00,0.0136
1096.00,0.0137
1095.00,0.0136
1094.00,0.0136
1093.00,0.0134
1092.00,0.0131
1091.00,0.0128
1090.00,0.0126
1089.00,0.0124
1088.00,0.0123
1087.00,0.0122
1086.00,0.0122
1085.00,0.0123
1084.00,0.0123
1083.00,0.0124
1082.00,0.0126
1081.00,0.0129
1080.00,0.0131
1079.00,0.0134
1078.00,0.0136
1077.00,0.0138
1076.00,0.0138
1075.00,0.0138
1074.00,0.0137
1073.00,0.0136
1072.00,0.0134
1071.00,0.0132
1070.00,0.0130
1069.00,0.0129
1068.00,0.0128
1067.00,0.0127
1066.00,0.0128
1065.00,0.0130
1064.00,0.0133
1063.00,0.0138
1062.00,0.0146
1061.00,0.0156
1060.00,0.0170
1059.00,0.0188
1058.00,0.0209
1057.00,0.0230
1056.00,0.0247
1055.00,0.0258
1054.00,0.0262
1053.00,0.0257
1052.00,0.0245
1051.00,0.0229
1050.00,0.0212
1049.00,0.0196
1048.00,0.0183
1047.00,0.0173
1046.00,0.0169
1045.00,0.0167
1044.00,0.0169
1043.00,0.0172
1042.00,0.0179
1041.00,0.0188
1040.00,0.0199
1039.00,0.0213
1038.00,0.0230
1037.00,0.0251
1036.00,0.0273
1035.00,0.0298
1034.00,0.0322
1033.00,0.0345
1032.00,0.0365
1031.00,0.0380
1030.00,0.0389
1029.00,0.0392
1028.00,0.0388
1027.00,0.0379
1026.00,0.0365
1025.00,0.0349
1024.00,0.0331
1023.00,0.0315
1022.00,0.0302
1021.00,0.0290
1020.00,0.0281
1019.00,0.0273
1018.00,0.0265
1017.00,0.0257
1016.00,0.0248
1015.00,0.0238
1014.00,0.0229
1013.00,0.0219
1012.00,0.0210
1011.00,0.0203
1010.00,0.0197
1009.00,0.0192
1008.00,0.0189
1007.00,0.0186
1006.00,0.0185
1005.00,0.0184
1004.00,0.0182
1003.00,0.0181
1002.00,0.0180
1001.00,0.0178
1000.00,0.0175
999.00,0.0172
998.00,0.0169
997.00,0.0166
996.00,0.0162
995.00,0.0159
994.00,0.0157
993.00,0.0155
992.00,0.0154
991.00,0.0154
990.00,0.0155
989.00,0.0156
988.00,0.0156
987.00,0.0156
986.00,0.0155
985.00,0.0153
984.00,0.0150
983.00,0.0147
982.00,0.0143
981.00,0.0140
980.00,0.0136
979.00,0.0134
978.00,0.0132
977.00,0.0131
976.00,0.0130
975.00,0.0129
974.00,0.0129
973.00,0.0129
972.00,0.0128
971.00,0.0128
970.00,0.0128
969.00,0.0128
968.00,0.0129
967.00,0.0130
966.00,0.0131
965.00,0.0131
964.00,0.0131
963.00,0.0131
962.00,0.0130
961.00,0.0129
960.00,0.0127
959.00,0.0124
958.00,0.0121
957.00,0.0117
956.00,0.0113
955.00,0.0110
954.00,0.0106
953.00,0.0103
952.00,0.0100
951.00,0.0097
950.00,0.0094
949.00,0.0093
948.00,0.0091
947.00,0.0090
946.00,0.0089
945.00,0.0089
944.00,0.0088
943.00,0.0087
942.00,0.0088
941.00,0.0088
940.00,0.0089
939.00,0.0090
938.00,0.0092
937.00,0.0095
936.00,0.0098
935.00,0.0101
934.00,0.0104
933.00,0.0106
932.00,0.0107
931.00,0.0107
930.00,0.0106
929.00,0.0104
928.00,0.0102
927.00,0.0100
926.00,0.0099
925.00,0.0097
924.00,0.0096
923.00,0.0095
922.00,0.0095
921.00,0.0096
920.00,0.0096
919.00,0.0096
918.00,0.0097
917.00,0.0099
916.00,0.0100
915.00,0.0102
914.00,0.0103
913.00,0.0105
912.00,0.0105
911.00,0.0106
910.00,0.0107
909.00,0.0110
908.00,0.0112
907.00,0.0117
906.00,0.0123
905.00,0.0129
904.00,0.0134
903.00,0.0140
902.00,0.0146
901.00,0.0152
900.00,0.0157
899.00,0.0161
898.00,0.0166
897.00,0.0171
896.00,0.0175
895.00,0.0179
894.00,0.0184
893.00,0.0188
892.00,0.0192
891.00,0.0197
890.00,0.0203
889.00,0.0208
888.00,0.0213
887.00,0.0217
886.00,0.0221
885.00,0.0225
884.00,0.0227
883.00,0.0227
882.00,0.0227
881.00,0.0224
880.00,0.0220
879.00,0.0214
878.00,0.0208
877.00,0.0201
876.00,0.0193
875.00,0.0187
874.00,0.0181
873.00,0.0176
872.00,0.0171
871.00,0.0167
870.00,0.0165
869.00,0.0163
868.00,0.0162
867.00,0.0162
866.00,0.0164
865.00,0.0166
864.00,0.0167
863.00,0.0169
862.00,0.0172
861.00,0.0174
860.00,0.0177
859.00,0.0180
858.00,0.0185
857.00,0.0190
856.00,0.0194
855.00,0.0199
854.00,0.0204
853.00,0.0208
852.00,0.0211
851.00,0.0215
850.00,0.0218
849.00,0.0221
848.00,0.0222
847.00,0.0224
846.00,0.0225
845.00,0.0227
844.00,0.0227
843.00,0.0228
842.00,0.0229
841.00,0.0231
840.00,0.0231
839.00,0.0233
838.00,0.0234
837.00,0.0236
836.00,0.0238
835.00,0.0240
834.00,0.0243
833.00,0.0247
832.00,0.0250
831.00,0.0253
830.00,0.0254
829.00,0.0254
828.00,0.0251
827.00,0.0248
826.00,0.0244
825.00,0.0239
824.00,0.0233
823.00,0.0226
822.00,0.0219
821.00,0.0211
820.00,0.0204
819.00,0.0196
818.00,0.0190
817.00,0.0185
816.00,0.0180
815.00,0.0175
814.00,0.0171
813.00,0.0169
812.00,0.0167
811.00,0.0167
810.00,0.0168
809.00,0.0169
808.00,0.0171
807.00,0.0173
806.00,0.0176
805.00,0.0180
804.00,0.0181
803.00,0.0180
802.00,0.0177
801.00,0.0172
800.00,0.0167
799.00,0.0163
798.00,0.0162
797.00,0.0162
796.00,0.0163
795.00,0.0164
794.00,0.0166
793.00,0.0167
792.00,0.0166
791.00,0.0165
790.00,0.0164
789.00,0.0162
788.00,0.0161
787.00,0.0159
786.00,0.0157
785.00,0.0156
784.00,0.0154
783.00,0.0152
782.00,0.0151
781.00,0.0151
780.00,0.0152
779.00,0.0154
778.00,0.0158
777.00,0.0161
776.00,0.0164
775.00,0.0166
774.00,0.0169
773.00,0.0171
772.00,0.0171
771.00,0.0172
770.00,0.0172
769.00,0.0173
768.00,0.0172
767.00,0.0172
766.00,0.0173
765.00,0.0174
764.00,0.0176
763.00,0.0178
762.00,0.0182
761.00,0.0185
760.00,0.0188
759.00,0.0191
758.00,0.0195
757.00,0.0199
756.00,0.0201
755.00,0.0204
754.00,0.0206
753.00,0.0206
752.00,0.0203
751.00,0.0200
750.00,0.0198
749.00,0.0195
748.00,0.0194
747.00,0.0193
746.00,0.0194
745.00,0.0196
744.00,0.0197
743.00,0.0199
742.00,0.0202
741.00,0.0205
740.00,0.0208
739.00,0.0211
738.00,0.0214
737.00,0.0217
736.00,0.0219
735.00,0.0221
734.00,0.0223
733.00,0.0225
732.00,0.0225
731.00,0.0224
730.00,0.0223
729.00,0.0221
728.00,0.0216
727.00,0.0213
726.00,0.0210
725.00,0.0207
724.00,0.0204
723.00,0.0201
722.00,0.0199
721.00,0.0198
720.00,0.0195
719.00,0.0192
718.00,0.0190
717.00,0.0188
716.00,0.0186
715.00,0.0185
714.00,0.0185
713.00,0.0185
712.00,0.0185
711.00,0.0184
710.00,0.0184
709.00,0.0183
708.00,0.0183
707.00,0.0183
706.00,0.0184
705.00,0.0186
704.00,0.0186
703.00,0.0186
702.00,0.0187
701.00,0.0188
700.00,0.0189
699.00,0.0190
698.00,0.0191
697.00,0.0192
696.00,0.0192
695.00,0.0192
694.00,0.0193
693.00,0.0194
692.00,0.0195
691.00,0.0197
690.00,0.0200
689.00,0.0203
688.00,0.0205
687.00,0.0207
686.00,0.0209
685.00,0.0212
684.00,0.0214
683.00,0.0217
682.00,0.0219
681.00,0.0222
680.00,0.0224
679.00,0.0226
678.00,0.0229
677.00,0.0231
676.00,0.0232
675.00,0.0234
674.00,0.0237
673.00,0.0239
672.00,0.0239
671.00,0.0239
670.00,0.0241
669.00,0.0245
668.00,0.0249
667.00,0.0252
666.00,0.0255
665.00,0.0257
664.00,0.0257
663.00,0.0258
662.00,0.0260
661.00,0.0261
660.00,0.0263
659.00,0.0267
658.00,0.0273
657.00,0.0279
656.00,0.0283
655.00,0.0288
654.00,0.0293
653.00,0.0297
652.00,0.0300
651.00,0.0303
650.00,0.0306
649.00,0.0308
648.00,0.0308
647.00,0.0306
646.00,0.0303
645.00,0.0300
644.00,0.0296
643.00,0.0291
642.00,0.0288
641.00,0.0284
640.00,0.0277
639.00,0.0270
638.00,0.0264
637.00,0.0258
636.00,0.0252
635.00,0.0247
634.00,0.0244
633.00,0.0241
632.00,0.0237
631.00,0.0233
630.00,0.0229
629.00,0.0225
628.00,0.0220
627.00,0.0217
626.00,0.0216
625.00,0.0214
624.00,0.0212
623.00,0.0209
622.00,0.0208
621.00,0.0208
620.00,0.0208
619.00,0.0208
618.00,0.0209
617.00,0.0211
616.00,0.0211
615.00,0.0210
614.00,0.0211
613.00,0.0212
612.00,0.0213
611.00,0.0214
610.00,0.0217
609.00,0.0219
608.00,0.0219
607.00,0.0219
606.00,0.0219
605.00,0.0218
604.00,0.0218
603.00,0.0218
602.00,0.0221
601.00,0.0223
600.00,0.0223
599.00,0.0223
598.00,0.0223
597.00,0.0223
596.00,0.0222
595.00,0.0221
594.00,0.0222
593.00,0.0224
592.00,0.0225
591.00,0.0227
590.00,0.0230
589.00,0.0232
588.00,0.0233
587.00,0.0234
586.00,0.0237
585.00,0.0241
584.00,0.0245
583.00,0.0250
582.00,0.0257
581.00,0.0264
580.00,0.0270
579.00,0.0275
578.00,0.0279
577.00,0.0281
576.00,0.0279
575.00,0.0276
574.00,0.0273
573.00,0.0269
572.00,0.0263
571.00,0.0259
570.00,0.0257
569.00,0.0254
568.00,0.0251
567.00,0.0247
566.00,0.0244
565.00,0.0240
564.00,0.0236
563.00,0.0232
562.00,0.0232
561.00,0.0233
560.00,0.0234
559.00,0.0235
558.00,0.0238
557.00,0.0241
556.00,0.0244
555.00,0.0247
554.00,0.0252
553.00,0.0256
552.00,0.0257
551.00,0.0257
550.00,0.0258
549.00,0.0256
548.00,0.0251
547.00,0.0246
546.00,0.0244
545.00,0.0241
544.00,0.0237
543.00,0.0232
542.00,0.0229
541.00,0.0226
540.00,0.0223
539.00,0.0223
538.00,0.0227
537.00,0.0231
536.00,0.0232
535.00,0.0232
534.00,0.0233
533.00,0.0233
532.00,0.0231
531.00,0.0229
530.00,0.0231
529.00,0.0232
528.00,0.0231
527.00,0.0233
526.00,0.0239
525.00,0.0246
524.00,0.0249
523.00,0.0250
522.00,0.0249
521.00,0.0246
520.00,0.0238
519.00,0.0229
518.00,0.0221
517.00,0.0214
516.00,0.0205
515.00,0.0199
514.00,0.0197
513.00,0.0196
512.00,0.0193
511.00,0.0192
510.00,0.0193
509.00,0.0194
508.00,0.0192
507.00,0.0190
506.00,0.0192
505.00,0.0194
504.00,0.0193
503.00,0.0191
502.00,0.0192
501.00,0.0191
500.00,0.0189
499.00,0.0188
498.00,0.0193
497.00,0.0197
496.00,0.0197
495.00,0.0197
494.00,0.0199
493.00,0.0202
492.00,0.0203
491.00,0.0205
490.00,0.0210
489.00,0.0214
488.00,0.0214
487.00,0.0214
486.00,0.0217
485.00,0.0219
484.00,0.0218
483.00,0.0217
482.00,0.0219
481.00,0.0221
480.00,0.0219
479.00,0.0215
478.00,0.0215
477.00,0.0213
476.00,0.0210
475.00,0.0210
474.00,0.0214
473.00,0.0217
472.00,0.0217
471.00,0.0216
470.00,0.0220
469.00,0.0222
468.00,0.0219
467.00,0.0217
466.00,0.0220
465.00,0.0222
464.00,0.0219
463.00,0.0215
462.00,0.0213
461.00,0.0209
460.00,0.0202
459.00,0.0199
458.00,0.0203
457.00,0.0208
456.00,0.0207
455.00,0.0202
454.00,0.0200
453.00,0.0197
452.00,0.0192
451.00,0.0190
450.00,0.0194
449.00,0.0196
448.00,0.0194
447.00,0.0191
446.00,0.0192
445.00,0.0192
444.00,0.0187
443.00,0.0184
442.00,0.0187
441.00,0.0190
440.00,0.0189
439.00,0.0188
438.00,0.0194
437.00,0.0200
436.00,0.0200
435.00,0.0200
434.00,0.0205
433.00,0.0208
432.00,0.0206
431.00,0.0207
430.00,0.0215
429.00,0.0221
428.00,0.0219
427.00,0.0217
426.00,0.0220
425.00,0.0222
424.00,0.0217
423.00,0.0211
422.00,0.0213
421.00,0.0213
420.00,0.0207
419.00,0.0206
418.00,0.0218
417.00,0.0224
416.00,0.0216
415.00,0.0209
414.00,0.0213
413.00,0.0217
412.00,0.0212
411.00,0.0203
410.00,0.0203
409.00,0.0201
408.00,0.0189
407.00,0.0178
406.00,0.0179
405.00,0.0185
404.00,0.0187
403.00,0.0198
402.00,0.0223
401.00,0.0242
400.00,0.0237
