Created as New Dataset,Sample 422 By YargerLab Date Thursday, December 04 2025
cm-1,A
4000.00,0.0047
3999.00,0.0047
3998.00,0.0046
3997.00,0.0046
3996.00,0.0046
3995.00,0.0046
3994.00,0.0046
3993.00,0.0045
3992.00,0.0045
3991.00,0.0046
3990.00,0.0046
3989.00,0.0046
3988.00,0.0046
3987.00,0.0046
3986.00,0.0046
3985.00,0.0046
3984.00,0.0046
3983.00,0.0046
3982.00,0.0046
3981.00,0.0046
3980.00,0.0046
3979.00,0.0046
3978.00,0.0046
3977.00,0.0046
3976.00,0.0046
3975.00,0.0046
3974.00,0.0046
3973.00,0.0046
3972.00,0.0046
3971.00,0.0046
3970.00,0.0046
3969.00,0.0046
3968.00,0.0046
3967.00,0.0046
3966.00,0.0046
3965.00,0.0046
3964.00,0.0045
3963.00,0.0045
3962.00,0.0045
3961.00,0.0045
3960.00,0.0045
3959.00,0.0045
3958.00,0.0045
3957.00,0.0045
3956.00,0.0045
3955.00,0.0045
3954.00,0.0045
3953.00,0.0045
3952.00,0.0045
3951.00,0.0046
3950.00,0.0046
3949.00,0.0046
3948.00,0.0046
3947.00,0.0046
3946.00,0.0046
3945.00,0.0046
3944.00,0.0046
3943.00,0.0046
3942.00,0.0046
3941.00,0.0045
3940.00,0.0046
3939.00,0.0046
3938.00,0.0046
3937.00,0.0046
3936.00,0.0046
3935.00,0.0046
3934.00,0.0046
3933.00,0.0046
3932.00,0.0046
3931.00,0.0045
3930.00,0.0045
3929.00,0.0045
3928.00,0.0045
3927.00,0.0045
3926.00,0.0045
3925.00,0.0045
3924.00,0.0045
3923.00,0.0045
3922.00,0.0045
3921.00,0.0046
3920.00,0.0046
3919.00,0.0045
3918.00,0.0045
3917.00,0.0045
3916.00,0.0045
3915.00,0.0045
3914.00,0.0045
3913.00,0.0045
3912.00,0.0045
3911.00,0.0045
3910.00,0.0045
3909.00,0.0045
3908.00,0.0046
3907.00,0.0046
3906.00,0.0046
3905.00,0.0046
3904.00,0.0047
3903.00,0.0047
3902.00,0.0047
3901.00,0.0046
3900.00,0.0046
3899.00,0.0046
3898.00,0.0046
3897.00,0.0046
3896.00,0.0046
3895.00,0.0046
3894.00,0.0046
3893.00,0.0046
3892.00,0.0046
3891.00,0.0046
3890.00,0.0046
3889.00,0.0046
3888.00,0.0046
3887.00,0.0046
3886.00,0.0046
3885.00,0.0046
3884.00,0.0046
3883.00,0.0046
3882.00,0.0046
3881.00,0.0046
3880.00,0.0046
3879.00,0.0046
3878.00,0.0046
3877.00,0.0046
3876.00,0.0046
3875.00,0.0046
3874.00,0.0046
3873.00,0.0046
3872.00,0.0047
3871.00,0.0047
3870.00,0.0047
3869.00,0.0047
3868.00,0.0047
3867.00,0.0047
3866.00,0.0047
3865.00,0.0047
3864.00,0.0047
3863.00,0.0046
3862.00,0.0046
3861.00,0.0046
3860.00,0.0046
3859.00,0.0046
3858.00,0.0046
3857.00,0.0047
3856.00,0.0048
3855.00,0.0048
3854.00,0.0049
3853.00,0.0048
3852.00,0.0048
3851.00,0.0048
3850.00,0.0047
3849.00,0.0047
3848.00,0.0046
3847.00,0.0046
3846.00,0.0046
3845.00,0.0046
3844.00,0.0046
3843.00,0.0046
3842.00,0.0047
3841.00,0.0047
3840.00,0.0047
3839.00,0.0047
3838.00,0.0047
3837.00,0.0047
3836.00,0.0047
3835.00,0.0047
3834.00,0.0047
3833.00,0.0047
3832.00,0.0047
3831.00,0.0046
3830.00,0.0046
3829.00,0.0046
3828.00,0.0046
3827.00,0.0046
3826.00,0.0046
3825.00,0.0046
3824.00,0.0046
3823.00,0.0047
3822.00,0.0047
3821.00,0.0047
3820.00,0.0047
3819.00,0.0047
3818.00,0.0047
3817.00,0.0047
3816.00,0.0047
3815.00,0.0047
3814.00,0.0047
3813.00,0.0047
3812.00,0.0047
3811.00,0.0046
3810.00,0.0046
3809.00,0.0046
3808.00,0.0047
3807.00,0.0047
3806.00,0.0047
3805.00,0.0047
3804.00,0.0047
3803.00,0.0047
3802.00,0.0047
3801.00,0.0047
3800.00,0.0047
3799.00,0.0046
3798.00,0.0046
3797.00,0.0046
3796.00,0.0046
3795.00,0.0046
3794.00,0.0046
3793.00,0.0046
3792.00,0.0046
3791.00,0.0046
3790.00,0.0046
3789.00,0.0046
3788.00,0.0046
3787.00,0.0046
3786.00,0.0046
3785.00,0.0046
3784.00,0.0046
3783.00,0.0046
3782.00,0.0046
3781.00,0.0046
3780.00,0.0046
3779.00,0.0046
3778.00,0.0045
3777.00,0.0045
3776.00,0.0045
3775.00,0.0045
3774.00,0.0046
3773.00,0.0046
3772.00,0.0046
3771.00,0.0046
3770.00,0.0046
3769.00,0.0046
3768.00,0.0046
3767.00,0.0046
3766.00,0.0046
3765.00,0.0046
3764.00,0.0046
3763.00,0.0046
3762.00,0.0046
3761.00,0.0046
3760.00,0.0046
3759.00,0.0046
3758.00,0.0046
3757.00,0.0046
3756.00,0.0047
3755.00,0.0047
3754.00,0.0047
3753.00,0.0047
3752.00,0.0048
3751.00,0.0048
3750.00,0.0049
3749.00,0.0049
3748.00,0.0049
3747.00,0.0049
3746.00,0.0049
3745.00,0.0048
3744.00,0.0047
3743.00,0.0047
3742.00,0.0046
3741.00,0.0046
3740.00,0.0046
3739.00,0.0046
3738.00,0.0046
3737.00,0.0046
3736.00,0.0047
3735.00,0.0047
3734.00,0.0047
3733.00,0.0046
3732.00,0.0046
3731.00,0.0046
3730.00,0.0045
3729.00,0.0045
3728.00,0.0045
3727.00,0.0046
3726.00,0.0046
3725.00,0.0046
3724.00,0.0046
3723.00,0.0046
3722.00,0.0045
3721.00,0.0045
3720.00,0.0045
3719.00,0.0045
3718.00,0.0045
3717.00,0.0045
3716.00,0.0045
3715.00,0.0046
3714.00,0.0046
3713.00,0.0046
3712.00,0.0046
3711.00,0.0046
3710.00,0.0046
3709.00,0.0046
3708.00,0.0046
3707.00,0.0046
3706.00,0.0046
3705.00,0.0045
3704.00,0.0045
3703.00,0.0045
3702.00,0.0045
3701.00,0.0044
3700.00,0.0044
3699.00,0.0044
3698.00,0.0044
3697.00,0.0045
3696.00,0.0045
3695.00,0.0045
3694.00,0.0045
3693.00,0.0046
3692.00,0.0046
3691.00,0.0047
3690.00,0.0047
3689.00,0.0048
3688.00,0.0048
3687.00,0.0048
3686.00,0.0048
3685.00,0.0048
3684.00,0.0048
3683.00,0.0048
3682.00,0.0048
3681.00,0.0049
3680.00,0.0049
3679.00,0.0049
3678.00,0.0050
3677.00,0.0051
3676.00,0.0051
3675.00,0.0052
3674.00,0.0052
3673.00,0.0052
3672.00,0.0051
3671.00,0.0051
3670.00,0.0051
3669.00,0.0051
3668.00,0.0051
3667.00,0.0051
3666.00,0.0051
3665.00,0.0050
3664.00,0.0050
3663.00,0.0051
3662.00,0.0051
3661.00,0.0051
3660.00,0.0051
3659.00,0.0052
3658.00,0.0052
3657.00,0.0052
3656.00,0.0052
3655.00,0.0053
3654.00,0.0053
3653.00,0.0054
3652.00,0.0055
3651.00,0.0055
3650.00,0.0056
3649.00,0.0057
3648.00,0.0057
3647.00,0.0057
3646.00,0.0056
3645.00,0.0056
3644.00,0.0056
3643.00,0.0056
3642.00,0.0056
3641.00,0.0056
3640.00,0.0056
3639.00,0.0057
3638.00,0.0057
3637.00,0.0057
3636.00,0.0058
3635.00,0.0058
3634.00,0.0059
3633.00,0.0059
3632.00,0.0060
3631.00,0.0060
3630.00,0.0061
3629.00,0.0061
3628.00,0.0061
3627.00,0.0062
3626.00,0.0062
3625.00,0.0063
3624.00,0.0063
3623.00,0.0063
3622.00,0.0064
3621.00,0.0064
3620.00,0.0065
3619.00,0.0065
3618.00,0.0066
3617.00,0.0067
3616.00,0.0067
3615.00,0.0068
3614.00,0.0068
3613.00,0.0068
3612.00,0.0069
3611.00,0.0070
3610.00,0.0070
3609.00,0.0071
3608.00,0.0072
3607.00,0.0072
3606.00,0.0072
3605.00,0.0073
3604.00,0.0073
3603.00,0.0074
3602.00,0.0074
3601.00,0.0075
3600.00,0.0076
3599.00,0.0077
3598.00,0.0077
3597.00,0.0078
3596.00,0.0079
3595.00,0.0079
3594.00,0.0080
3593.00,0.0080
3592.00,0.0081
3591.00,0.0082
3590.00,0.0083
3589.00,0.0084
3588.00,0.0085
3587.00,0.0086
3586.00,0.0086
3585.00,0.0087
3584.00,0.0088
3583.00,0.0088
3582.00,0.0089
3581.00,0.0090
3580.00,0.0091
3579.00,0.0091
3578.00,0.0092
3577.00,0.0093
3576.00,0.0094
3575.00,0.0095
3574.00,0.0095
3573.00,0.0096
3572.00,0.0097
3571.00,0.0098
3570.00,0.0099
3569.00,0.0100
3568.00,0.0101
3567.00,0.0102
3566.00,0.0103
3565.00,0.0103
3564.00,0.0104
3563.00,0.0105
3562.00,0.0106
3561.00,0.0106
3560.00,0.0107
3559.00,0.0108
3558.00,0.0108
3557.00,0.0109
3556.00,0.0110
3555.00,0.0111
3554.00,0.0111
3553.00,0.0112
3552.00,0.0112
3551.00,0.0113
3550.00,0.0114
3549.00,0.0115
3548.00,0.0116
3547.00,0.0117
3546.00,0.0118
3545.00,0.0118
3544.00,0.0119
3543.00,0.0119
3542.00,0.0120
3541.00,0.0121
3540.00,0.0121
3539.00,0.0122
3538.00,0.0123
3537.00,0.0123
3536.00,0.0124
3535.00,0.0125
3534.00,0.0125
3533.00,0.0126
3532.00,0.0126
3531.00,0.0127
3530.00,0.0127
3529.00,0.0128
3528.00,0.0129
3527.00,0.0129
3526.00,0.0130
3525.00,0.0130
3524.00,0.0131
3523.00,0.0131
3522.00,0.0132
3521.00,0.0132
3520.00,0.0133
3519.00,0.0133
3518.00,0.0134
3517.00,0.0135
3516.00,0.0135
3515.00,0.0136
3514.00,0.0137
3513.00,0.0137
3512.00,0.0138
3511.00,0.0138
3510.00,0.0139
3509.00,0.0140
3508.00,0.0141
3507.00,0.0141
3506.00,0.0142
3505.00,0.0143
3504.00,0.0144
3503.00,0.0144
3502.00,0.0145
3501.00,0.0146
3500.00,0.0146
3499.00,0.0147
3498.00,0.0148
3497.00,0.0149
3496.00,0.0149
3495.00,0.0150
3494.00,0.0151
3493.00,0.0151
3492.00,0.0152
3491.00,0.0153
3490.00,0.0153
3489.00,0.0154
3488.00,0.0154
3487.00,0.0155
3486.00,0.0156
3485.00,0.0156
3484.00,0.0157
3483.00,0.0158
3482.00,0.0159
3481.00,0.0159
3480.00,0.0160
3479.00,0.0161
3478.00,0.0161
3477.00,0.0162
3476.00,0.0162
3475.00,0.0163
3474.00,0.0164
3473.00,0.0164
3472.00,0.0165
3471.00,0.0166
3470.00,0.0167
3469.00,0.0167
3468.00,0.0168
3467.00,0.0168
3466.00,0.0169
3465.00,0.0169
3464.00,0.0170
3463.00,0.0170
3462.00,0.0171
3461.00,0.0171
3460.00,0.0172
3459.00,0.0173
3458.00,0.0173
3457.00,0.0174
3456.00,0.0174
3455.00,0.0175
3454.00,0.0175
3453.00,0.0176
3452.00,0.0176
3451.00,0.0177
3450.00,0.0177
3449.00,0.0177
3448.00,0.0178
3447.00,0.0178
3446.00,0.0178
3445.00,0.0178
3444.00,0.0179
3443.00,0.0179
3442.00,0.0180
3441.00,0.0181
3440.00,0.0181
3439.00,0.0182
3438.00,0.0182
3437.00,0.0182
3436.00,0.0182
3435.00,0.0182
3434.00,0.0183
3433.00,0.0183
3432.00,0.0183
3431.00,0.0184
3430.00,0.0184
3429.00,0.0184
3428.00,0.0185
3427.00,0.0185
3426.00,0.0185
3425.00,0.0185
3424.00,0.0186
3423.00,0.0186
3422.00,0.0186
3421.00,0.0186
3420.00,0.0187
3419.00,0.0187
3418.00,0.0187
3417.00,0.0187
3416.00,0.0188
3415.00,0.0188
3414.00,0.0188
3413.00,0.0188
3412.00,0.0189
3411.00,0.0189
3410.00,0.0189
3409.00,0.0190
3408.00,0.0190
3407.00,0.0190
3406.00,0.0191
3405.00,0.0191
3404.00,0.0191
3403.00,0.0191
3402.00,0.0191
3401.00,0.0191
3400.00,0.0192
3399.00,0.0192
3398.00,0.0193
3397.00,0.0194
3396.00,0.0194
3395.00,0.0194
3394.00,0.0194
3393.00,0.0194
3392.00,0.0194
3391.00,0.0195
3390.00,0.0196
3389.00,0.0196
3388.00,0.0197
3387.00,0.0197
3386.00,0.0198
3385.00,0.0198
3384.00,0.0198
3383.00,0.0199
3382.00,0.0199
3381.00,0.0199
3380.00,0.0199
3379.00,0.0199
3378.00,0.0200
3377.00,0.0200
3376.00,0.0201
3375.00,0.0201
3374.00,0.0201
3373.00,0.0201
3372.00,0.0201
3371.00,0.0200
3370.00,0.0200
3369.00,0.0200
3368.00,0.0201
3367.00,0.0202
3366.00,0.0203
3365.00,0.0204
3364.00,0.0204
3363.00,0.0205
3362.00,0.0205
3361.00,0.0205
3360.00,0.0206
3359.00,0.0206
3358.00,0.0207
3357.00,0.0207
3356.00,0.0207
3355.00,0.0208
3354.00,0.0208
3353.00,0.0207
3352.00,0.0207
3351.00,0.0207
3350.00,0.0207
3349.00,0.0208
3348.00,0.0209
3347.00,0.0209
3346.00,0.0210
3345.00,0.0209
3344.00,0.0209
3343.00,0.0209
3342.00,0.0209
3341.00,0.0209
3340.00,0.0209
3339.00,0.0209
3338.00,0.0209
3337.00,0.0210
3336.00,0.0211
3335.00,0.0211
3334.00,0.0212
3333.00,0.0212
3332.00,0.0212
3331.00,0.0212
3330.00,0.0211
3329.00,0.0211
3328.00,0.0210
3327.00,0.0210
3326.00,0.0210
3325.00,0.0210
3324.00,0.0211
3323.00,0.0211
3322.00,0.0212
3321.00,0.0212
3320.00,0.0212
3319.00,0.0213
3318.00,0.0213
3317.00,0.0213
3316.00,0.0213
3315.00,0.0213
3314.00,0.0213
3313.00,0.0213
3312.00,0.0212
3311.00,0.0211
3310.00,0.0210
3309.00,0.0209
3308.00,0.0209
3307.00,0.0209
3306.00,0.0209
3305.00,0.0210
3304.00,0.0211
3303.00,0.0213
3302.00,0.0214
3301.00,0.0214
3300.00,0.0214
3299.00,0.0214
3298.00,0.0213
3297.00,0.0212
3296.00,0.0212
3295.00,0.0211
3294.00,0.0211
3293.00,0.0211
3292.00,0.0211
3291.00,0.0212
3290.00,0.0212
3289.00,0.0213
3288.00,0.0213
3287.00,0.0213
3286.00,0.0213
3285.00,0.0212
3284.00,0.0212
3283.00,0.0212
3282.00,0.0212
3281.00,0.0212
3280.00,0.0212
3279.00,0.0212
3278.00,0.0212
3277.00,0.0211
3276.00,0.0211
3275.00,0.0210
3274.00,0.0210
3273.00,0.0209
3272.00,0.0209
3271.00,0.0209
3270.00,0.0209
3269.00,0.0209
3268.00,0.0210
3267.00,0.0210
3266.00,0.0210
3265.00,0.0210
3264.00,0.0210
3263.00,0.0209
3262.00,0.0209
3261.00,0.0208
3260.00,0.0208
3259.00,0.0207
3258.00,0.0207
3257.00,0.0207
3256.00,0.0207
3255.00,0.0207
3254.00,0.0206
3253.00,0.0206
3252.00,0.0206
3251.00,0.0205
3250.00,0.0205
3249.00,0.0205
3248.00,0.0204
3247.00,0.0204
3246.00,0.0204
3245.00,0.0204
3244.00,0.0204
3243.00,0.0204
3242.00,0.0203
3241.00,0.0203
3240.00,0.0203
3239.00,0.0203
3238.00,0.0202
3237.00,0.0202
3236.00,0.0202
3235.00,0.0201
3234.00,0.0201
3233.00,0.0201
3232.00,0.0200
3231.00,0.0200
3230.00,0.0200
3229.00,0.0199
3228.00,0.0199
3227.00,0.0199
3226.00,0.0199
3225.00,0.0198
3224.00,0.0198
3223.00,0.0197
3222.00,0.0197
3221.00,0.0196
3220.00,0.0196
3219.00,0.0195
3218.00,0.0195
3217.00,0.0194
3216.00,0.0194
3215.00,0.0193
3214.00,0.0193
3213.00,0.0193
3212.00,0.0192
3211.00,0.0192
3210.00,0.0192
3209.00,0.0192
3208.00,0.0191
3207.00,0.0191
3206.00,0.0191
3205.00,0.0191
3204.00,0.0190
3203.00,0.0190
3202.00,0.0189
3201.00,0.0189
3200.00,0.0189
3199.00,0.0188
3198.00,0.0188
3197.00,0.0188
3196.00,0.0187
3195.00,0.0187
3194.00,0.0187
3193.00,0.0186
3192.00,0.0186
3191.00,0.0185
3190.00,0.0184
3189.00,0.0184
3188.00,0.0184
3187.00,0.0183
3186.00,0.0183
3185.00,0.0183
3184.00,0.0182
3183.00,0.0181
3182.00,0.0181
3181.00,0.0180
3180.00,0.0179
3179.00,0.0179
3178.00,0.0178
3177.00,0.0178
3176.00,0.0177
3175.00,0.0177
3174.00,0.0176
3173.00,0.0176
3172.00,0.0175
3171.00,0.0174
3170.00,0.0174
3169.00,0.0173
3168.00,0.0173
3167.00,0.0172
3166.00,0.0172
3165.00,0.0171
3164.00,0.0170
3163.00,0.0170
3162.00,0.0169
3161.00,0.0169
3160.00,0.0168
3159.00,0.0168
3158.00,0.0167
3157.00,0.0167
3156.00,0.0166
3155.00,0.0166
3154.00,0.0165
3153.00,0.0164
3152.00,0.0163
3151.00,0.0163
3150.00,0.0162
3149.00,0.0162
3148.00,0.0162
3147.00,0.0161
3146.00,0.0161
3145.00,0.0160
3144.00,0.0159
3143.00,0.0159
3142.00,0.0158
3141.00,0.0158
3140.00,0.0157
3139.00,0.0157
3138.00,0.0156
3137.00,0.0156
3136.00,0.0155
3135.00,0.0155
3134.00,0.0155
3133.00,0.0154
3132.00,0.0154
3131.00,0.0154
3130.00,0.0153
3129.00,0.0153
3128.00,0.0153
3127.00,0.0152
3126.00,0.0152
3125.00,0.0151
3124.00,0.0150
3123.00,0.0150
3122.00,0.0150
3121.00,0.0149
3120.00,0.0149
3119.00,0.0149
3118.00,0.0148
3117.00,0.0148
3116.00,0.0147
3115.00,0.0147
3114.00,0.0146
3113.00,0.0146
3112.00,0.0146
3111.00,0.0145
3110.00,0.0145
3109.00,0.0144
3108.00,0.0143
3107.00,0.0142
3106.00,0.0141
3105.00,0.0141
3104.00,0.0140
3103.00,0.0140
3102.00,0.0140
3101.00,0.0139
3100.00,0.0139
3099.00,0.0138
3098.00,0.0137
3097.00,0.0137
3096.00,0.0137
3095.00,0.0136
3094.00,0.0136
3093.00,0.0136
3092.00,0.0135
3091.00,0.0135
3090.00,0.0134
3089.00,0.0134
3088.00,0.0133
3087.00,0.0133
3086.00,0.0133
3085.00,0.0133
3084.00,0.0133
3083.00,0.0132
3082.00,0.0132
3081.00,0.0132
3080.00,0.0132
3079.00,0.0132
3078.00,0.0131
3077.00,0.0131
3076.00,0.0131
3075.00,0.0131
3074.00,0.0131
3073.00,0.0131
3072.00,0.0131
3071.00,0.0131
3070.00,0.0130
3069.00,0.0130
3068.00,0.0129
3067.00,0.0128
3066.00,0.0128
3065.00,0.0127
3064.00,0.0126
3063.00,0.0125
3062.00,0.0124
3061.00,0.0124
3060.00,0.0123
3059.00,0.0122
3058.00,0.0122
3057.00,0.0121
3056.00,0.0121
3055.00,0.0120
3054.00,0.0120
3053.00,0.0119
3052.00,0.0119
3051.00,0.0119
3050.00,0.0118
3049.00,0.0118
3048.00,0.0118
3047.00,0.0117
3046.00,0.0117
3045.00,0.0117
3044.00,0.0116
3043.00,0.0116
3042.00,0.0116
3041.00,0.0116
3040.00,0.0116
3039.00,0.0115
3038.00,0.0115
3037.00,0.0115
3036.00,0.0115
3035.00,0.0115
3034.00,0.0114
3033.00,0.0114
3032.00,0.0114
3031.00,0.0114
3030.00,0.0114
3029.00,0.0115
3028.00,0.0114
3027.00,0.0114
3026.00,0.0114
3025.00,0.0114
3024.00,0.0114
3023.00,0.0115
3022.00,0.0115
3021.00,0.0116
3020.00,0.0117
3019.00,0.0118
3018.00,0.0118
3017.00,0.0119
3016.00,0.0120
3015.00,0.0121
3014.00,0.0122
3013.00,0.0123
3012.00,0.0124
3011.00,0.0126
3010.00,0.0127
3009.00,0.0129
3008.00,0.0132
3007.00,0.0134
3006.00,0.0136
3005.00,0.0139
3004.00,0.0141
3003.00,0.0144
3002.00,0.0147
3001.00,0.0150
3000.00,0.0154
2999.00,0.0157
2998.00,0.0161
2997.00,0.0165
2996.00,0.0170
2995.00,0.0174
2994.00,0.0179
2993.00,0.0183
2992.00,0.0188
2991.00,0.0193
2990.00,0.0199
2989.00,0.0204
2988.00,0.0209
2987.00,0.0214
2986.00,0.0219
2985.00,0.0224
2984.00,0.0229
2983.00,0.0233
2982.00,0.0238
2981.00,0.0242
2980.00,0.0247
2979.00,0.0250
2978.00,0.0254
2977.00,0.0258
2976.00,0.0262
2975.00,0.0265
2974.00,0.0269
2973.00,0.0273
2972.00,0.0277
2971.00,0.0281
2970.00,0.0286
2969.00,0.0291
2968.00,0.0295
2967.00,0.0301
2966.00,0.0306
2965.00,0.0311
2964.00,0.0317
2963.00,0.0322
2962.00,0.0327
2961.00,0.0333
2960.00,0.0338
2959.00,0.0342
2958.00,0.0346
2957.00,0.0350
2956.00,0.0352
2955.00,0.0355
2954.00,0.0356
2953.00,0.0358
2952.00,0.0358
2951.00,0.0358
2950.00,0.0357
2949.00,0.0356
2948.00,0.0355
2947.00,0.0354
2946.00,0.0352
2945.00,0.0351
2944.00,0.0351
2943.00,0.0350
2942.00,0.0350
2941.00,0.0351
2940.00,0.0351
2939.00,0.0353
2938.00,0.0355
2937.00,0.0358
2936.00,0.0361
2935.00,0.0365
2934.00,0.0369
2933.00,0.0373
2932.00,0.0377
2931.00,0.0381
2930.00,0.0385
2929.00,0.0388
2928.00,0.0392
2927.00,0.0395
2926.00,0.0398
2925.00,0.0400
2924.00,0.0402
2923.00,0.0404
2922.00,0.0404
2921.00,0.0404
2920.00,0.0403
2919.00,0.0401
2918.00,0.0398
2917.00,0.0395
2916.00,0.0391
2915.00,0.0387
2914.00,0.0382
2913.00,0.0377
2912.00,0.0371
2911.00,0.0366
2910.00,0.0360
2909.00,0.0355
2908.00,0.0350
2907.00,0.0344
2906.00,0.0340
2905.00,0.0335
2904.00,0.0331
2903.00,0.0328
2902.00,0.0325
2901.00,0.0323
2900.00,0.0321
2899.00,0.0319
2898.00,0.0318
2897.00,0.0317
2896.00,0.0316
2895.00,0.0315
2894.00,0.0314
2893.00,0.0314
2892.00,0.0313
2891.00,0.0312
2890.00,0.0311
2889.00,0.0311
2888.00,0.0310
2887.00,0.0309
2886.00,0.0308
2885.00,0.0307
2884.00,0.0306
2883.00,0.0306
2882.00,0.0306
2881.00,0.0305
2880.00,0.0305
2879.00,0.0305
2878.00,0.0304
2877.00,0.0304
2876.00,0.0303
2875.00,0.0303
2874.00,0.0302
2873.00,0.0302
2872.00,0.0302
2871.00,0.0301
2870.00,0.0300
2869.00,0.0298
2868.00,0.0297
2867.00,0.0295
2866.00,0.0294
2865.00,0.0293
2864.00,0.0292
2863.00,0.0292
2862.00,0.0291
2861.00,0.0292
2860.00,0.0292
2859.00,0.0292
2858.00,0.0292
2857.00,0.0291
2856.00,0.0289
2855.00,0.0287
2854.00,0.0283
2853.00,0.0279
2852.00,0.0274
2851.00,0.0267
2850.00,0.0261
2849.00,0.0253
2848.00,0.0246
2847.00,0.0239
2846.00,0.0232
2845.00,0.0226
2844.00,0.0219
2843.00,0.0213
2842.00,0.0207
2841.00,0.0202
2840.00,0.0198
2839.00,0.0194
2838.00,0.0191
2837.00,0.0189
2836.00,0.0188
2835.00,0.0186
2834.00,0.0185
2833.00,0.0184
2832.00,0.0182
2831.00,0.0181
2830.00,0.0179
2829.00,0.0177
2828.00,0.0174
2827.00,0.0172
2826.00,0.0169
2825.00,0.0166
2824.00,0.0162
2823.00,0.0159
2822.00,0.0155
2821.00,0.0152
2820.00,0.0149
2819.00,0.0146
2818.00,0.0144
2817.00,0.0141
2816.00,0.0139
2815.00,0.0136
2814.00,0.0134
2813.00,0.0132
2812.00,0.0130
2811.00,0.0128
2810.00,0.0126
2809.00,0.0125
2808.00,0.0123
2807.00,0.0121
2806.00,0.0120
2805.00,0.0118
2804.00,0.0117
2803.00,0.0116
2802.00,0.0115
2801.00,0.0113
2800.00,0.0112
2799.00,0.0111
2798.00,0.0110
2797.00,0.0110
2796.00,0.0109
2795.00,0.0108
2794.00,0.0107
2793.00,0.0107
2792.00,0.0106
2791.00,0.0106
2790.00,0.0105
2789.00,0.0104
2788.00,0.0104
2787.00,0.0103
2786.00,0.0102
2785.00,0.0102
2784.00,0.0101
2783.00,0.0101
2782.00,0.0101
2781.00,0.0100
2780.00,0.0100
2779.00,0.0099
2778.00,0.0099
2777.00,0.0098
2776.00,0.0098
2775.00,0.0097
2774.00,0.0097
2773.00,0.0096
2772.00,0.0096
2771.00,0.0095
2770.00,0.0095
2769.00,0.0094
2768.00,0.0094
2767.00,0.0094
2766.00,0.0093
2765.00,0.0093
2764.00,0.0093
2763.00,0.0093
2762.00,0.0093
2761.00,0.0093
2760.00,0.0092
2759.00,0.0092
2758.00,0.0092
2757.00,0.0092
2756.00,0.0092
2755.00,0.0091
2754.00,0.0091
2753.00,0.0091
2752.00,0.0091
2751.00,0.0091
2750.00,0.0091
2749.00,0.0091
2748.00,0.0091
2747.00,0.0091
2746.00,0.0091
2745.00,0.0091
2744.00,0.0091
2743.00,0.0091
2742.00,0.0091
2741.00,0.0091
2740.00,0.0091
2739.00,0.0091
2738.00,0.0091
2737.00,0.0091
2736.00,0.0091
2735.00,0.0091
2734.00,0.0091
2733.00,0.0092
2732.00,0.0092
2731.00,0.0092
2730.00,0.0091
2729.00,0.0091
2728.00,0.0091
2727.00,0.0091
2726.00,0.0091
2725.00,0.0091
2724.00,0.0091
2723.00,0.0091
2722.00,0.0091
2721.00,0.0091
2720.00,0.0090
2719.00,0.0090
2718.00,0.0090
2717.00,0.0089
2716.00,0.0089
2715.00,0.0089
2714.00,0.0088
2713.00,0.0088
2712.00,0.0088
2711.00,0.0088
2710.00,0.0088
2709.00,0.0088
2708.00,0.0088
2707.00,0.0087
2706.00,0.0087
2705.00,0.0087
2704.00,0.0087
2703.00,0.0087
2702.00,0.0087
2701.00,0.0087
2700.00,0.0087
2699.00,0.0086
2698.00,0.0086
2697.00,0.0086
2696.00,0.0086
2695.00,0.0086
2694.00,0.0086
2693.00,0.0086
2692.00,0.0086
2691.00,0.0085
2690.00,0.0085
2689.00,0.0085
2688.00,0.0085
2687.00,0.0085
2686.00,0.0085
2685.00,0.0085
2684.00,0.0085
2683.00,0.0085
2682.00,0.0085
2681.00,0.0084
2680.00,0.0084
2679.00,0.0084
2678.00,0.0084
2677.00,0.0084
2676.00,0.0084
2675.00,0.0084
2674.00,0.0084
2673.00,0.0084
2672.00,0.0084
2671.00,0.0084
2670.00,0.0084
2669.00,0.0084
2668.00,0.0084
2667.00,0.0084
2666.00,0.0085
2665.00,0.0085
2664.00,0.0085
2663.00,0.0085
2662.00,0.0085
2661.00,0.0085
2660.00,0.0086
2659.00,0.0086
2658.00,0.0086
2657.00,0.0086
2656.00,0.0086
2655.00,0.0086
2654.00,0.0085
2653.00,0.0085
2652.00,0.0085
2651.00,0.0085
2650.00,0.0085
2649.00,0.0085
2648.00,0.0085
2647.00,0.0084
2646.00,0.0084
2645.00,0.0084
2644.00,0.0084
2643.00,0.0084
2642.00,0.0084
2641.00,0.0084
2640.00,0.0083
2639.00,0.0083
2638.00,0.0083
2637.00,0.0083
2636.00,0.0082
2635.00,0.0082
2634.00,0.0082
2633.00,0.0082
2632.00,0.0082
2631.00,0.0082
2630.00,0.0081
2629.00,0.0081
2628.00,0.0081
2627.00,0.0081
2626.00,0.0081
2625.00,0.0081
2624.00,0.0080
2623.00,0.0080
2622.00,0.0080
2621.00,0.0080
2620.00,0.0080
2619.00,0.0080
2618.00,0.0079
2617.00,0.0079
2616.00,0.0079
2615.00,0.0079
2614.00,0.0079
2613.00,0.0079
2612.00,0.0078
2611.00,0.0078
2610.00,0.0078
2609.00,0.0077
2608.00,0.0077
2607.00,0.0077
2606.00,0.0077
2605.00,0.0076
2604.00,0.0076
2603.00,0.0077
2602.00,0.0077
2601.00,0.0077
2600.00,0.0077
2599.00,0.0076
2598.00,0.0076
2597.00,0.0077
2596.00,0.0077
2595.00,0.0077
2594.00,0.0077
2593.00,0.0077
2592.00,0.0077
2591.00,0.0077
2590.00,0.0077
2589.00,0.0077
2588.00,0.0077
2587.00,0.0077
2586.00,0.0077
2585.00,0.0076
2584.00,0.0076
2583.00,0.0076
2582.00,0.0076
2581.00,0.0075
2580.00,0.0075
2579.00,0.0076
2578.00,0.0076
2577.00,0.0076
2576.00,0.0076
2575.00,0.0076
2574.00,0.0076
2573.00,0.0075
2572.00,0.0075
2571.00,0.0075
2570.00,0.0075
2569.00,0.0075
2568.00,0.0075
2567.00,0.0075
2566.00,0.0074
2565.00,0.0074
2564.00,0.0074
2563.00,0.0074
2562.00,0.0073
2561.00,0.0073
2560.00,0.0073
2559.00,0.0073
2558.00,0.0073
2557.00,0.0073
2556.00,0.0073
2555.00,0.0072
2554.00,0.0072
2553.00,0.0072
2552.00,0.0072
2551.00,0.0072
2550.00,0.0072
2549.00,0.0072
2548.00,0.0071
2547.00,0.0071
2546.00,0.0071
2545.00,0.0071
2544.00,0.0071
2543.00,0.0071
2542.00,0.0071
2541.00,0.0071
2540.00,0.0071
2539.00,0.0071
2538.00,0.0071
2537.00,0.0071
2536.00,0.0071
2535.00,0.0071
2534.00,0.0070
2533.00,0.0070
2532.00,0.0070
2531.00,0.0070
2530.00,0.0070
2529.00,0.0070
2528.00,0.0070
2527.00,0.0070
2526.00,0.0070
2525.00,0.0070
2524.00,0.0069
2523.00,0.0069
2522.00,0.0069
2521.00,0.0069
2520.00,0.0069
2519.00,0.0069
2518.00,0.0069
2517.00,0.0068
2516.00,0.0068
2515.00,0.0069
2514.00,0.0068
2513.00,0.0068
2512.00,0.0068
2511.00,0.0068
2510.00,0.0068
2509.00,0.0068
2508.00,0.0068
2507.00,0.0067
2506.00,0.0067
2505.00,0.0067
2504.00,0.0067
2503.00,0.0067
2502.00,0.0067
2501.00,0.0067
2500.00,0.0067
2499.00,0.0067
2498.00,0.0067
2497.00,0.0067
2496.00,0.0067
2495.00,0.0067
2494.00,0.0067
2493.00,0.0067
2492.00,0.0066
2491.00,0.0066
2490.00,0.0066
2489.00,0.0066
2488.00,0.0066
2487.00,0.0066
2486.00,0.0065
2485.00,0.0065
2484.00,0.0065
2483.00,0.0064
2482.00,0.0064
2481.00,0.0064
2480.00,0.0064
2479.00,0.0064
2478.00,0.0064
2477.00,0.0064
2476.00,0.0064
2475.00,0.0064
2474.00,0.0065
2473.00,0.0065
2472.00,0.0065
2471.00,0.0065
2470.00,0.0065
2469.00,0.0064
2468.00,0.0064
2467.00,0.0064
2466.00,0.0064
2465.00,0.0063
2464.00,0.0063
2463.00,0.0063
2462.00,0.0063
2461.00,0.0064
2460.00,0.0064
2459.00,0.0064
2458.00,0.0064
2457.00,0.0065
2456.00,0.0065
2455.00,0.0065
2454.00,0.0065
2453.00,0.0064
2452.00,0.0064
2451.00,0.0064
2450.00,0.0064
2449.00,0.0064
2448.00,0.0065
2447.00,0.0065
2446.00,0.0064
2445.00,0.0064
2444.00,0.0064
2443.00,0.0064
2442.00,0.0064
2441.00,0.0064
2440.00,0.0064
2439.00,0.0064
2438.00,0.0063
2437.00,0.0063
2436.00,0.0062
2435.00,0.0062
2434.00,0.0062
2433.00,0.0062
2432.00,0.0062
2431.00,0.0062
2430.00,0.0062
2429.00,0.0062
2428.00,0.0061
2427.00,0.0061
2426.00,0.0062
2425.00,0.0062
2424.00,0.0062
2423.00,0.0062
2422.00,0.0062
2421.00,0.0062
2420.00,0.0062
2419.00,0.0062
2418.00,0.0062
2417.00,0.0062
2416.00,0.0062
2415.00,0.0062
2414.00,0.0062
2413.00,0.0062
2412.00,0.0062
2411.00,0.0062
2410.00,0.0062
2409.00,0.0062
2408.00,0.0061
2407.00,0.0061
2406.00,0.0060
2405.00,0.0060
2404.00,0.0061
2403.00,0.0061
2402.00,0.0061
2401.00,0.0061
2400.00,0.0061
2399.00,0.0060
2398.00,0.0060
2397.00,0.0060
2396.00,0.0060
2395.00,0.0060
2394.00,0.0060
2393.00,0.0060
2392.00,0.0060
2391.00,0.0060
2390.00,0.0060
2389.00,0.0059
2388.00,0.0059
2387.00,0.0059
2386.00,0.0059
2385.00,0.0059
2384.00,0.0058
2383.00,0.0058
2382.00,0.0058
2381.00,0.0057
2380.00,0.0057
2379.00,0.0058
2378.00,0.0057
2377.00,0.0057
2376.00,0.0057
2375.00,0.0058
2374.00,0.0058
2373.00,0.0057
2372.00,0.0057
2371.00,0.0057
2370.00,0.0056
2369.00,0.0056
2368.00,0.0055
2367.00,0.0055
2366.00,0.0055
2365.00,0.0056
2364.00,0.0056
2363.00,0.0057
2362.00,0.0057
2361.00,0.0058
2360.00,0.0058
2359.00,0.0058
2358.00,0.0058
2357.00,0.0058
2356.00,0.0058
2355.00,0.0058
2354.00,0.0058
2353.00,0.0058
2352.00,0.0058
2351.00,0.0058
2350.00,0.0059
2349.00,0.0059
2348.00,0.0059
2347.00,0.0060
2346.00,0.0060
2345.00,0.0061
2344.00,0.0061
2343.00,0.0061
2342.00,0.0061
2341.00,0.0061
2340.00,0.0061
2339.00,0.0062
2338.00,0.0062
2337.00,0.0062
2336.00,0.0062
2335.00,0.0062
2334.00,0.0062
2333.00,0.0062
2332.00,0.0062
2331.00,0.0062
2330.00,0.0062
2329.00,0.0064
2328.00,0.0066
2327.00,0.0069
2326.00,0.0071
2325.00,0.0072
2324.00,0.0072
2323.00,0.0071
2322.00,0.0069
2321.00,0.0068
2320.00,0.0067
2319.00,0.0066
2318.00,0.0065
2317.00,0.0065
2316.00,0.0064
2315.00,0.0064
2314.00,0.0063
2313.00,0.0063
2312.00,0.0063
2311.00,0.0062
2310.00,0.0062
2309.00,0.0062
2308.00,0.0062
2307.00,0.0062
2306.00,0.0062
2305.00,0.0063
2304.00,0.0063
2303.00,0.0063
2302.00,0.0063
2301.00,0.0063
2300.00,0.0063
2299.00,0.0063
2298.00,0.0064
2297.00,0.0064
2296.00,0.0065
2295.00,0.0065
2294.00,0.0066
2293.00,0.0067
2292.00,0.0067
2291.00,0.0068
2290.00,0.0068
2289.00,0.0069
2288.00,0.0069
2287.00,0.0069
2286.00,0.0069
2285.00,0.0068
2284.00,0.0068
2283.00,0.0067
2282.00,0.0066
2281.00,0.0066
2280.00,0.0066
2279.00,0.0066
2278.00,0.0065
2277.00,0.0065
2276.00,0.0066
2275.00,0.0065
2274.00,0.0065
2273.00,0.0065
2272.00,0.0065
2271.00,0.0065
2270.00,0.0064
2269.00,0.0064
2268.00,0.0063
2267.00,0.0062
2266.00,0.0062
2265.00,0.0062
2264.00,0.0063
2263.00,0.0063
2262.00,0.0064
2261.00,0.0064
2260.00,0.0064
2259.00,0.0064
2258.00,0.0063
2257.00,0.0062
2256.00,0.0061
2255.00,0.0061
2254.00,0.0061
2253.00,0.0061
2252.00,0.0061
2251.00,0.0061
2250.00,0.0061
2249.00,0.0061
2248.00,0.0061
2247.00,0.0060
2246.00,0.0060
2245.00,0.0061
2244.00,0.0061
2243.00,0.0062
2242.00,0.0062
2241.00,0.0062
2240.00,0.0062
2239.00,0.0062
2238.00,0.0062
2237.00,0.0062
2236.00,0.0063
2235.00,0.0063
2234.00,0.0062
2233.00,0.0062
2232.00,0.0062
2231.00,0.0061
2230.00,0.0061
2229.00,0.0061
2228.00,0.0061
2227.00,0.0061
2226.00,0.0061
2225.00,0.0061
2224.00,0.0061
2223.00,0.0062
2222.00,0.0061
2221.00,0.0061
2220.00,0.0061
2219.00,0.0060
2218.00,0.0060
2217.00,0.0060
2216.00,0.0061
2215.00,0.0061
2214.00,0.0061
2213.00,0.0060
2212.00,0.0059
2211.00,0.0059
2210.00,0.0058
2209.00,0.0059
2208.00,0.0061
2207.00,0.0062
2206.00,0.0062
2205.00,0.0062
2204.00,0.0062
2203.00,0.0063
2202.00,0.0062
2201.00,0.0062
2200.00,0.0062
2199.00,0.0063
2198.00,0.0063
2197.00,0.0064
2196.00,0.0064
2195.00,0.0063
2194.00,0.0063
2193.00,0.0063
2192.00,0.0064
2191.00,0.0064
2190.00,0.0063
2189.00,0.0064
2188.00,0.0065
2187.00,0.0066
2186.00,0.0066
2185.00,0.0065
2184.00,0.0064
2183.00,0.0062
2182.00,0.0059
2181.00,0.0059
2180.00,0.0059
2179.00,0.0059
2178.00,0.0057
2177.00,0.0056
2176.00,0.0055
2175.00,0.0055
2174.00,0.0056
2173.00,0.0057
2172.00,0.0060
2171.00,0.0063
2170.00,0.0065
2169.00,0.0068
2168.00,0.0069
2167.00,0.0069
2166.00,0.0068
2165.00,0.0069
2164.00,0.0071
2163.00,0.0072
2162.00,0.0069
2161.00,0.0060
2160.00,0.0049
2159.00,0.0039
2158.00,0.0033
2157.00,0.0032
2156.00,0.0034
2155.00,0.0036
2154.00,0.0038
2153.00,0.0040
2152.00,0.0043
2151.00,0.0044
2150.00,0.0044
2149.00,0.0044
2148.00,0.0043
2147.00,0.0043
2146.00,0.0043
2145.00,0.0043
2144.00,0.0044
2143.00,0.0045
2142.00,0.0045
2141.00,0.0045
2140.00,0.0045
2139.00,0.0045
2138.00,0.0044
2137.00,0.0042
2136.00,0.0040
2135.00,0.0039
2134.00,0.0039
2133.00,0.0040
2132.00,0.0043
2131.00,0.0044
2130.00,0.0046
2129.00,0.0047
2128.00,0.0048
2127.00,0.0049
2126.00,0.0049
2125.00,0.0050
2124.00,0.0051
2123.00,0.0052
2122.00,0.0053
2121.00,0.0054
2120.00,0.0055
2119.00,0.0056
2118.00,0.0057
2117.00,0.0058
2116.00,0.0059
2115.00,0.0059
2114.00,0.0059
2113.00,0.0058
2112.00,0.0057
2111.00,0.0057
2110.00,0.0056
2109.00,0.0056
2108.00,0.0057
2107.00,0.0057
2106.00,0.0058
2105.00,0.0058
2104.00,0.0057
2103.00,0.0057
2102.00,0.0056
2101.00,0.0057
2100.00,0.0057
2099.00,0.0057
2098.00,0.0056
2097.00,0.0055
2096.00,0.0054
2095.00,0.0053
2094.00,0.0052
2093.00,0.0053
2092.00,0.0053
2091.00,0.0054
2090.00,0.0055
2089.00,0.0055
2088.00,0.0056
2087.00,0.0056
2086.00,0.0056
2085.00,0.0057
2084.00,0.0057
2083.00,0.0058
2082.00,0.0058
2081.00,0.0057
2080.00,0.0057
2079.00,0.0057
2078.00,0.0057
2077.00,0.0057
2076.00,0.0057
2075.00,0.0057
2074.00,0.0056
2073.00,0.0056
2072.00,0.0056
2071.00,0.0056
2070.00,0.0055
2069.00,0.0054
2068.00,0.0054
2067.00,0.0053
2066.00,0.0053
2065.00,0.0052
2064.00,0.0052
2063.00,0.0053
2062.00,0.0053
2061.00,0.0053
2060.00,0.0053
2059.00,0.0053
2058.00,0.0053
2057.00,0.0053
2056.00,0.0053
2055.00,0.0054
2054.00,0.0056
2053.00,0.0059
2052.00,0.0062
2051.00,0.0062
2050.00,0.0059
2049.00,0.0056
2048.00,0.0055
2047.00,0.0054
2046.00,0.0053
2045.00,0.0053
2044.00,0.0053
2043.00,0.0053
2042.00,0.0053
2041.00,0.0053
2040.00,0.0054
2039.00,0.0054
2038.00,0.0054
2037.00,0.0053
2036.00,0.0053
2035.00,0.0050
2034.00,0.0047
2033.00,0.0045
2032.00,0.0044
2031.00,0.0043
2030.00,0.0043
2029.00,0.0044
2028.00,0.0046
2027.00,0.0048
2026.00,0.0048
2025.00,0.0048
2024.00,0.0049
2023.00,0.0048
2022.00,0.0047
2021.00,0.0046
2020.00,0.0047
2019.00,0.0048
2018.00,0.0048
2017.00,0.0049
2016.00,0.0049
2015.00,0.0049
2014.00,0.0048
2013.00,0.0047
2012.00,0.0048
2011.00,0.0048
2010.00,0.0047
2009.00,0.0046
2008.00,0.0045
2007.00,0.0043
2006.00,0.0041
2005.00,0.0042
2004.00,0.0045
2003.00,0.0046
2002.00,0.0047
2001.00,0.0047
2000.00,0.0048
1999.00,0.0049
1998.00,0.0049
1997.00,0.0050
1996.00,0.0051
1995.00,0.0050
1994.00,0.0050
1993.00,0.0050
1992.00,0.0051
1991.00,0.0052
1990.00,0.0051
1989.00,0.0052
1988.00,0.0053
1987.00,0.0055
1986.00,0.0056
1985.00,0.0056
1984.00,0.0058
1983.00,0.0059
1982.00,0.0060
1981.00,0.0061
1980.00,0.0061
1979.00,0.0056
1978.00,0.0049
1977.00,0.0043
1976.00,0.0040
1975.00,0.0038
1974.00,0.0037
1973.00,0.0038
1972.00,0.0040
1971.00,0.0041
1970.00,0.0042
1969.00,0.0042
1968.00,0.0044
1967.00,0.0044
1966.00,0.0045
1965.00,0.0045
1964.00,0.0045
1963.00,0.0045
1962.00,0.0043
1961.00,0.0041
1960.00,0.0040
1959.00,0.0039
1958.00,0.0039
1957.00,0.0040
1956.00,0.0042
1955.00,0.0043
1954.00,0.0043
1953.00,0.0044
1952.00,0.0044
1951.00,0.0044
1950.00,0.0042
1949.00,0.0042
1948.00,0.0042
1947.00,0.0043
1946.00,0.0044
1945.00,0.0045
1944.00,0.0047
1943.00,0.0047
1942.00,0.0047
1941.00,0.0046
1940.00,0.0047
1939.00,0.0046
1938.00,0.0045
1937.00,0.0045
1936.00,0.0044
1935.00,0.0044
1934.00,0.0044
1933.00,0.0045
1932.00,0.0046
1931.00,0.0047
1930.00,0.0046
1929.00,0.0045
1928.00,0.0045
1927.00,0.0045
1926.00,0.0045
1925.00,0.0046
1924.00,0.0047
1923.00,0.0047
1922.00,0.0048
1921.00,0.0048
1920.00,0.0049
1919.00,0.0048
1918.00,0.0048
1917.00,0.0048
1916.00,0.0048
1915.00,0.0048
1914.00,0.0048
1913.00,0.0047
1912.00,0.0047
1911.00,0.0048
1910.00,0.0048
1909.00,0.0048
1908.00,0.0049
1907.00,0.0049
1906.00,0.0049
1905.00,0.0049
1904.00,0.0049
1903.00,0.0049
1902.00,0.0048
1901.00,0.0048
1900.00,0.0048
1899.00,0.0048
1898.00,0.0048
1897.00,0.0048
1896.00,0.0049
1895.00,0.0049
1894.00,0.0048
1893.00,0.0048
1892.00,0.0048
1891.00,0.0048
1890.00,0.0048
1889.00,0.0048
1888.00,0.0049
1887.00,0.0049
1886.00,0.0049
1885.00,0.0048
1884.00,0.0049
1883.00,0.0049
1882.00,0.0049
1881.00,0.0050
1880.00,0.0050
1879.00,0.0050
1878.00,0.0050
1877.00,0.0049
1876.00,0.0050
1875.00,0.0050
1874.00,0.0049
1873.00,0.0050
1872.00,0.0050
1871.00,0.0050
1870.00,0.0050
1869.00,0.0049
1868.00,0.0049
1867.00,0.0049
1866.00,0.0048
1865.00,0.0048
1864.00,0.0049
1863.00,0.0049
1862.00,0.0049
1861.00,0.0048
1860.00,0.0049
1859.00,0.0049
1858.00,0.0048
1857.00,0.0049
1856.00,0.0049
1855.00,0.0049
1854.00,0.0049
1853.00,0.0049
1852.00,0.0050
1851.00,0.0050
1850.00,0.0050
1849.00,0.0050
1848.00,0.0050
1847.00,0.0050
1846.00,0.0049
1845.00,0.0049
1844.00,0.0049
1843.00,0.0050
1842.00,0.0050
1841.00,0.0050
1840.00,0.0050
1839.00,0.0050
1838.00,0.0050
1837.00,0.0050
1836.00,0.0050
1835.00,0.0050
1834.00,0.0049
1833.00,0.0049
1832.00,0.0049
1831.00,0.0049
1830.00,0.0049
1829.00,0.0050
1828.00,0.0051
1827.00,0.0051
1826.00,0.0051
1825.00,0.0051
1824.00,0.0051
1823.00,0.0051
1822.00,0.0050
1821.00,0.0049
1820.00,0.0049
1819.00,0.0048
1818.00,0.0047
1817.00,0.0047
1816.00,0.0047
1815.00,0.0048
1814.00,0.0048
1813.00,0.0048
1812.00,0.0049
1811.00,0.0049
1810.00,0.0049
1809.00,0.0049
1808.00,0.0050
1807.00,0.0050
1806.00,0.0049
1805.00,0.0049
1804.00,0.0050
1803.00,0.0050
1802.00,0.0050
1801.00,0.0050
1800.00,0.0051
1799.00,0.0051
1798.00,0.0050
1797.00,0.0050
1796.00,0.0050
1795.00,0.0051
1794.00,0.0051
1793.00,0.0051
1792.00,0.0051
1791.00,0.0052
1790.00,0.0052
1789.00,0.0052
1788.00,0.0052
1787.00,0.0052
1786.00,0.0052
1785.00,0.0052
1784.00,0.0052
1783.00,0.0053
1782.00,0.0052
1781.00,0.0052
1780.00,0.0053
1779.00,0.0053
1778.00,0.0053
1777.00,0.0053
1776.00,0.0054
1775.00,0.0054
1774.00,0.0054
1773.00,0.0054
1772.00,0.0054
1771.00,0.0055
1770.00,0.0056
1769.00,0.0056
1768.00,0.0057
1767.00,0.0057
1766.00,0.0057
1765.00,0.0057
1764.00,0.0058
1763.00,0.0058
1762.00,0.0058
1761.00,0.0058
1760.00,0.0058
1759.00,0.0059
1758.00,0.0059
1757.00,0.0059
1756.00,0.0059
1755.00,0.0060
1754.00,0.0060
1753.00,0.0060
1752.00,0.0061
1751.00,0.0061
1750.00,0.0062
1749.00,0.0063
1748.00,0.0064
1747.00,0.0065
1746.00,0.0065
1745.00,0.0066
1744.00,0.0067
1743.00,0.0067
1742.00,0.0068
1741.00,0.0068
1740.00,0.0069
1739.00,0.0070
1738.00,0.0071
1737.00,0.0072
1736.00,0.0073
1735.00,0.0074
1734.00,0.0075
1733.00,0.0077
1732.00,0.0080
1731.00,0.0082
1730.00,0.0084
1729.00,0.0086
1728.00,0.0089
1727.00,0.0091
1726.00,0.0092
1725.00,0.0095
1724.00,0.0098
1723.00,0.0101
1722.00,0.0104
1721.00,0.0107
1720.00,0.0112
1719.00,0.0116
1718.00,0.0120
1717.00,0.0125
1716.00,0.0132
1715.00,0.0140
1714.00,0.0147
1713.00,0.0155
1712.00,0.0164
1711.00,0.0174
1710.00,0.0184
1709.00,0.0196
1708.00,0.0210
1707.00,0.0226
1706.00,0.0245
1705.00,0.0266
1704.00,0.0288
1703.00,0.0309
1702.00,0.0333
1701.00,0.0368
1700.00,0.0413
1699.00,0.0455
1698.00,0.0492
1697.00,0.0534
1696.00,0.0588
1695.00,0.0647
1694.00,0.0701
1693.00,0.0751
1692.00,0.0801
1691.00,0.0855
1690.00,0.0912
1689.00,0.0969
1688.00,0.1022
1687.00,0.1070
1686.00,0.1119
1685.00,0.1177
1684.00,0.1243
1683.00,0.1301
1682.00,0.1343
1681.00,0.1378
1680.00,0.1412
1679.00,0.1442
1678.00,0.1469
1677.00,0.1494
1676.00,0.1521
1675.00,0.1546
1674.00,0.1567
1673.00,0.1583
1672.00,0.1598
1671.00,0.1613
1670.00,0.1629
1669.00,0.1647
1668.00,0.1663
1667.00,0.1677
1666.00,0.1690
1665.00,0.1704
1664.00,0.1720
1663.00,0.1739
1662.00,0.1756
1661.00,0.1770
1660.00,0.1782
1659.00,0.1791
1658.00,0.1797
1657.00,0.1801
1656.00,0.1801
1655.00,0.1800
1654.00,0.1793
1653.00,0.1780
1652.00,0.1761
1651.00,0.1739
1650.00,0.1715
1649.00,0.1686
1648.00,0.1650
1647.00,0.1604
1646.00,0.1552
1645.00,0.1499
1644.00,0.1448
1643.00,0.1396
1642.00,0.1342
1641.00,0.1286
1640.00,0.1229
1639.00,0.1175
1638.00,0.1121
1637.00,0.1065
1636.00,0.1006
1635.00,0.0949
1634.00,0.0900
1633.00,0.0859
1632.00,0.0823
1631.00,0.0790
1630.00,0.0759
1629.00,0.0730
1628.00,0.0705
1627.00,0.0683
1626.00,0.0664
1625.00,0.0647
1624.00,0.0632
1623.00,0.0620
1622.00,0.0609
1621.00,0.0599
1620.00,0.0589
1619.00,0.0579
1618.00,0.0568
1617.00,0.0556
1616.00,0.0542
1615.00,0.0528
1614.00,0.0513
1613.00,0.0496
1612.00,0.0478
1611.00,0.0459
1610.00,0.0440
1609.00,0.0422
1608.00,0.0406
1607.00,0.0391
1606.00,0.0379
1605.00,0.0369
1604.00,0.0361
1603.00,0.0356
1602.00,0.0354
1601.00,0.0354
1600.00,0.0357
1599.00,0.0361
1598.00,0.0367
1597.00,0.0374
1596.00,0.0380
1595.00,0.0385
1594.00,0.0389
1593.00,0.0390
1592.00,0.0389
1591.00,0.0386
1590.00,0.0381
1589.00,0.0375
1588.00,0.0368
1587.00,0.0361
1586.00,0.0352
1585.00,0.0343
1584.00,0.0333
1583.00,0.0324
1582.00,0.0314
1581.00,0.0304
1580.00,0.0294
1579.00,0.0284
1578.00,0.0275
1577.00,0.0264
1576.00,0.0254
1575.00,0.0246
1574.00,0.0239
1573.00,0.0233
1572.00,0.0228
1571.00,0.0222
1570.00,0.0216
1569.00,0.0211
1568.00,0.0207
1567.00,0.0203
1566.00,0.0199
1565.00,0.0195
1564.00,0.0192
1563.00,0.0189
1562.00,0.0186
1561.00,0.0183
1560.00,0.0179
1559.00,0.0178
1558.00,0.0177
1557.00,0.0176
1556.00,0.0175
1555.00,0.0173
1554.00,0.0171
1553.00,0.0169
1552.00,0.0168
1551.00,0.0167
1550.00,0.0166
1549.00,0.0165
1548.00,0.0164
1547.00,0.0163
1546.00,0.0162
1545.00,0.0162
1544.00,0.0161
1543.00,0.0161
1542.00,0.0161
1541.00,0.0161
1540.00,0.0160
1539.00,0.0160
1538.00,0.0159
1537.00,0.0159
1536.00,0.0158
1535.00,0.0158
1534.00,0.0157
1533.00,0.0157
1532.00,0.0157
1531.00,0.0156
1530.00,0.0156
1529.00,0.0156
1528.00,0.0156
1527.00,0.0156
1526.00,0.0156
1525.00,0.0156
1524.00,0.0156
1523.00,0.0156
1522.00,0.0156
1521.00,0.0157
1520.00,0.0158
1519.00,0.0159
1518.00,0.0160
1517.00,0.0161
1516.00,0.0162
1515.00,0.0163
1514.00,0.0164
1513.00,0.0165
1512.00,0.0166
1511.00,0.0169
1510.00,0.0172
1509.00,0.0176
1508.00,0.0181
1507.00,0.0190
1506.00,0.0201
1505.00,0.0212
1504.00,0.0223
1503.00,0.0235
1502.00,0.0248
1501.00,0.0264
1500.00,0.0282
1499.00,0.0301
1498.00,0.0320
1497.00,0.0339
1496.00,0.0355
1495.00,0.0367
1494.00,0.0375
1493.00,0.0377
1492.00,0.0375
1491.00,0.0367
1490.00,0.0355
1489.00,0.0340
1488.00,0.0322
1487.00,0.0304
1486.00,0.0286
1485.00,0.0270
1484.00,0.0256
1483.00,0.0244
1482.00,0.0235
1481.00,0.0228
1480.00,0.0225
1479.00,0.0223
1478.00,0.0224
1477.00,0.0228
1476.00,0.0236
1475.00,0.0245
1474.00,0.0259
1473.00,0.0279
1472.00,0.0306
1471.00,0.0336
1470.00,0.0367
1469.00,0.0401
1468.00,0.0439
1467.00,0.0481
1466.00,0.0528
1465.00,0.0580
1464.00,0.0628
1463.00,0.0666
1462.00,0.0693
1461.00,0.0710
1460.00,0.0716
1459.00,0.0712
1458.00,0.0695
1457.00,0.0669
1456.00,0.0638
1455.00,0.0612
1454.00,0.0591
1453.00,0.0576
1452.00,0.0566
1451.00,0.0561
1450.00,0.0564
1449.00,0.0575
1448.00,0.0593
1447.00,0.0616
1446.00,0.0643
1445.00,0.0673
1444.00,0.0705
1443.00,0.0739
1442.00,0.0773
1441.00,0.0807
1440.00,0.0839
1439.00,0.0868
1438.00,0.0897
1437.00,0.0928
1436.00,0.0960
1435.00,0.0986
1434.00,0.1008
1433.00,0.1030
1432.00,0.1054
1431.00,0.1079
1430.00,0.1105
1429.00,0.1133
1428.00,0.1161
1427.00,0.1186
1426.00,0.1212
1425.00,0.1239
1424.00,0.1264
1423.00,0.1280
1422.00,0.1285
1421.00,0.1276
1420.00,0.1250
1419.00,0.1202
1418.00,0.1141
1417.00,0.1073
1416.00,0.1003
1415.00,0.0930
1414.00,0.0859
1413.00,0.0792
1412.00,0.0731
1411.00,0.0677
1410.00,0.0630
1409.00,0.0590
1408.00,0.0557
1407.00,0.0528
1406.00,0.0504
1405.00,0.0484
1404.00,0.0467
1403.00,0.0452
1402.00,0.0440
1401.00,0.0430
1400.00,0.0422
1399.00,0.0415
1398.00,0.0409
1397.00,0.0404
1396.00,0.0400
1395.00,0.0397
1394.00,0.0396
1393.00,0.0395
1392.00,0.0394
1391.00,0.0395
1390.00,0.0397
1389.00,0.0401
1388.00,0.0405
1387.00,0.0412
1386.00,0.0420
1385.00,0.0429
1384.00,0.0439
1383.00,0.0450
1382.00,0.0464
1381.00,0.0479
1380.00,0.0494
1379.00,0.0509
1378.00,0.0523
1377.00,0.0536
1376.00,0.0546
1375.00,0.0552
1374.00,0.0554
1373.00,0.0553
1372.00,0.0547
1371.00,0.0539
1370.00,0.0530
1369.00,0.0519
1368.00,0.0507
1367.00,0.0494
1366.00,0.0481
1365.00,0.0466
1364.00,0.0451
1363.00,0.0436
1362.00,0.0421
1361.00,0.0407
1360.00,0.0395
1359.00,0.0384
1358.00,0.0375
1357.00,0.0366
1356.00,0.0359
1355.00,0.0352
1354.00,0.0345
1353.00,0.0340
1352.00,0.0334
1351.00,0.0329
1350.00,0.0324
1349.00,0.0320
1348.00,0.0316
1347.00,0.0313
1346.00,0.0310
1345.00,0.0307
1344.00,0.0305
1343.00,0.0303
1342.00,0.0302
1341.00,0.0302
1340.00,0.0302
1339.00,0.0303
1338.00,0.0304
1337.00,0.0306
1336.00,0.0308
1335.00,0.0311
1334.00,0.0314
1333.00,0.0319
1332.00,0.0324
1331.00,0.0330
1330.00,0.0337
1329.00,0.0346
1328.00,0.0357
1327.00,0.0369
1326.00,0.0383
1325.00,0.0398
1324.00,0.0414
1323.00,0.0429
1322.00,0.0445
1321.00,0.0460
1320.00,0.0473
1319.00,0.0483
1318.00,0.0491
1317.00,0.0495
1316.00,0.0494
1315.00,0.0491
1314.00,0.0485
1313.00,0.0476
1312.00,0.0466
1311.00,0.0456
1310.00,0.0447
1309.00,0.0439
1308.00,0.0434
1307.00,0.0431
1306.00,0.0431
1305.00,0.0434
1304.00,0.0441
1303.00,0.0452
1302.00,0.0469
1301.00,0.0493
1300.00,0.0523
1299.00,0.0562
1298.00,0.0609
1297.00,0.0664
1296.00,0.0728
1295.00,0.0797
1294.00,0.0871
1293.00,0.0946
1292.00,0.1019
1291.00,0.1088
1290.00,0.1151
1289.00,0.1204
1288.00,0.1247
1287.00,0.1277
1286.00,0.1293
1285.00,0.1296
1284.00,0.1285
1283.00,0.1264
1282.00,0.1236
1281.00,0.1205
1280.00,0.1177
1279.00,0.1154
1278.00,0.1139
1277.00,0.1133
1276.00,0.1135
1275.00,0.1142
1274.00,0.1152
1273.00,0.1162
1272.00,0.1168
1271.00,0.1168
1270.00,0.1160
1269.00,0.1144
1268.00,0.1120
1267.00,0.1089
1266.00,0.1054
1265.00,0.1016
1264.00,0.0977
1263.00,0.0938
1262.00,0.0902
1261.00,0.0869
1260.00,0.0841
1259.00,0.0817
1258.00,0.0797
1257.00,0.0782
1256.00,0.0770
1255.00,0.0760
1254.00,0.0752
1253.00,0.0744
1252.00,0.0736
1251.00,0.0727
1250.00,0.0718
1249.00,0.0709
1248.00,0.0699
1247.00,0.0688
1246.00,0.0678
1245.00,0.0667
1244.00,0.0656
1243.00,0.0645
1242.00,0.0635
1241.00,0.0626
1240.00,0.0619
1239.00,0.0614
1238.00,0.0611
1237.00,0.0609
1236.00,0.0609
1235.00,0.0610
1234.00,0.0612
1233.00,0.0614
1232.00,0.0616
1231.00,0.0618
1230.00,0.0618
1229.00,0.0618
1228.00,0.0618
1227.00,0.0616
1226.00,0.0614
1225.00,0.0611
1224.00,0.0607
1223.00,0.0602
1222.00,0.0597
1221.00,0.0591
1220.00,0.0585
1219.00,0.0578
1218.00,0.0570
1217.00,0.0562
1216.00,0.0553
1215.00,0.0543
1214.00,0.0533
1213.00,0.0522
1212.00,0.0511
1211.00,0.0500
1210.00,0.0489
1209.00,0.0479
1208.00,0.0470
1207.00,0.0462
1206.00,0.0455
1205.00,0.0449
1204.00,0.0443
1203.00,0.0437
1202.00,0.0431
1201.00,0.0426
1200.00,0.0420
1199.00,0.0414
1198.00,0.0408
1197.00,0.0403
1196.00,0.0399
1195.00,0.0395
1194.00,0.0392
1193.00,0.0390
1192.00,0.0389
1191.00,0.0388
1190.00,0.0387
1189.00,0.0386
1188.00,0.0385
1187.00,0.0384
1186.00,0.0382
1185.00,0.0380
1184.00,0.0377
1183.00,0.0375
1182.00,0.0374
1181.00,0.0374
1180.00,0.0375
1179.00,0.0378
1178.00,0.0383
1177.00,0.0390
1176.00,0.0397
1175.00,0.0406
1174.00,0.0414
1173.00,0.0422
1172.00,0.0429
1171.00,0.0433
1170.00,0.0434
1169.00,0.0433
1168.00,0.0429
1167.00,0.0424
1166.00,0.0416
1165.00,0.0408
1164.00,0.0400
1163.00,0.0391
1162.00,0.0384
1161.00,0.0377
1160.00,0.0373
1159.00,0.0370
1158.00,0.0371
1157.00,0.0375
1156.00,0.0380
1155.00,0.0384
1154.00,0.0387
1153.00,0.0386
1152.00,0.0381
1151.00,0.0373
1150.00,0.0361
1149.00,0.0349
1148.00,0.0335
1147.00,0.0322
1146.00,0.0310
1145.00,0.0299
1144.00,0.0289
1143.00,0.0281
1142.00,0.0274
1141.00,0.0268
1140.00,0.0264
1139.00,0.0260
1138.00,0.0257
1137.00,0.0255
1136.00,0.0252
1135.00,0.0250
1134.00,0.0249
1133.00,0.0247
1132.00,0.0247
1131.00,0.0246
1130.00,0.0246
1129.00,0.0246
1128.00,0.0246
1127.00,0.0246
1126.00,0.0246
1125.00,0.0247
1124.00,0.0248
1123.00,0.0249
1122.00,0.0250
1121.00,0.0252
1120.00,0.0253
1119.00,0.0254
1118.00,0.0256
1117.00,0.0258
1116.00,0.0259
1115.00,0.0261
1114.00,0.0263
1113.00,0.0265
1112.00,0.0266
1111.00,0.0267
1110.00,0.0268
1109.00,0.0268
1108.00,0.0269
1107.00,0.0269
1106.00,0.0270
1105.00,0.0271
1104.00,0.0272
1103.00,0.0273
1102.00,0.0274
1101.00,0.0276
1100.00,0.0277
1099.00,0.0279
1098.00,0.0280
1097.00,0.0282
1096.00,0.0282
1095.00,0.0282
1094.00,0.0281
1093.00,0.0279
1092.00,0.0277
1091.00,0.0275
1090.00,0.0274
1089.00,0.0272
1088.00,0.0271
1087.00,0.0271
1086.00,0.0271
1085.00,0.0273
1084.00,0.0275
1083.00,0.0278
1082.00,0.0282
1081.00,0.0286
1080.00,0.0290
1079.00,0.0295
1078.00,0.0300
1077.00,0.0304
1076.00,0.0307
1075.00,0.0308
1074.00,0.0308
1073.00,0.0307
1072.00,0.0305
1071.00,0.0303
1070.00,0.0301
1069.00,0.0298
1068.00,0.0296
1067.00,0.0295
1066.00,0.0296
1065.00,0.0298
1064.00,0.0301
1063.00,0.0307
1062.00,0.0316
1061.00,0.0328
1060.00,0.0344
1059.00,0.0362
1058.00,0.0381
1057.00,0.0397
1056.00,0.0406
1055.00,0.0408
1054.00,0.0402
1053.00,0.0391
1052.00,0.0378
1051.00,0.0364
1050.00,0.0354
1049.00,0.0348
1048.00,0.0347
1047.00,0.0350
1046.00,0.0358
1045.00,0.0369
1044.00,0.0382
1043.00,0.0397
1042.00,0.0414
1041.00,0.0432
1040.00,0.0452
1039.00,0.0474
1038.00,0.0496
1037.00,0.0520
1036.00,0.0544
1035.00,0.0567
1034.00,0.0587
1033.00,0.0603
1032.00,0.0612
1031.00,0.0614
1030.00,0.0609
1029.00,0.0598
1028.00,0.0581
1027.00,0.0562
1026.00,0.0541
1025.00,0.0522
1024.00,0.0504
1023.00,0.0490
1022.00,0.0479
1021.00,0.0470
1020.00,0.0463
1019.00,0.0457
1018.00,0.0450
1017.00,0.0442
1016.00,0.0430
1015.00,0.0417
1014.00,0.0402
1013.00,0.0386
1012.00,0.0370
1011.00,0.0356
1010.00,0.0345
1009.00,0.0336
1008.00,0.0331
1007.00,0.0328
1006.00,0.0328
1005.00,0.0330
1004.00,0.0333
1003.00,0.0336
1002.00,0.0337
1001.00,0.0336
1000.00,0.0333
999.00,0.0328
998.00,0.0321
997.00,0.0314
996.00,0.0307
995.00,0.0301
994.00,0.0295
993.00,0.0290
992.00,0.0285
991.00,0.0282
990.00,0.0279
989.00,0.0276
988.00,0.0273
987.00,0.0271
986.00,0.0268
985.00,0.0264
984.00,0.0260
983.00,0.0255
982.00,0.0251
981.00,0.0247
980.00,0.0244
979.00,0.0240
978.00,0.0238
977.00,0.0235
976.00,0.0233
975.00,0.0231
974.00,0.0230
973.00,0.0228
972.00,0.0227
971.00,0.0226
970.00,0.0225
969.00,0.0225
968.00,0.0224
967.00,0.0224
966.00,0.0223
965.00,0.0221
964.00,0.0220
963.00,0.0218
962.00,0.0216
961.00,0.0214
960.00,0.0211
959.00,0.0209
958.00,0.0206
957.00,0.0202
956.00,0.0199
955.00,0.0196
954.00,0.0192
953.00,0.0190
952.00,0.0187
951.00,0.0185
950.00,0.0183
949.00,0.0182
948.00,0.0181
947.00,0.0180
946.00,0.0180
945.00,0.0181
944.00,0.0181
943.00,0.0183
942.00,0.0185
941.00,0.0188
940.00,0.0192
939.00,0.0198
938.00,0.0205
937.00,0.0213
936.00,0.0222
935.00,0.0230
934.00,0.0237
933.00,0.0241
932.00,0.0242
931.00,0.0239
930.00,0.0234
929.00,0.0229
928.00,0.0223
927.00,0.0219
926.00,0.0216
925.00,0.0213
924.00,0.0211
923.00,0.0208
922.00,0.0206
921.00,0.0205
920.00,0.0204
919.00,0.0204
918.00,0.0204
917.00,0.0204
916.00,0.0204
915.00,0.0205
914.00,0.0205
913.00,0.0206
912.00,0.0207
911.00,0.0208
910.00,0.0210
909.00,0.0213
908.00,0.0216
907.00,0.0221
906.00,0.0227
905.00,0.0233
904.00,0.0240
903.00,0.0247
902.00,0.0254
901.00,0.0260
900.00,0.0267
899.00,0.0273
898.00,0.0279
897.00,0.0284
896.00,0.0289
895.00,0.0292
894.00,0.0295
893.00,0.0297
892.00,0.0298
891.00,0.0298
890.00,0.0299
889.00,0.0299
888.00,0.0300
887.00,0.0300
886.00,0.0300
885.00,0.0300
884.00,0.0300
883.00,0.0300
882.00,0.0300
881.00,0.0299
880.00,0.0297
879.00,0.0295
878.00,0.0292
877.00,0.0289
876.00,0.0285
875.00,0.0281
874.00,0.0277
873.00,0.0273
872.00,0.0270
871.00,0.0268
870.00,0.0267
869.00,0.0266
868.00,0.0267
867.00,0.0267
866.00,0.0269
865.00,0.0272
864.00,0.0275
863.00,0.0279
862.00,0.0285
861.00,0.0291
860.00,0.0299
859.00,0.0308
858.00,0.0318
857.00,0.0329
856.00,0.0340
855.00,0.0351
854.00,0.0363
853.00,0.0374
852.00,0.0384
851.00,0.0394
850.00,0.0402
849.00,0.0410
848.00,0.0417
847.00,0.0422
846.00,0.0426
845.00,0.0430
844.00,0.0432
843.00,0.0432
842.00,0.0432
841.00,0.0430
840.00,0.0429
839.00,0.0427
838.00,0.0425
837.00,0.0422
836.00,0.0420
835.00,0.0418
834.00,0.0416
833.00,0.0413
832.00,0.0411
831.00,0.0409
830.00,0.0405
829.00,0.0401
828.00,0.0395
827.00,0.0387
826.00,0.0379
825.00,0.0370
824.00,0.0360
823.00,0.0350
822.00,0.0341
821.00,0.0332
820.00,0.0323
819.00,0.0314
818.00,0.0307
817.00,0.0301
816.00,0.0295
815.00,0.0290
814.00,0.0286
813.00,0.0283
812.00,0.0281
811.00,0.0280
810.00,0.0280
809.00,0.0280
808.00,0.0281
807.00,0.0281
806.00,0.0282
805.00,0.0283
804.00,0.0282
803.00,0.0279
802.00,0.0276
801.00,0.0273
800.00,0.0270
799.00,0.0268
798.00,0.0268
797.00,0.0270
796.00,0.0271
795.00,0.0273
794.00,0.0274
793.00,0.0275
792.00,0.0275
791.00,0.0275
790.00,0.0275
789.00,0.0274
788.00,0.0273
787.00,0.0272
786.00,0.0271
785.00,0.0270
784.00,0.0269
783.00,0.0269
782.00,0.0270
781.00,0.0271
780.00,0.0272
779.00,0.0275
778.00,0.0277
777.00,0.0280
776.00,0.0284
775.00,0.0287
774.00,0.0291
773.00,0.0294
772.00,0.0296
771.00,0.0298
770.00,0.0299
769.00,0.0300
768.00,0.0302
767.00,0.0305
766.00,0.0308
765.00,0.0312
764.00,0.0317
763.00,0.0322
762.00,0.0328
761.00,0.0334
760.00,0.0340
759.00,0.0347
758.00,0.0353
757.00,0.0358
756.00,0.0362
755.00,0.0365
754.00,0.0367
753.00,0.0369
752.00,0.0371
751.00,0.0373
750.00,0.0376
749.00,0.0380
748.00,0.0384
747.00,0.0390
746.00,0.0395
745.00,0.0400
744.00,0.0405
743.00,0.0411
742.00,0.0418
741.00,0.0425
740.00,0.0433
739.00,0.0440
738.00,0.0446
737.00,0.0452
736.00,0.0458
735.00,0.0462
734.00,0.0464
733.00,0.0464
732.00,0.0463
731.00,0.0459
730.00,0.0454
729.00,0.0447
728.00,0.0439
727.00,0.0430
726.00,0.0421
725.00,0.0413
724.00,0.0405
723.00,0.0398
722.00,0.0392
721.00,0.0386
720.00,0.0381
719.00,0.0376
718.00,0.0372
717.00,0.0369
716.00,0.0366
715.00,0.0364
714.00,0.0363
713.00,0.0362
712.00,0.0361
711.00,0.0360
710.00,0.0360
709.00,0.0360
708.00,0.0360
707.00,0.0361
706.00,0.0361
705.00,0.0361
704.00,0.0362
703.00,0.0363
702.00,0.0365
701.00,0.0367
700.00,0.0369
699.00,0.0372
698.00,0.0375
697.00,0.0378
696.00,0.0380
695.00,0.0383
694.00,0.0386
693.00,0.0390
692.00,0.0394
691.00,0.0398
690.00,0.0402
689.00,0.0407
688.00,0.0413
687.00,0.0418
686.00,0.0424
685.00,0.0430
684.00,0.0436
683.00,0.0442
682.00,0.0447
681.00,0.0452
680.00,0.0457
679.00,0.0463
678.00,0.0468
677.00,0.0472
676.00,0.0476
675.00,0.0481
674.00,0.0485
673.00,0.0491
672.00,0.0496
671.00,0.0502
670.00,0.0507
669.00,0.0515
668.00,0.0526
667.00,0.0537
666.00,0.0545
665.00,0.0552
664.00,0.0560
663.00,0.0569
662.00,0.0579
661.00,0.0590
660.00,0.0602
659.00,0.0614
658.00,0.0627
657.00,0.0641
656.00,0.0654
655.00,0.0668
654.00,0.0681
653.00,0.0692
652.00,0.0703
651.00,0.0712
650.00,0.0719
649.00,0.0724
648.00,0.0728
647.00,0.0729
646.00,0.0727
645.00,0.0722
644.00,0.0714
643.00,0.0705
642.00,0.0694
641.00,0.0682
640.00,0.0671
639.00,0.0659
638.00,0.0646
637.00,0.0635
636.00,0.0623
635.00,0.0612
634.00,0.0602
633.00,0.0593
632.00,0.0585
631.00,0.0577
630.00,0.0570
629.00,0.0563
628.00,0.0556
627.00,0.0550
626.00,0.0544
625.00,0.0540
624.00,0.0537
623.00,0.0534
622.00,0.0532
621.00,0.0529
620.00,0.0527
619.00,0.0526
618.00,0.0525
617.00,0.0524
616.00,0.0524
615.00,0.0524
614.00,0.0524
613.00,0.0525
612.00,0.0527
611.00,0.0528
610.00,0.0529
609.00,0.0529
608.00,0.0529
607.00,0.0530
606.00,0.0531
605.00,0.0533
604.00,0.0534
603.00,0.0535
602.00,0.0536
601.00,0.0537
600.00,0.0539
599.00,0.0540
598.00,0.0542
597.00,0.0545
596.00,0.0548
595.00,0.0552
594.00,0.0556
593.00,0.0560
592.00,0.0565
591.00,0.0570
590.00,0.0578
589.00,0.0585
588.00,0.0593
587.00,0.0601
586.00,0.0611
585.00,0.0622
584.00,0.0635
583.00,0.0649
582.00,0.0664
581.00,0.0678
580.00,0.0692
579.00,0.0703
578.00,0.0713
577.00,0.0722
576.00,0.0729
575.00,0.0733
574.00,0.0735
573.00,0.0735
572.00,0.0734
571.00,0.0731
570.00,0.0727
569.00,0.0724
568.00,0.0720
567.00,0.0715
566.00,0.0709
565.00,0.0700
564.00,0.0689
563.00,0.0679
562.00,0.0670
561.00,0.0662
560.00,0.0656
559.00,0.0651
558.00,0.0646
557.00,0.0642
556.00,0.0640
555.00,0.0637
554.00,0.0635
553.00,0.0632
552.00,0.0629
551.00,0.0625
550.00,0.0621
549.00,0.0615
548.00,0.0609
547.00,0.0603
546.00,0.0596
545.00,0.0591
544.00,0.0586
543.00,0.0581
542.00,0.0576
541.00,0.0571
540.00,0.0567
539.00,0.0565
538.00,0.0563
537.00,0.0563
536.00,0.0562
535.00,0.0562
534.00,0.0560
533.00,0.0559
532.00,0.0557
531.00,0.0555
530.00,0.0553
529.00,0.0553
528.00,0.0555
527.00,0.0559
526.00,0.0565
525.00,0.0570
524.00,0.0572
523.00,0.0571
522.00,0.0568
521.00,0.0564
520.00,0.0559
519.00,0.0554
518.00,0.0550
517.00,0.0546
516.00,0.0541
515.00,0.0536
514.00,0.0532
513.00,0.0529
512.00,0.0527
511.00,0.0526
510.00,0.0525
509.00,0.0523
508.00,0.0520
507.00,0.0518
506.00,0.0517
505.00,0.0517
504.00,0.0517
503.00,0.0517
502.00,0.0517
501.00,0.0516
500.00,0.0516
499.00,0.0517
498.00,0.0519
497.00,0.0521
496.00,0.0524
495.00,0.0526
494.00,0.0528
493.00,0.0530
492.00,0.0532
491.00,0.0535
490.00,0.0539
489.00,0.0543
488.00,0.0547
487.00,0.0549
486.00,0.0550
485.00,0.0550
484.00,0.0551
483.00,0.0553
482.00,0.0555
481.00,0.0556
480.00,0.0556
479.00,0.0555
478.00,0.0558
477.00,0.0562
476.00,0.0568
475.00,0.0572
474.00,0.0575
473.00,0.0577
472.00,0.0576
471.00,0.0576
470.00,0.0577
469.00,0.0577
468.00,0.0576
467.00,0.0572
466.00,0.0568
465.00,0.0564
464.00,0.0561
463.00,0.0559
462.00,0.0558
461.00,0.0556
460.00,0.0553
459.00,0.0549
458.00,0.0543
457.00,0.0539
456.00,0.0534
455.00,0.0529
454.00,0.0525
453.00,0.0522
452.00,0.0520
451.00,0.0520
450.00,0.0520
449.00,0.0520
448.00,0.0518
447.00,0.0516
446.00,0.0514
445.00,0.0514
444.00,0.0513
443.00,0.0512
442.00,0.0511
441.00,0.0512
440.00,0.0512
439.00,0.0510
438.00,0.0507
437.00,0.0503
436.00,0.0500
435.00,0.0498
434.00,0.0498
433.00,0.0501
432.00,0.0505
431.00,0.0508
430.00,0.0509
429.00,0.0509
428.00,0.0506
427.00,0.0501
426.00,0.0496
425.00,0.0493
424.00,0.0493
423.00,0.0493
422.00,0.0494
421.00,0.0493
420.00,0.0492
419.00,0.0492
418.00,0.0494
417.00,0.0494
416.00,0.0492
415.00,0.0491
414.00,0.0491
413.00,0.0492
412.00,0.0490
411.00,0.0485
410.00,0.0482
409.00,0.0481
408.00,0.0482
407.00,0.0483
406.00,0.0482
405.00,0.0477
404.00,0.0467
403.00,0.0456
402.00,0.0450
401.00,0.0451
400.00,0.0456
