Created as New Dataset,Sample 418 By YargerLab Date Thursday, December 04 2025
cm-1,A
4000.00,0.0046
3999.00,0.0046
3998.00,0.0046
3997.00,0.0047
3996.00,0.0046
3995.00,0.0046
3994.00,0.0046
3993.00,0.0046
3992.00,0.0045
3991.00,0.0046
3990.00,0.0046
3989.00,0.0046
3988.00,0.0046
3987.00,0.0046
3986.00,0.0046
3985.00,0.0046
3984.00,0.0046
3983.00,0.0046
3982.00,0.0046
3981.00,0.0046
3980.00,0.0046
3979.00,0.0046
3978.00,0.0046
3977.00,0.0046
3976.00,0.0046
3975.00,0.0046
3974.00,0.0046
3973.00,0.0046
3972.00,0.0046
3971.00,0.0046
3970.00,0.0046
3969.00,0.0046
3968.00,0.0046
3967.00,0.0046
3966.00,0.0046
3965.00,0.0046
3964.00,0.0046
3963.00,0.0046
3962.00,0.0045
3961.00,0.0045
3960.00,0.0045
3959.00,0.0045
3958.00,0.0045
3957.00,0.0045
3956.00,0.0045
3955.00,0.0045
3954.00,0.0045
3953.00,0.0045
3952.00,0.0045
3951.00,0.0045
3950.00,0.0045
3949.00,0.0045
3948.00,0.0045
3947.00,0.0045
3946.00,0.0045
3945.00,0.0045
3944.00,0.0045
3943.00,0.0045
3942.00,0.0045
3941.00,0.0045
3940.00,0.0045
3939.00,0.0045
3938.00,0.0045
3937.00,0.0045
3936.00,0.0045
3935.00,0.0045
3934.00,0.0045
3933.00,0.0045
3932.00,0.0044
3931.00,0.0044
3930.00,0.0044
3929.00,0.0044
3928.00,0.0044
3927.00,0.0044
3926.00,0.0044
3925.00,0.0045
3924.00,0.0045
3923.00,0.0045
3922.00,0.0045
3921.00,0.0045
3920.00,0.0045
3919.00,0.0045
3918.00,0.0045
3917.00,0.0045
3916.00,0.0044
3915.00,0.0045
3914.00,0.0045
3913.00,0.0045
3912.00,0.0045
3911.00,0.0045
3910.00,0.0046
3909.00,0.0045
3908.00,0.0045
3907.00,0.0045
3906.00,0.0044
3905.00,0.0044
3904.00,0.0044
3903.00,0.0043
3902.00,0.0043
3901.00,0.0043
3900.00,0.0043
3899.00,0.0043
3898.00,0.0044
3897.00,0.0044
3896.00,0.0044
3895.00,0.0044
3894.00,0.0045
3893.00,0.0045
3892.00,0.0045
3891.00,0.0045
3890.00,0.0045
3889.00,0.0044
3888.00,0.0044
3887.00,0.0044
3886.00,0.0045
3885.00,0.0045
3884.00,0.0044
3883.00,0.0044
3882.00,0.0044
3881.00,0.0044
3880.00,0.0044
3879.00,0.0044
3878.00,0.0044
3877.00,0.0044
3876.00,0.0044
3875.00,0.0044
3874.00,0.0044
3873.00,0.0044
3872.00,0.0044
3871.00,0.0043
3870.00,0.0043
3869.00,0.0044
3868.00,0.0043
3867.00,0.0043
3866.00,0.0043
3865.00,0.0043
3864.00,0.0043
3863.00,0.0044
3862.00,0.0044
3861.00,0.0044
3860.00,0.0044
3859.00,0.0044
3858.00,0.0044
3857.00,0.0043
3856.00,0.0043
3855.00,0.0043
3854.00,0.0043
3853.00,0.0042
3852.00,0.0042
3851.00,0.0042
3850.00,0.0042
3849.00,0.0043
3848.00,0.0043
3847.00,0.0044
3846.00,0.0044
3845.00,0.0045
3844.00,0.0044
3843.00,0.0044
3842.00,0.0044
3841.00,0.0043
3840.00,0.0043
3839.00,0.0043
3838.00,0.0043
3837.00,0.0043
3836.00,0.0043
3835.00,0.0043
3834.00,0.0043
3833.00,0.0043
3832.00,0.0044
3831.00,0.0044
3830.00,0.0044
3829.00,0.0044
3828.00,0.0044
3827.00,0.0044
3826.00,0.0044
3825.00,0.0044
3824.00,0.0044
3823.00,0.0043
3822.00,0.0043
3821.00,0.0044
3820.00,0.0043
3819.00,0.0043
3818.00,0.0042
3817.00,0.0042
3816.00,0.0043
3815.00,0.0043
3814.00,0.0044
3813.00,0.0044
3812.00,0.0044
3811.00,0.0045
3810.00,0.0045
3809.00,0.0044
3808.00,0.0044
3807.00,0.0044
3806.00,0.0044
3805.00,0.0044
3804.00,0.0043
3803.00,0.0043
3802.00,0.0043
3801.00,0.0043
3800.00,0.0043
3799.00,0.0043
3798.00,0.0043
3797.00,0.0043
3796.00,0.0044
3795.00,0.0044
3794.00,0.0044
3793.00,0.0045
3792.00,0.0045
3791.00,0.0045
3790.00,0.0045
3789.00,0.0045
3788.00,0.0045
3787.00,0.0045
3786.00,0.0045
3785.00,0.0045
3784.00,0.0045
3783.00,0.0045
3782.00,0.0045
3781.00,0.0045
3780.00,0.0045
3779.00,0.0045
3778.00,0.0045
3777.00,0.0045
3776.00,0.0045
3775.00,0.0045
3774.00,0.0045
3773.00,0.0045
3772.00,0.0045
3771.00,0.0045
3770.00,0.0045
3769.00,0.0045
3768.00,0.0044
3767.00,0.0044
3766.00,0.0044
3765.00,0.0044
3764.00,0.0044
3763.00,0.0044
3762.00,0.0044
3761.00,0.0044
3760.00,0.0044
3759.00,0.0044
3758.00,0.0044
3757.00,0.0044
3756.00,0.0044
3755.00,0.0043
3754.00,0.0043
3753.00,0.0043
3752.00,0.0043
3751.00,0.0043
3750.00,0.0042
3749.00,0.0042
3748.00,0.0042
3747.00,0.0041
3746.00,0.0042
3745.00,0.0042
3744.00,0.0042
3743.00,0.0042
3742.00,0.0041
3741.00,0.0041
3740.00,0.0041
3739.00,0.0042
3738.00,0.0042
3737.00,0.0042
3736.00,0.0042
3735.00,0.0042
3734.00,0.0042
3733.00,0.0042
3732.00,0.0043
3731.00,0.0043
3730.00,0.0043
3729.00,0.0043
3728.00,0.0043
3727.00,0.0043
3726.00,0.0043
3725.00,0.0043
3724.00,0.0043
3723.00,0.0043
3722.00,0.0043
3721.00,0.0043
3720.00,0.0043
3719.00,0.0043
3718.00,0.0043
3717.00,0.0043
3716.00,0.0043
3715.00,0.0043
3714.00,0.0043
3713.00,0.0043
3712.00,0.0043
3711.00,0.0043
3710.00,0.0043
3709.00,0.0043
3708.00,0.0043
3707.00,0.0043
3706.00,0.0043
3705.00,0.0043
3704.00,0.0043
3703.00,0.0043
3702.00,0.0043
3701.00,0.0043
3700.00,0.0043
3699.00,0.0043
3698.00,0.0043
3697.00,0.0044
3696.00,0.0044
3695.00,0.0044
3694.00,0.0044
3693.00,0.0044
3692.00,0.0044
3691.00,0.0043
3690.00,0.0043
3689.00,0.0043
3688.00,0.0043
3687.00,0.0043
3686.00,0.0044
3685.00,0.0044
3684.00,0.0045
3683.00,0.0045
3682.00,0.0046
3681.00,0.0046
3680.00,0.0046
3679.00,0.0045
3678.00,0.0045
3677.00,0.0045
3676.00,0.0045
3675.00,0.0045
3674.00,0.0044
3673.00,0.0044
3672.00,0.0043
3671.00,0.0044
3670.00,0.0044
3669.00,0.0045
3668.00,0.0045
3667.00,0.0046
3666.00,0.0046
3665.00,0.0047
3664.00,0.0047
3663.00,0.0047
3662.00,0.0047
3661.00,0.0048
3660.00,0.0048
3659.00,0.0047
3658.00,0.0047
3657.00,0.0047
3656.00,0.0047
3655.00,0.0047
3654.00,0.0047
3653.00,0.0047
3652.00,0.0046
3651.00,0.0046
3650.00,0.0046
3649.00,0.0046
3648.00,0.0046
3647.00,0.0047
3646.00,0.0047
3645.00,0.0048
3644.00,0.0049
3643.00,0.0050
3642.00,0.0050
3641.00,0.0051
3640.00,0.0051
3639.00,0.0051
3638.00,0.0051
3637.00,0.0051
3636.00,0.0052
3635.00,0.0052
3634.00,0.0052
3633.00,0.0053
3632.00,0.0052
3631.00,0.0052
3630.00,0.0052
3629.00,0.0053
3628.00,0.0053
3627.00,0.0053
3626.00,0.0053
3625.00,0.0054
3624.00,0.0054
3623.00,0.0055
3622.00,0.0055
3621.00,0.0055
3620.00,0.0055
3619.00,0.0055
3618.00,0.0056
3617.00,0.0056
3616.00,0.0056
3615.00,0.0057
3614.00,0.0057
3613.00,0.0058
3612.00,0.0058
3611.00,0.0058
3610.00,0.0059
3609.00,0.0059
3608.00,0.0060
3607.00,0.0060
3606.00,0.0061
3605.00,0.0061
3604.00,0.0062
3603.00,0.0062
3602.00,0.0063
3601.00,0.0063
3600.00,0.0064
3599.00,0.0064
3598.00,0.0064
3597.00,0.0064
3596.00,0.0065
3595.00,0.0066
3594.00,0.0066
3593.00,0.0066
3592.00,0.0067
3591.00,0.0067
3590.00,0.0067
3589.00,0.0067
3588.00,0.0068
3587.00,0.0069
3586.00,0.0069
3585.00,0.0070
3584.00,0.0071
3583.00,0.0071
3582.00,0.0072
3581.00,0.0072
3580.00,0.0073
3579.00,0.0074
3578.00,0.0074
3577.00,0.0075
3576.00,0.0075
3575.00,0.0076
3574.00,0.0077
3573.00,0.0077
3572.00,0.0077
3571.00,0.0078
3570.00,0.0078
3569.00,0.0078
3568.00,0.0078
3567.00,0.0079
3566.00,0.0080
3565.00,0.0080
3564.00,0.0081
3563.00,0.0082
3562.00,0.0083
3561.00,0.0084
3560.00,0.0084
3559.00,0.0085
3558.00,0.0085
3557.00,0.0086
3556.00,0.0086
3555.00,0.0087
3554.00,0.0087
3553.00,0.0088
3552.00,0.0089
3551.00,0.0089
3550.00,0.0090
3549.00,0.0090
3548.00,0.0091
3547.00,0.0092
3546.00,0.0092
3545.00,0.0093
3544.00,0.0094
3543.00,0.0094
3542.00,0.0095
3541.00,0.0095
3540.00,0.0096
3539.00,0.0096
3538.00,0.0097
3537.00,0.0097
3536.00,0.0098
3535.00,0.0098
3534.00,0.0098
3533.00,0.0099
3532.00,0.0099
3531.00,0.0100
3530.00,0.0100
3529.00,0.0101
3528.00,0.0102
3527.00,0.0102
3526.00,0.0103
3525.00,0.0103
3524.00,0.0104
3523.00,0.0104
3522.00,0.0105
3521.00,0.0106
3520.00,0.0106
3519.00,0.0107
3518.00,0.0108
3517.00,0.0109
3516.00,0.0109
3515.00,0.0110
3514.00,0.0110
3513.00,0.0111
3512.00,0.0111
3511.00,0.0112
3510.00,0.0113
3509.00,0.0113
3508.00,0.0114
3507.00,0.0115
3506.00,0.0116
3505.00,0.0116
3504.00,0.0117
3503.00,0.0118
3502.00,0.0119
3501.00,0.0120
3500.00,0.0120
3499.00,0.0121
3498.00,0.0122
3497.00,0.0123
3496.00,0.0124
3495.00,0.0125
3494.00,0.0126
3493.00,0.0126
3492.00,0.0127
3491.00,0.0128
3490.00,0.0128
3489.00,0.0129
3488.00,0.0129
3487.00,0.0130
3486.00,0.0131
3485.00,0.0132
3484.00,0.0133
3483.00,0.0133
3482.00,0.0134
3481.00,0.0135
3480.00,0.0136
3479.00,0.0136
3478.00,0.0137
3477.00,0.0138
3476.00,0.0139
3475.00,0.0140
3474.00,0.0140
3473.00,0.0141
3472.00,0.0142
3471.00,0.0143
3470.00,0.0144
3469.00,0.0145
3468.00,0.0146
3467.00,0.0147
3466.00,0.0147
3465.00,0.0147
3464.00,0.0148
3463.00,0.0148
3462.00,0.0149
3461.00,0.0150
3460.00,0.0151
3459.00,0.0152
3458.00,0.0152
3457.00,0.0153
3456.00,0.0153
3455.00,0.0154
3454.00,0.0155
3453.00,0.0155
3452.00,0.0156
3451.00,0.0157
3450.00,0.0157
3449.00,0.0157
3448.00,0.0158
3447.00,0.0158
3446.00,0.0159
3445.00,0.0160
3444.00,0.0160
3443.00,0.0161
3442.00,0.0161
3441.00,0.0162
3440.00,0.0163
3439.00,0.0163
3438.00,0.0164
3437.00,0.0164
3436.00,0.0165
3435.00,0.0166
3434.00,0.0166
3433.00,0.0167
3432.00,0.0167
3431.00,0.0167
3430.00,0.0167
3429.00,0.0168
3428.00,0.0168
3427.00,0.0169
3426.00,0.0169
3425.00,0.0170
3424.00,0.0170
3423.00,0.0171
3422.00,0.0171
3421.00,0.0171
3420.00,0.0172
3419.00,0.0172
3418.00,0.0173
3417.00,0.0173
3416.00,0.0174
3415.00,0.0174
3414.00,0.0174
3413.00,0.0175
3412.00,0.0176
3411.00,0.0176
3410.00,0.0177
3409.00,0.0177
3408.00,0.0178
3407.00,0.0178
3406.00,0.0179
3405.00,0.0179
3404.00,0.0180
3403.00,0.0180
3402.00,0.0180
3401.00,0.0181
3400.00,0.0181
3399.00,0.0182
3398.00,0.0183
3397.00,0.0184
3396.00,0.0184
3395.00,0.0185
3394.00,0.0185
3393.00,0.0185
3392.00,0.0185
3391.00,0.0186
3390.00,0.0187
3389.00,0.0188
3388.00,0.0189
3387.00,0.0190
3386.00,0.0190
3385.00,0.0191
3384.00,0.0191
3383.00,0.0192
3382.00,0.0192
3381.00,0.0193
3380.00,0.0193
3379.00,0.0193
3378.00,0.0194
3377.00,0.0195
3376.00,0.0195
3375.00,0.0196
3374.00,0.0197
3373.00,0.0197
3372.00,0.0197
3371.00,0.0197
3370.00,0.0197
3369.00,0.0197
3368.00,0.0198
3367.00,0.0199
3366.00,0.0200
3365.00,0.0201
3364.00,0.0202
3363.00,0.0202
3362.00,0.0203
3361.00,0.0203
3360.00,0.0204
3359.00,0.0205
3358.00,0.0205
3357.00,0.0206
3356.00,0.0206
3355.00,0.0207
3354.00,0.0207
3353.00,0.0207
3352.00,0.0207
3351.00,0.0207
3350.00,0.0208
3349.00,0.0209
3348.00,0.0210
3347.00,0.0210
3346.00,0.0210
3345.00,0.0210
3344.00,0.0210
3343.00,0.0210
3342.00,0.0210
3341.00,0.0211
3340.00,0.0211
3339.00,0.0211
3338.00,0.0212
3337.00,0.0213
3336.00,0.0214
3335.00,0.0214
3334.00,0.0215
3333.00,0.0215
3332.00,0.0215
3331.00,0.0215
3330.00,0.0215
3329.00,0.0216
3328.00,0.0216
3327.00,0.0215
3326.00,0.0216
3325.00,0.0216
3324.00,0.0217
3323.00,0.0217
3322.00,0.0218
3321.00,0.0218
3320.00,0.0219
3319.00,0.0219
3318.00,0.0220
3317.00,0.0220
3316.00,0.0221
3315.00,0.0221
3314.00,0.0221
3313.00,0.0221
3312.00,0.0220
3311.00,0.0220
3310.00,0.0219
3309.00,0.0219
3308.00,0.0219
3307.00,0.0219
3306.00,0.0219
3305.00,0.0220
3304.00,0.0221
3303.00,0.0222
3302.00,0.0223
3301.00,0.0224
3300.00,0.0224
3299.00,0.0224
3298.00,0.0224
3297.00,0.0223
3296.00,0.0223
3295.00,0.0223
3294.00,0.0223
3293.00,0.0223
3292.00,0.0223
3291.00,0.0224
3290.00,0.0225
3289.00,0.0225
3288.00,0.0226
3287.00,0.0226
3286.00,0.0225
3285.00,0.0225
3284.00,0.0225
3283.00,0.0225
3282.00,0.0225
3281.00,0.0225
3280.00,0.0225
3279.00,0.0225
3278.00,0.0225
3277.00,0.0225
3276.00,0.0225
3275.00,0.0225
3274.00,0.0224
3273.00,0.0224
3272.00,0.0224
3271.00,0.0224
3270.00,0.0224
3269.00,0.0224
3268.00,0.0225
3267.00,0.0225
3266.00,0.0225
3265.00,0.0225
3264.00,0.0225
3263.00,0.0224
3262.00,0.0224
3261.00,0.0224
3260.00,0.0224
3259.00,0.0223
3258.00,0.0223
3257.00,0.0223
3256.00,0.0223
3255.00,0.0223
3254.00,0.0223
3253.00,0.0223
3252.00,0.0223
3251.00,0.0222
3250.00,0.0222
3249.00,0.0222
3248.00,0.0222
3247.00,0.0221
3246.00,0.0221
3245.00,0.0221
3244.00,0.0221
3243.00,0.0221
3242.00,0.0221
3241.00,0.0221
3240.00,0.0220
3239.00,0.0220
3238.00,0.0220
3237.00,0.0220
3236.00,0.0220
3235.00,0.0219
3234.00,0.0219
3233.00,0.0219
3232.00,0.0219
3231.00,0.0219
3230.00,0.0219
3229.00,0.0218
3228.00,0.0218
3227.00,0.0218
3226.00,0.0218
3225.00,0.0217
3224.00,0.0217
3223.00,0.0217
3222.00,0.0216
3221.00,0.0216
3220.00,0.0215
3219.00,0.0215
3218.00,0.0214
3217.00,0.0214
3216.00,0.0214
3215.00,0.0213
3214.00,0.0213
3213.00,0.0212
3212.00,0.0212
3211.00,0.0212
3210.00,0.0212
3209.00,0.0212
3208.00,0.0212
3207.00,0.0212
3206.00,0.0211
3205.00,0.0211
3204.00,0.0211
3203.00,0.0210
3202.00,0.0210
3201.00,0.0210
3200.00,0.0210
3199.00,0.0209
3198.00,0.0209
3197.00,0.0209
3196.00,0.0208
3195.00,0.0208
3194.00,0.0208
3193.00,0.0207
3192.00,0.0207
3191.00,0.0206
3190.00,0.0206
3189.00,0.0205
3188.00,0.0205
3187.00,0.0204
3186.00,0.0204
3185.00,0.0204
3184.00,0.0204
3183.00,0.0203
3182.00,0.0202
3181.00,0.0201
3180.00,0.0201
3179.00,0.0200
3178.00,0.0200
3177.00,0.0199
3176.00,0.0198
3175.00,0.0198
3174.00,0.0197
3173.00,0.0197
3172.00,0.0196
3171.00,0.0196
3170.00,0.0195
3169.00,0.0194
3168.00,0.0194
3167.00,0.0193
3166.00,0.0192
3165.00,0.0192
3164.00,0.0191
3163.00,0.0190
3162.00,0.0190
3161.00,0.0189
3160.00,0.0189
3159.00,0.0188
3158.00,0.0187
3157.00,0.0187
3156.00,0.0186
3155.00,0.0186
3154.00,0.0185
3153.00,0.0184
3152.00,0.0184
3151.00,0.0183
3150.00,0.0182
3149.00,0.0182
3148.00,0.0181
3147.00,0.0180
3146.00,0.0180
3145.00,0.0179
3144.00,0.0178
3143.00,0.0178
3142.00,0.0177
3141.00,0.0176
3140.00,0.0176
3139.00,0.0175
3138.00,0.0175
3137.00,0.0174
3136.00,0.0174
3135.00,0.0173
3134.00,0.0173
3133.00,0.0172
3132.00,0.0172
3131.00,0.0171
3130.00,0.0171
3129.00,0.0170
3128.00,0.0170
3127.00,0.0169
3126.00,0.0169
3125.00,0.0168
3124.00,0.0168
3123.00,0.0167
3122.00,0.0167
3121.00,0.0167
3120.00,0.0166
3119.00,0.0166
3118.00,0.0165
3117.00,0.0164
3116.00,0.0164
3115.00,0.0163
3114.00,0.0163
3113.00,0.0162
3112.00,0.0161
3111.00,0.0161
3110.00,0.0160
3109.00,0.0159
3108.00,0.0159
3107.00,0.0158
3106.00,0.0157
3105.00,0.0156
3104.00,0.0156
3103.00,0.0155
3102.00,0.0155
3101.00,0.0154
3100.00,0.0153
3099.00,0.0153
3098.00,0.0152
3097.00,0.0152
3096.00,0.0151
3095.00,0.0151
3094.00,0.0150
3093.00,0.0150
3092.00,0.0150
3091.00,0.0149
3090.00,0.0149
3089.00,0.0149
3088.00,0.0148
3087.00,0.0148
3086.00,0.0147
3085.00,0.0147
3084.00,0.0147
3083.00,0.0147
3082.00,0.0147
3081.00,0.0147
3080.00,0.0147
3079.00,0.0147
3078.00,0.0147
3077.00,0.0147
3076.00,0.0146
3075.00,0.0146
3074.00,0.0146
3073.00,0.0146
3072.00,0.0146
3071.00,0.0146
3070.00,0.0145
3069.00,0.0145
3068.00,0.0144
3067.00,0.0143
3066.00,0.0142
3065.00,0.0141
3064.00,0.0140
3063.00,0.0139
3062.00,0.0138
3061.00,0.0137
3060.00,0.0136
3059.00,0.0135
3058.00,0.0134
3057.00,0.0133
3056.00,0.0132
3055.00,0.0131
3054.00,0.0131
3053.00,0.0130
3052.00,0.0130
3051.00,0.0130
3050.00,0.0129
3049.00,0.0129
3048.00,0.0128
3047.00,0.0128
3046.00,0.0128
3045.00,0.0128
3044.00,0.0127
3043.00,0.0127
3042.00,0.0126
3041.00,0.0126
3040.00,0.0126
3039.00,0.0125
3038.00,0.0125
3037.00,0.0125
3036.00,0.0125
3035.00,0.0124
3034.00,0.0124
3033.00,0.0124
3032.00,0.0124
3031.00,0.0123
3030.00,0.0123
3029.00,0.0123
3028.00,0.0123
3027.00,0.0123
3026.00,0.0123
3025.00,0.0123
3024.00,0.0123
3023.00,0.0123
3022.00,0.0124
3021.00,0.0124
3020.00,0.0125
3019.00,0.0125
3018.00,0.0126
3017.00,0.0127
3016.00,0.0128
3015.00,0.0129
3014.00,0.0129
3013.00,0.0130
3012.00,0.0131
3011.00,0.0132
3010.00,0.0134
3009.00,0.0135
3008.00,0.0137
3007.00,0.0139
3006.00,0.0140
3005.00,0.0143
3004.00,0.0145
3003.00,0.0147
3002.00,0.0149
3001.00,0.0152
3000.00,0.0155
2999.00,0.0158
2998.00,0.0161
2997.00,0.0165
2996.00,0.0169
2995.00,0.0173
2994.00,0.0177
2993.00,0.0181
2992.00,0.0186
2991.00,0.0190
2990.00,0.0195
2989.00,0.0199
2988.00,0.0204
2987.00,0.0208
2986.00,0.0213
2985.00,0.0217
2984.00,0.0221
2983.00,0.0225
2982.00,0.0228
2981.00,0.0233
2980.00,0.0237
2979.00,0.0241
2978.00,0.0246
2977.00,0.0250
2976.00,0.0254
2975.00,0.0259
2974.00,0.0263
2973.00,0.0267
2972.00,0.0272
2971.00,0.0277
2970.00,0.0283
2969.00,0.0288
2968.00,0.0294
2967.00,0.0300
2966.00,0.0307
2965.00,0.0313
2964.00,0.0320
2963.00,0.0326
2962.00,0.0332
2961.00,0.0338
2960.00,0.0343
2959.00,0.0348
2958.00,0.0353
2957.00,0.0356
2956.00,0.0359
2955.00,0.0362
2954.00,0.0363
2953.00,0.0364
2952.00,0.0364
2951.00,0.0363
2950.00,0.0362
2949.00,0.0361
2948.00,0.0360
2947.00,0.0359
2946.00,0.0359
2945.00,0.0358
2944.00,0.0358
2943.00,0.0359
2942.00,0.0360
2941.00,0.0362
2940.00,0.0364
2939.00,0.0367
2938.00,0.0371
2937.00,0.0376
2936.00,0.0381
2935.00,0.0387
2934.00,0.0392
2933.00,0.0398
2932.00,0.0403
2931.00,0.0409
2930.00,0.0414
2929.00,0.0419
2928.00,0.0424
2927.00,0.0428
2926.00,0.0431
2925.00,0.0434
2924.00,0.0436
2923.00,0.0437
2922.00,0.0437
2921.00,0.0437
2920.00,0.0436
2919.00,0.0433
2918.00,0.0430
2917.00,0.0427
2916.00,0.0422
2915.00,0.0417
2914.00,0.0412
2913.00,0.0406
2912.00,0.0400
2911.00,0.0394
2910.00,0.0388
2909.00,0.0382
2908.00,0.0376
2907.00,0.0370
2906.00,0.0364
2905.00,0.0359
2904.00,0.0354
2903.00,0.0350
2902.00,0.0347
2901.00,0.0344
2900.00,0.0341
2899.00,0.0339
2898.00,0.0337
2897.00,0.0335
2896.00,0.0333
2895.00,0.0331
2894.00,0.0330
2893.00,0.0328
2892.00,0.0326
2891.00,0.0325
2890.00,0.0323
2889.00,0.0322
2888.00,0.0321
2887.00,0.0319
2886.00,0.0318
2885.00,0.0317
2884.00,0.0316
2883.00,0.0315
2882.00,0.0315
2881.00,0.0314
2880.00,0.0314
2879.00,0.0314
2878.00,0.0314
2877.00,0.0314
2876.00,0.0314
2875.00,0.0314
2874.00,0.0314
2873.00,0.0314
2872.00,0.0314
2871.00,0.0314
2870.00,0.0314
2869.00,0.0313
2868.00,0.0311
2867.00,0.0310
2866.00,0.0309
2865.00,0.0308
2864.00,0.0308
2863.00,0.0308
2862.00,0.0309
2861.00,0.0310
2860.00,0.0312
2859.00,0.0314
2858.00,0.0315
2857.00,0.0315
2856.00,0.0314
2855.00,0.0312
2854.00,0.0309
2853.00,0.0305
2852.00,0.0299
2851.00,0.0292
2850.00,0.0284
2849.00,0.0276
2848.00,0.0268
2847.00,0.0259
2846.00,0.0251
2845.00,0.0243
2844.00,0.0235
2843.00,0.0228
2842.00,0.0221
2841.00,0.0215
2840.00,0.0210
2839.00,0.0206
2838.00,0.0203
2837.00,0.0201
2836.00,0.0200
2835.00,0.0198
2834.00,0.0197
2833.00,0.0196
2832.00,0.0195
2831.00,0.0194
2830.00,0.0192
2829.00,0.0190
2828.00,0.0187
2827.00,0.0184
2826.00,0.0181
2825.00,0.0177
2824.00,0.0173
2823.00,0.0169
2822.00,0.0165
2821.00,0.0161
2820.00,0.0157
2819.00,0.0154
2818.00,0.0151
2817.00,0.0147
2816.00,0.0145
2815.00,0.0142
2814.00,0.0139
2813.00,0.0137
2812.00,0.0135
2811.00,0.0133
2810.00,0.0131
2809.00,0.0129
2808.00,0.0127
2807.00,0.0126
2806.00,0.0124
2805.00,0.0123
2804.00,0.0121
2803.00,0.0120
2802.00,0.0118
2801.00,0.0117
2800.00,0.0116
2799.00,0.0115
2798.00,0.0114
2797.00,0.0113
2796.00,0.0113
2795.00,0.0112
2794.00,0.0111
2793.00,0.0110
2792.00,0.0110
2791.00,0.0109
2790.00,0.0108
2789.00,0.0108
2788.00,0.0107
2787.00,0.0107
2786.00,0.0106
2785.00,0.0105
2784.00,0.0105
2783.00,0.0104
2782.00,0.0104
2781.00,0.0103
2780.00,0.0103
2779.00,0.0102
2778.00,0.0102
2777.00,0.0101
2776.00,0.0101
2775.00,0.0100
2774.00,0.0100
2773.00,0.0100
2772.00,0.0099
2771.00,0.0099
2770.00,0.0098
2769.00,0.0097
2768.00,0.0097
2767.00,0.0097
2766.00,0.0096
2765.00,0.0096
2764.00,0.0096
2763.00,0.0096
2762.00,0.0096
2761.00,0.0095
2760.00,0.0095
2759.00,0.0095
2758.00,0.0095
2757.00,0.0095
2756.00,0.0095
2755.00,0.0094
2754.00,0.0094
2753.00,0.0094
2752.00,0.0094
2751.00,0.0094
2750.00,0.0094
2749.00,0.0094
2748.00,0.0094
2747.00,0.0094
2746.00,0.0094
2745.00,0.0094
2744.00,0.0094
2743.00,0.0094
2742.00,0.0094
2741.00,0.0094
2740.00,0.0094
2739.00,0.0094
2738.00,0.0094
2737.00,0.0094
2736.00,0.0094
2735.00,0.0094
2734.00,0.0095
2733.00,0.0095
2732.00,0.0095
2731.00,0.0095
2730.00,0.0095
2729.00,0.0095
2728.00,0.0095
2727.00,0.0095
2726.00,0.0095
2725.00,0.0095
2724.00,0.0095
2723.00,0.0095
2722.00,0.0095
2721.00,0.0095
2720.00,0.0094
2719.00,0.0094
2718.00,0.0093
2717.00,0.0093
2716.00,0.0093
2715.00,0.0092
2714.00,0.0092
2713.00,0.0092
2712.00,0.0092
2711.00,0.0092
2710.00,0.0091
2709.00,0.0091
2708.00,0.0091
2707.00,0.0091
2706.00,0.0090
2705.00,0.0090
2704.00,0.0090
2703.00,0.0090
2702.00,0.0090
2701.00,0.0090
2700.00,0.0090
2699.00,0.0090
2698.00,0.0090
2697.00,0.0090
2696.00,0.0090
2695.00,0.0089
2694.00,0.0089
2693.00,0.0089
2692.00,0.0089
2691.00,0.0089
2690.00,0.0089
2689.00,0.0089
2688.00,0.0089
2687.00,0.0089
2686.00,0.0089
2685.00,0.0088
2684.00,0.0088
2683.00,0.0088
2682.00,0.0088
2681.00,0.0088
2680.00,0.0088
2679.00,0.0087
2678.00,0.0087
2677.00,0.0087
2676.00,0.0087
2675.00,0.0087
2674.00,0.0087
2673.00,0.0087
2672.00,0.0087
2671.00,0.0087
2670.00,0.0087
2669.00,0.0087
2668.00,0.0087
2667.00,0.0088
2666.00,0.0088
2665.00,0.0088
2664.00,0.0089
2663.00,0.0089
2662.00,0.0089
2661.00,0.0089
2660.00,0.0089
2659.00,0.0089
2658.00,0.0089
2657.00,0.0089
2656.00,0.0089
2655.00,0.0089
2654.00,0.0089
2653.00,0.0089
2652.00,0.0089
2651.00,0.0088
2650.00,0.0088
2649.00,0.0088
2648.00,0.0088
2647.00,0.0088
2646.00,0.0088
2645.00,0.0087
2644.00,0.0087
2643.00,0.0087
2642.00,0.0087
2641.00,0.0086
2640.00,0.0086
2639.00,0.0086
2638.00,0.0085
2637.00,0.0085
2636.00,0.0085
2635.00,0.0085
2634.00,0.0085
2633.00,0.0085
2632.00,0.0085
2631.00,0.0085
2630.00,0.0084
2629.00,0.0084
2628.00,0.0084
2627.00,0.0083
2626.00,0.0083
2625.00,0.0083
2624.00,0.0083
2623.00,0.0082
2622.00,0.0082
2621.00,0.0082
2620.00,0.0082
2619.00,0.0082
2618.00,0.0082
2617.00,0.0082
2616.00,0.0082
2615.00,0.0081
2614.00,0.0081
2613.00,0.0081
2612.00,0.0080
2611.00,0.0080
2610.00,0.0080
2609.00,0.0080
2608.00,0.0080
2607.00,0.0080
2606.00,0.0079
2605.00,0.0079
2604.00,0.0079
2603.00,0.0079
2602.00,0.0079
2601.00,0.0079
2600.00,0.0079
2599.00,0.0079
2598.00,0.0079
2597.00,0.0079
2596.00,0.0079
2595.00,0.0078
2594.00,0.0078
2593.00,0.0078
2592.00,0.0078
2591.00,0.0078
2590.00,0.0078
2589.00,0.0078
2588.00,0.0078
2587.00,0.0078
2586.00,0.0077
2585.00,0.0077
2584.00,0.0076
2583.00,0.0076
2582.00,0.0077
2581.00,0.0077
2580.00,0.0077
2579.00,0.0077
2578.00,0.0077
2577.00,0.0077
2576.00,0.0076
2575.00,0.0076
2574.00,0.0076
2573.00,0.0076
2572.00,0.0076
2571.00,0.0075
2570.00,0.0075
2569.00,0.0075
2568.00,0.0075
2567.00,0.0075
2566.00,0.0075
2565.00,0.0075
2564.00,0.0075
2563.00,0.0075
2562.00,0.0074
2561.00,0.0074
2560.00,0.0074
2559.00,0.0074
2558.00,0.0074
2557.00,0.0074
2556.00,0.0074
2555.00,0.0074
2554.00,0.0074
2553.00,0.0073
2552.00,0.0073
2551.00,0.0073
2550.00,0.0072
2549.00,0.0072
2548.00,0.0072
2547.00,0.0072
2546.00,0.0072
2545.00,0.0073
2544.00,0.0072
2543.00,0.0072
2542.00,0.0072
2541.00,0.0071
2540.00,0.0071
2539.00,0.0071
2538.00,0.0071
2537.00,0.0071
2536.00,0.0071
2535.00,0.0071
2534.00,0.0070
2533.00,0.0070
2532.00,0.0070
2531.00,0.0070
2530.00,0.0070
2529.00,0.0070
2528.00,0.0070
2527.00,0.0070
2526.00,0.0070
2525.00,0.0070
2524.00,0.0070
2523.00,0.0070
2522.00,0.0070
2521.00,0.0070
2520.00,0.0069
2519.00,0.0069
2518.00,0.0069
2517.00,0.0069
2516.00,0.0069
2515.00,0.0070
2514.00,0.0069
2513.00,0.0069
2512.00,0.0069
2511.00,0.0068
2510.00,0.0068
2509.00,0.0068
2508.00,0.0068
2507.00,0.0068
2506.00,0.0068
2505.00,0.0068
2504.00,0.0068
2503.00,0.0068
2502.00,0.0067
2501.00,0.0067
2500.00,0.0067
2499.00,0.0067
2498.00,0.0067
2497.00,0.0067
2496.00,0.0067
2495.00,0.0067
2494.00,0.0067
2493.00,0.0067
2492.00,0.0067
2491.00,0.0067
2490.00,0.0066
2489.00,0.0066
2488.00,0.0066
2487.00,0.0066
2486.00,0.0065
2485.00,0.0065
2484.00,0.0064
2483.00,0.0064
2482.00,0.0064
2481.00,0.0064
2480.00,0.0064
2479.00,0.0064
2478.00,0.0064
2477.00,0.0064
2476.00,0.0065
2475.00,0.0065
2474.00,0.0065
2473.00,0.0065
2472.00,0.0065
2471.00,0.0064
2470.00,0.0064
2469.00,0.0064
2468.00,0.0064
2467.00,0.0064
2466.00,0.0063
2465.00,0.0063
2464.00,0.0063
2463.00,0.0063
2462.00,0.0063
2461.00,0.0063
2460.00,0.0063
2459.00,0.0063
2458.00,0.0064
2457.00,0.0064
2456.00,0.0064
2455.00,0.0064
2454.00,0.0064
2453.00,0.0064
2452.00,0.0064
2451.00,0.0064
2450.00,0.0064
2449.00,0.0064
2448.00,0.0064
2447.00,0.0064
2446.00,0.0064
2445.00,0.0063
2444.00,0.0063
2443.00,0.0063
2442.00,0.0062
2441.00,0.0062
2440.00,0.0062
2439.00,0.0062
2438.00,0.0062
2437.00,0.0062
2436.00,0.0061
2435.00,0.0061
2434.00,0.0061
2433.00,0.0061
2432.00,0.0061
2431.00,0.0061
2430.00,0.0061
2429.00,0.0061
2428.00,0.0061
2427.00,0.0061
2426.00,0.0060
2425.00,0.0060
2424.00,0.0060
2423.00,0.0060
2422.00,0.0060
2421.00,0.0060
2420.00,0.0060
2419.00,0.0060
2418.00,0.0060
2417.00,0.0061
2416.00,0.0061
2415.00,0.0061
2414.00,0.0061
2413.00,0.0061
2412.00,0.0061
2411.00,0.0061
2410.00,0.0060
2409.00,0.0060
2408.00,0.0059
2407.00,0.0059
2406.00,0.0059
2405.00,0.0059
2404.00,0.0059
2403.00,0.0059
2402.00,0.0059
2401.00,0.0059
2400.00,0.0059
2399.00,0.0059
2398.00,0.0058
2397.00,0.0059
2396.00,0.0059
2395.00,0.0059
2394.00,0.0059
2393.00,0.0059
2392.00,0.0059
2391.00,0.0058
2390.00,0.0058
2389.00,0.0058
2388.00,0.0058
2387.00,0.0058
2386.00,0.0058
2385.00,0.0058
2384.00,0.0058
2383.00,0.0057
2382.00,0.0057
2381.00,0.0057
2380.00,0.0058
2379.00,0.0058
2378.00,0.0058
2377.00,0.0058
2376.00,0.0058
2375.00,0.0058
2374.00,0.0058
2373.00,0.0058
2372.00,0.0058
2371.00,0.0057
2370.00,0.0057
2369.00,0.0057
2368.00,0.0057
2367.00,0.0057
2366.00,0.0057
2365.00,0.0058
2364.00,0.0058
2363.00,0.0059
2362.00,0.0060
2361.00,0.0060
2360.00,0.0060
2359.00,0.0059
2358.00,0.0059
2357.00,0.0059
2356.00,0.0059
2355.00,0.0059
2354.00,0.0058
2353.00,0.0058
2352.00,0.0059
2351.00,0.0060
2350.00,0.0060
2349.00,0.0060
2348.00,0.0061
2347.00,0.0061
2346.00,0.0061
2345.00,0.0061
2344.00,0.0061
2343.00,0.0061
2342.00,0.0061
2341.00,0.0062
2340.00,0.0062
2339.00,0.0063
2338.00,0.0063
2337.00,0.0063
2336.00,0.0063
2335.00,0.0062
2334.00,0.0062
2333.00,0.0062
2332.00,0.0062
2331.00,0.0062
2330.00,0.0063
2329.00,0.0065
2328.00,0.0068
2327.00,0.0071
2326.00,0.0073
2325.00,0.0074
2324.00,0.0073
2323.00,0.0072
2322.00,0.0070
2321.00,0.0069
2320.00,0.0069
2319.00,0.0068
2318.00,0.0067
2317.00,0.0067
2316.00,0.0066
2315.00,0.0065
2314.00,0.0064
2313.00,0.0064
2312.00,0.0064
2311.00,0.0064
2310.00,0.0064
2309.00,0.0063
2308.00,0.0063
2307.00,0.0063
2306.00,0.0064
2305.00,0.0064
2304.00,0.0064
2303.00,0.0064
2302.00,0.0064
2301.00,0.0064
2300.00,0.0065
2299.00,0.0065
2298.00,0.0065
2297.00,0.0066
2296.00,0.0066
2295.00,0.0067
2294.00,0.0067
2293.00,0.0068
2292.00,0.0068
2291.00,0.0068
2290.00,0.0068
2289.00,0.0068
2288.00,0.0069
2287.00,0.0069
2286.00,0.0069
2285.00,0.0068
2284.00,0.0068
2283.00,0.0067
2282.00,0.0066
2281.00,0.0066
2280.00,0.0065
2279.00,0.0065
2278.00,0.0065
2277.00,0.0064
2276.00,0.0064
2275.00,0.0064
2274.00,0.0063
2273.00,0.0063
2272.00,0.0063
2271.00,0.0063
2270.00,0.0062
2269.00,0.0062
2268.00,0.0062
2267.00,0.0061
2266.00,0.0061
2265.00,0.0061
2264.00,0.0062
2263.00,0.0063
2262.00,0.0063
2261.00,0.0063
2260.00,0.0063
2259.00,0.0063
2258.00,0.0062
2257.00,0.0061
2256.00,0.0061
2255.00,0.0060
2254.00,0.0060
2253.00,0.0059
2252.00,0.0059
2251.00,0.0059
2250.00,0.0058
2249.00,0.0058
2248.00,0.0058
2247.00,0.0058
2246.00,0.0058
2245.00,0.0059
2244.00,0.0060
2243.00,0.0060
2242.00,0.0060
2241.00,0.0060
2240.00,0.0059
2239.00,0.0059
2238.00,0.0059
2237.00,0.0059
2236.00,0.0059
2235.00,0.0059
2234.00,0.0059
2233.00,0.0059
2232.00,0.0059
2231.00,0.0059
2230.00,0.0059
2229.00,0.0059
2228.00,0.0059
2227.00,0.0059
2226.00,0.0059
2225.00,0.0059
2224.00,0.0059
2223.00,0.0059
2222.00,0.0058
2221.00,0.0058
2220.00,0.0058
2219.00,0.0059
2218.00,0.0059
2217.00,0.0059
2216.00,0.0060
2215.00,0.0060
2214.00,0.0059
2213.00,0.0058
2212.00,0.0058
2211.00,0.0058
2210.00,0.0058
2209.00,0.0059
2208.00,0.0060
2207.00,0.0060
2206.00,0.0060
2205.00,0.0060
2204.00,0.0060
2203.00,0.0061
2202.00,0.0061
2201.00,0.0061
2200.00,0.0061
2199.00,0.0061
2198.00,0.0061
2197.00,0.0062
2196.00,0.0063
2195.00,0.0063
2194.00,0.0063
2193.00,0.0063
2192.00,0.0063
2191.00,0.0063
2190.00,0.0063
2189.00,0.0063
2188.00,0.0065
2187.00,0.0066
2186.00,0.0066
2185.00,0.0065
2184.00,0.0062
2183.00,0.0058
2182.00,0.0055
2181.00,0.0054
2180.00,0.0055
2179.00,0.0055
2178.00,0.0054
2177.00,0.0054
2176.00,0.0054
2175.00,0.0054
2174.00,0.0055
2173.00,0.0057
2172.00,0.0059
2171.00,0.0061
2170.00,0.0064
2169.00,0.0066
2168.00,0.0068
2167.00,0.0068
2166.00,0.0069
2165.00,0.0070
2164.00,0.0072
2163.00,0.0072
2162.00,0.0067
2161.00,0.0057
2160.00,0.0044
2159.00,0.0033
2158.00,0.0027
2157.00,0.0028
2156.00,0.0030
2155.00,0.0032
2154.00,0.0034
2153.00,0.0036
2152.00,0.0039
2151.00,0.0041
2150.00,0.0042
2149.00,0.0042
2148.00,0.0041
2147.00,0.0040
2146.00,0.0040
2145.00,0.0041
2144.00,0.0042
2143.00,0.0042
2142.00,0.0043
2141.00,0.0043
2140.00,0.0043
2139.00,0.0042
2138.00,0.0041
2137.00,0.0039
2136.00,0.0036
2135.00,0.0035
2134.00,0.0034
2133.00,0.0036
2132.00,0.0038
2131.00,0.0040
2130.00,0.0041
2129.00,0.0042
2128.00,0.0043
2127.00,0.0044
2126.00,0.0044
2125.00,0.0045
2124.00,0.0047
2123.00,0.0048
2122.00,0.0049
2121.00,0.0050
2120.00,0.0051
2119.00,0.0052
2118.00,0.0053
2117.00,0.0054
2116.00,0.0055
2115.00,0.0055
2114.00,0.0055
2113.00,0.0055
2112.00,0.0054
2111.00,0.0054
2110.00,0.0054
2109.00,0.0054
2108.00,0.0054
2107.00,0.0054
2106.00,0.0054
2105.00,0.0054
2104.00,0.0054
2103.00,0.0055
2102.00,0.0054
2101.00,0.0054
2100.00,0.0054
2099.00,0.0054
2098.00,0.0052
2097.00,0.0051
2096.00,0.0050
2095.00,0.0049
2094.00,0.0049
2093.00,0.0050
2092.00,0.0051
2091.00,0.0051
2090.00,0.0052
2089.00,0.0052
2088.00,0.0053
2087.00,0.0054
2086.00,0.0054
2085.00,0.0055
2084.00,0.0055
2083.00,0.0056
2082.00,0.0056
2081.00,0.0055
2080.00,0.0055
2079.00,0.0055
2078.00,0.0054
2077.00,0.0054
2076.00,0.0054
2075.00,0.0054
2074.00,0.0054
2073.00,0.0054
2072.00,0.0054
2071.00,0.0054
2070.00,0.0053
2069.00,0.0052
2068.00,0.0052
2067.00,0.0051
2066.00,0.0050
2065.00,0.0050
2064.00,0.0050
2063.00,0.0051
2062.00,0.0051
2061.00,0.0051
2060.00,0.0052
2059.00,0.0053
2058.00,0.0053
2057.00,0.0052
2056.00,0.0052
2055.00,0.0052
2054.00,0.0053
2053.00,0.0056
2052.00,0.0060
2051.00,0.0061
2050.00,0.0058
2049.00,0.0055
2048.00,0.0053
2047.00,0.0051
2046.00,0.0050
2045.00,0.0049
2044.00,0.0050
2043.00,0.0050
2042.00,0.0051
2041.00,0.0052
2040.00,0.0053
2039.00,0.0053
2038.00,0.0052
2037.00,0.0051
2036.00,0.0051
2035.00,0.0050
2034.00,0.0048
2033.00,0.0046
2032.00,0.0045
2031.00,0.0044
2030.00,0.0043
2029.00,0.0044
2028.00,0.0046
2027.00,0.0047
2026.00,0.0047
2025.00,0.0046
2024.00,0.0046
2023.00,0.0046
2022.00,0.0046
2021.00,0.0046
2020.00,0.0046
2019.00,0.0046
2018.00,0.0045
2017.00,0.0045
2016.00,0.0046
2015.00,0.0047
2014.00,0.0048
2013.00,0.0048
2012.00,0.0048
2011.00,0.0047
2010.00,0.0046
2009.00,0.0044
2008.00,0.0041
2007.00,0.0039
2006.00,0.0037
2005.00,0.0038
2004.00,0.0041
2003.00,0.0043
2002.00,0.0044
2001.00,0.0045
2000.00,0.0046
1999.00,0.0047
1998.00,0.0047
1997.00,0.0047
1996.00,0.0049
1995.00,0.0050
1994.00,0.0050
1993.00,0.0050
1992.00,0.0051
1991.00,0.0051
1990.00,0.0050
1989.00,0.0051
1988.00,0.0052
1987.00,0.0053
1986.00,0.0053
1985.00,0.0054
1984.00,0.0055
1983.00,0.0058
1982.00,0.0061
1981.00,0.0063
1980.00,0.0063
1979.00,0.0058
1978.00,0.0052
1977.00,0.0046
1976.00,0.0043
1975.00,0.0040
1974.00,0.0038
1973.00,0.0039
1972.00,0.0041
1971.00,0.0042
1970.00,0.0041
1969.00,0.0040
1968.00,0.0040
1967.00,0.0041
1966.00,0.0040
1965.00,0.0041
1964.00,0.0042
1963.00,0.0042
1962.00,0.0041
1961.00,0.0040
1960.00,0.0040
1959.00,0.0039
1958.00,0.0038
1957.00,0.0039
1956.00,0.0040
1955.00,0.0042
1954.00,0.0042
1953.00,0.0043
1952.00,0.0044
1951.00,0.0043
1950.00,0.0041
1949.00,0.0040
1948.00,0.0041
1947.00,0.0042
1946.00,0.0043
1945.00,0.0044
1944.00,0.0044
1943.00,0.0044
1942.00,0.0044
1941.00,0.0044
1940.00,0.0044
1939.00,0.0044
1938.00,0.0043
1937.00,0.0042
1936.00,0.0042
1935.00,0.0043
1934.00,0.0043
1933.00,0.0043
1932.00,0.0044
1931.00,0.0045
1930.00,0.0045
1929.00,0.0044
1928.00,0.0044
1927.00,0.0044
1926.00,0.0045
1925.00,0.0045
1924.00,0.0046
1923.00,0.0046
1922.00,0.0046
1921.00,0.0046
1920.00,0.0046
1919.00,0.0047
1918.00,0.0046
1917.00,0.0046
1916.00,0.0046
1915.00,0.0046
1914.00,0.0046
1913.00,0.0046
1912.00,0.0046
1911.00,0.0047
1910.00,0.0047
1909.00,0.0047
1908.00,0.0047
1907.00,0.0047
1906.00,0.0047
1905.00,0.0047
1904.00,0.0048
1903.00,0.0048
1902.00,0.0047
1901.00,0.0046
1900.00,0.0046
1899.00,0.0046
1898.00,0.0046
1897.00,0.0047
1896.00,0.0047
1895.00,0.0047
1894.00,0.0046
1893.00,0.0046
1892.00,0.0046
1891.00,0.0046
1890.00,0.0046
1889.00,0.0046
1888.00,0.0047
1887.00,0.0047
1886.00,0.0046
1885.00,0.0046
1884.00,0.0046
1883.00,0.0046
1882.00,0.0046
1881.00,0.0047
1880.00,0.0048
1879.00,0.0048
1878.00,0.0048
1877.00,0.0047
1876.00,0.0048
1875.00,0.0048
1874.00,0.0047
1873.00,0.0047
1872.00,0.0048
1871.00,0.0048
1870.00,0.0048
1869.00,0.0048
1868.00,0.0048
1867.00,0.0047
1866.00,0.0047
1865.00,0.0047
1864.00,0.0047
1863.00,0.0048
1862.00,0.0047
1861.00,0.0047
1860.00,0.0047
1859.00,0.0047
1858.00,0.0047
1857.00,0.0047
1856.00,0.0047
1855.00,0.0047
1854.00,0.0047
1853.00,0.0047
1852.00,0.0047
1851.00,0.0048
1850.00,0.0048
1849.00,0.0048
1848.00,0.0047
1847.00,0.0047
1846.00,0.0046
1845.00,0.0046
1844.00,0.0047
1843.00,0.0047
1842.00,0.0047
1841.00,0.0047
1840.00,0.0048
1839.00,0.0049
1838.00,0.0049
1837.00,0.0049
1836.00,0.0049
1835.00,0.0048
1834.00,0.0048
1833.00,0.0047
1832.00,0.0047
1831.00,0.0047
1830.00,0.0047
1829.00,0.0047
1828.00,0.0047
1827.00,0.0048
1826.00,0.0048
1825.00,0.0048
1824.00,0.0049
1823.00,0.0049
1822.00,0.0048
1821.00,0.0048
1820.00,0.0047
1819.00,0.0047
1818.00,0.0046
1817.00,0.0045
1816.00,0.0045
1815.00,0.0046
1814.00,0.0047
1813.00,0.0047
1812.00,0.0048
1811.00,0.0048
1810.00,0.0048
1809.00,0.0048
1808.00,0.0049
1807.00,0.0049
1806.00,0.0049
1805.00,0.0049
1804.00,0.0049
1803.00,0.0049
1802.00,0.0049
1801.00,0.0049
1800.00,0.0049
1799.00,0.0050
1798.00,0.0050
1797.00,0.0050
1796.00,0.0049
1795.00,0.0049
1794.00,0.0049
1793.00,0.0049
1792.00,0.0049
1791.00,0.0050
1790.00,0.0049
1789.00,0.0049
1788.00,0.0050
1787.00,0.0050
1786.00,0.0051
1785.00,0.0051
1784.00,0.0051
1783.00,0.0052
1782.00,0.0052
1781.00,0.0052
1780.00,0.0052
1779.00,0.0052
1778.00,0.0052
1777.00,0.0052
1776.00,0.0053
1775.00,0.0053
1774.00,0.0053
1773.00,0.0053
1772.00,0.0053
1771.00,0.0053
1770.00,0.0053
1769.00,0.0054
1768.00,0.0055
1767.00,0.0055
1766.00,0.0055
1765.00,0.0055
1764.00,0.0055
1763.00,0.0056
1762.00,0.0056
1761.00,0.0057
1760.00,0.0057
1759.00,0.0058
1758.00,0.0058
1757.00,0.0058
1756.00,0.0058
1755.00,0.0059
1754.00,0.0059
1753.00,0.0059
1752.00,0.0060
1751.00,0.0061
1750.00,0.0061
1749.00,0.0062
1748.00,0.0063
1747.00,0.0063
1746.00,0.0064
1745.00,0.0064
1744.00,0.0065
1743.00,0.0065
1742.00,0.0065
1741.00,0.0065
1740.00,0.0066
1739.00,0.0067
1738.00,0.0068
1737.00,0.0068
1736.00,0.0070
1735.00,0.0072
1734.00,0.0074
1733.00,0.0075
1732.00,0.0077
1731.00,0.0079
1730.00,0.0080
1729.00,0.0082
1728.00,0.0084
1727.00,0.0087
1726.00,0.0089
1725.00,0.0091
1724.00,0.0094
1723.00,0.0097
1722.00,0.0099
1721.00,0.0101
1720.00,0.0105
1719.00,0.0110
1718.00,0.0114
1717.00,0.0118
1716.00,0.0124
1715.00,0.0130
1714.00,0.0137
1713.00,0.0145
1712.00,0.0154
1711.00,0.0164
1710.00,0.0174
1709.00,0.0184
1708.00,0.0198
1707.00,0.0213
1706.00,0.0231
1705.00,0.0250
1704.00,0.0270
1703.00,0.0289
1702.00,0.0312
1701.00,0.0346
1700.00,0.0389
1699.00,0.0430
1698.00,0.0467
1697.00,0.0507
1696.00,0.0557
1695.00,0.0612
1694.00,0.0663
1693.00,0.0711
1692.00,0.0759
1691.00,0.0810
1690.00,0.0862
1689.00,0.0914
1688.00,0.0962
1687.00,0.1007
1686.00,0.1050
1685.00,0.1097
1684.00,0.1145
1683.00,0.1187
1682.00,0.1221
1681.00,0.1250
1680.00,0.1278
1679.00,0.1302
1678.00,0.1322
1677.00,0.1340
1676.00,0.1357
1675.00,0.1371
1674.00,0.1384
1673.00,0.1398
1672.00,0.1412
1671.00,0.1425
1670.00,0.1438
1669.00,0.1453
1668.00,0.1470
1667.00,0.1488
1666.00,0.1508
1665.00,0.1528
1664.00,0.1549
1663.00,0.1570
1662.00,0.1589
1661.00,0.1607
1660.00,0.1625
1659.00,0.1640
1658.00,0.1652
1657.00,0.1663
1656.00,0.1671
1655.00,0.1674
1654.00,0.1665
1653.00,0.1641
1652.00,0.1617
1651.00,0.1600
1650.00,0.1585
1649.00,0.1564
1648.00,0.1530
1647.00,0.1482
1646.00,0.1427
1645.00,0.1374
1644.00,0.1327
1643.00,0.1280
1642.00,0.1229
1641.00,0.1175
1640.00,0.1121
1639.00,0.1068
1638.00,0.1017
1637.00,0.0962
1636.00,0.0902
1635.00,0.0846
1634.00,0.0801
1633.00,0.0766
1632.00,0.0737
1631.00,0.0711
1630.00,0.0687
1629.00,0.0666
1628.00,0.0647
1627.00,0.0632
1626.00,0.0620
1625.00,0.0610
1624.00,0.0600
1623.00,0.0592
1622.00,0.0585
1621.00,0.0579
1620.00,0.0573
1619.00,0.0567
1618.00,0.0559
1617.00,0.0547
1616.00,0.0532
1615.00,0.0517
1614.00,0.0501
1613.00,0.0484
1612.00,0.0465
1611.00,0.0445
1610.00,0.0426
1609.00,0.0407
1608.00,0.0390
1607.00,0.0376
1606.00,0.0365
1605.00,0.0357
1604.00,0.0351
1603.00,0.0349
1602.00,0.0349
1601.00,0.0353
1600.00,0.0360
1599.00,0.0369
1598.00,0.0380
1597.00,0.0391
1596.00,0.0402
1595.00,0.0411
1594.00,0.0418
1593.00,0.0423
1592.00,0.0424
1591.00,0.0424
1590.00,0.0421
1589.00,0.0417
1588.00,0.0411
1587.00,0.0404
1586.00,0.0396
1585.00,0.0387
1584.00,0.0377
1583.00,0.0365
1582.00,0.0353
1581.00,0.0340
1580.00,0.0328
1579.00,0.0316
1578.00,0.0304
1577.00,0.0291
1576.00,0.0277
1575.00,0.0264
1574.00,0.0254
1573.00,0.0246
1572.00,0.0239
1571.00,0.0232
1570.00,0.0225
1569.00,0.0218
1568.00,0.0212
1567.00,0.0207
1566.00,0.0203
1565.00,0.0199
1564.00,0.0195
1563.00,0.0191
1562.00,0.0186
1561.00,0.0182
1560.00,0.0179
1559.00,0.0175
1558.00,0.0172
1557.00,0.0171
1556.00,0.0170
1555.00,0.0170
1554.00,0.0169
1553.00,0.0168
1552.00,0.0167
1551.00,0.0166
1550.00,0.0165
1549.00,0.0164
1548.00,0.0163
1547.00,0.0163
1546.00,0.0162
1545.00,0.0161
1544.00,0.0160
1543.00,0.0159
1542.00,0.0159
1541.00,0.0160
1540.00,0.0159
1539.00,0.0159
1538.00,0.0159
1537.00,0.0159
1536.00,0.0159
1535.00,0.0159
1534.00,0.0159
1533.00,0.0159
1532.00,0.0159
1531.00,0.0159
1530.00,0.0159
1529.00,0.0160
1528.00,0.0160
1527.00,0.0160
1526.00,0.0160
1525.00,0.0160
1524.00,0.0161
1523.00,0.0161
1522.00,0.0162
1521.00,0.0162
1520.00,0.0163
1519.00,0.0164
1518.00,0.0165
1517.00,0.0166
1516.00,0.0166
1515.00,0.0166
1514.00,0.0167
1513.00,0.0168
1512.00,0.0169
1511.00,0.0171
1510.00,0.0173
1509.00,0.0176
1508.00,0.0180
1507.00,0.0185
1506.00,0.0193
1505.00,0.0203
1504.00,0.0214
1503.00,0.0225
1502.00,0.0238
1501.00,0.0253
1500.00,0.0269
1499.00,0.0286
1498.00,0.0304
1497.00,0.0322
1496.00,0.0337
1495.00,0.0349
1494.00,0.0356
1493.00,0.0358
1492.00,0.0357
1491.00,0.0350
1490.00,0.0338
1489.00,0.0322
1488.00,0.0304
1487.00,0.0287
1486.00,0.0271
1485.00,0.0257
1484.00,0.0244
1483.00,0.0234
1482.00,0.0225
1481.00,0.0219
1480.00,0.0216
1479.00,0.0215
1478.00,0.0216
1477.00,0.0220
1476.00,0.0227
1475.00,0.0236
1474.00,0.0249
1473.00,0.0269
1472.00,0.0295
1471.00,0.0324
1470.00,0.0355
1469.00,0.0389
1468.00,0.0426
1467.00,0.0466
1466.00,0.0510
1465.00,0.0557
1464.00,0.0601
1463.00,0.0637
1462.00,0.0663
1461.00,0.0679
1460.00,0.0686
1459.00,0.0683
1458.00,0.0668
1457.00,0.0644
1456.00,0.0618
1455.00,0.0597
1454.00,0.0583
1453.00,0.0574
1452.00,0.0569
1451.00,0.0570
1450.00,0.0576
1449.00,0.0589
1448.00,0.0609
1447.00,0.0632
1446.00,0.0659
1445.00,0.0688
1444.00,0.0719
1443.00,0.0750
1442.00,0.0782
1441.00,0.0812
1440.00,0.0840
1439.00,0.0865
1438.00,0.0890
1437.00,0.0916
1436.00,0.0943
1435.00,0.0968
1434.00,0.0992
1433.00,0.1017
1432.00,0.1045
1431.00,0.1073
1430.00,0.1102
1429.00,0.1131
1428.00,0.1157
1427.00,0.1181
1426.00,0.1202
1425.00,0.1222
1424.00,0.1238
1423.00,0.1248
1422.00,0.1249
1421.00,0.1239
1420.00,0.1210
1419.00,0.1160
1418.00,0.1098
1417.00,0.1032
1416.00,0.0966
1415.00,0.0897
1414.00,0.0830
1413.00,0.0768
1412.00,0.0711
1411.00,0.0659
1410.00,0.0616
1409.00,0.0580
1408.00,0.0549
1407.00,0.0523
1406.00,0.0501
1405.00,0.0483
1404.00,0.0467
1403.00,0.0454
1402.00,0.0445
1401.00,0.0437
1400.00,0.0430
1399.00,0.0424
1398.00,0.0420
1397.00,0.0416
1396.00,0.0413
1395.00,0.0411
1394.00,0.0410
1393.00,0.0411
1392.00,0.0412
1391.00,0.0414
1390.00,0.0417
1389.00,0.0421
1388.00,0.0426
1387.00,0.0432
1386.00,0.0440
1385.00,0.0449
1384.00,0.0459
1383.00,0.0472
1382.00,0.0486
1381.00,0.0503
1380.00,0.0519
1379.00,0.0536
1378.00,0.0553
1377.00,0.0567
1376.00,0.0578
1375.00,0.0583
1374.00,0.0584
1373.00,0.0580
1372.00,0.0573
1371.00,0.0564
1370.00,0.0554
1369.00,0.0542
1368.00,0.0530
1367.00,0.0517
1366.00,0.0503
1365.00,0.0490
1364.00,0.0475
1363.00,0.0459
1362.00,0.0444
1361.00,0.0430
1360.00,0.0418
1359.00,0.0408
1358.00,0.0399
1357.00,0.0392
1356.00,0.0384
1355.00,0.0378
1354.00,0.0372
1353.00,0.0366
1352.00,0.0360
1351.00,0.0355
1350.00,0.0350
1349.00,0.0345
1348.00,0.0341
1347.00,0.0338
1346.00,0.0335
1345.00,0.0332
1344.00,0.0329
1343.00,0.0327
1342.00,0.0326
1341.00,0.0325
1340.00,0.0324
1339.00,0.0324
1338.00,0.0324
1337.00,0.0324
1336.00,0.0326
1335.00,0.0328
1334.00,0.0331
1333.00,0.0334
1332.00,0.0338
1331.00,0.0342
1330.00,0.0349
1329.00,0.0356
1328.00,0.0365
1327.00,0.0376
1326.00,0.0389
1325.00,0.0403
1324.00,0.0418
1323.00,0.0434
1322.00,0.0449
1321.00,0.0464
1320.00,0.0476
1319.00,0.0486
1318.00,0.0494
1317.00,0.0497
1316.00,0.0497
1315.00,0.0494
1314.00,0.0488
1313.00,0.0481
1312.00,0.0471
1311.00,0.0462
1310.00,0.0454
1309.00,0.0447
1308.00,0.0442
1307.00,0.0439
1306.00,0.0439
1305.00,0.0442
1304.00,0.0448
1303.00,0.0458
1302.00,0.0473
1301.00,0.0495
1300.00,0.0523
1299.00,0.0559
1298.00,0.0603
1297.00,0.0655
1296.00,0.0714
1295.00,0.0779
1294.00,0.0847
1293.00,0.0915
1292.00,0.0981
1291.00,0.1042
1290.00,0.1096
1289.00,0.1141
1288.00,0.1177
1287.00,0.1201
1286.00,0.1213
1285.00,0.1213
1284.00,0.1201
1283.00,0.1180
1282.00,0.1153
1281.00,0.1125
1280.00,0.1098
1279.00,0.1076
1278.00,0.1062
1277.00,0.1055
1276.00,0.1056
1275.00,0.1062
1274.00,0.1070
1273.00,0.1078
1272.00,0.1083
1271.00,0.1082
1270.00,0.1074
1269.00,0.1059
1268.00,0.1037
1267.00,0.1008
1266.00,0.0976
1265.00,0.0941
1264.00,0.0906
1263.00,0.0873
1262.00,0.0842
1261.00,0.0815
1260.00,0.0793
1259.00,0.0776
1258.00,0.0764
1257.00,0.0756
1256.00,0.0751
1255.00,0.0748
1254.00,0.0746
1253.00,0.0745
1252.00,0.0743
1251.00,0.0739
1250.00,0.0735
1249.00,0.0729
1248.00,0.0722
1247.00,0.0714
1246.00,0.0705
1245.00,0.0694
1244.00,0.0683
1243.00,0.0672
1242.00,0.0660
1241.00,0.0649
1240.00,0.0638
1239.00,0.0629
1238.00,0.0622
1237.00,0.0617
1236.00,0.0613
1235.00,0.0611
1234.00,0.0610
1233.00,0.0609
1232.00,0.0609
1231.00,0.0609
1230.00,0.0609
1229.00,0.0608
1228.00,0.0608
1227.00,0.0606
1226.00,0.0605
1225.00,0.0602
1224.00,0.0599
1223.00,0.0595
1222.00,0.0589
1221.00,0.0583
1220.00,0.0577
1219.00,0.0569
1218.00,0.0561
1217.00,0.0553
1216.00,0.0544
1215.00,0.0534
1214.00,0.0524
1213.00,0.0514
1212.00,0.0503
1211.00,0.0493
1210.00,0.0483
1209.00,0.0474
1208.00,0.0466
1207.00,0.0459
1206.00,0.0454
1205.00,0.0449
1204.00,0.0445
1203.00,0.0441
1202.00,0.0436
1201.00,0.0431
1200.00,0.0424
1199.00,0.0418
1198.00,0.0411
1197.00,0.0405
1196.00,0.0400
1195.00,0.0396
1194.00,0.0393
1193.00,0.0390
1192.00,0.0389
1191.00,0.0388
1190.00,0.0387
1189.00,0.0386
1188.00,0.0385
1187.00,0.0383
1186.00,0.0381
1185.00,0.0379
1184.00,0.0376
1183.00,0.0374
1182.00,0.0372
1181.00,0.0372
1180.00,0.0373
1179.00,0.0376
1178.00,0.0381
1177.00,0.0389
1176.00,0.0398
1175.00,0.0407
1174.00,0.0417
1173.00,0.0425
1172.00,0.0432
1171.00,0.0435
1170.00,0.0436
1169.00,0.0433
1168.00,0.0428
1167.00,0.0421
1166.00,0.0412
1165.00,0.0403
1164.00,0.0394
1163.00,0.0385
1162.00,0.0378
1161.00,0.0372
1160.00,0.0369
1159.00,0.0369
1158.00,0.0373
1157.00,0.0381
1156.00,0.0390
1155.00,0.0399
1154.00,0.0405
1153.00,0.0408
1152.00,0.0405
1151.00,0.0397
1150.00,0.0385
1149.00,0.0370
1148.00,0.0354
1147.00,0.0337
1146.00,0.0320
1145.00,0.0305
1144.00,0.0292
1143.00,0.0281
1142.00,0.0273
1141.00,0.0267
1140.00,0.0262
1139.00,0.0258
1138.00,0.0256
1137.00,0.0254
1136.00,0.0252
1135.00,0.0250
1134.00,0.0248
1133.00,0.0246
1132.00,0.0244
1131.00,0.0243
1130.00,0.0242
1129.00,0.0241
1128.00,0.0240
1127.00,0.0239
1126.00,0.0239
1125.00,0.0239
1124.00,0.0239
1123.00,0.0240
1122.00,0.0241
1121.00,0.0242
1120.00,0.0244
1119.00,0.0245
1118.00,0.0247
1117.00,0.0249
1116.00,0.0250
1115.00,0.0252
1114.00,0.0255
1113.00,0.0257
1112.00,0.0259
1111.00,0.0260
1110.00,0.0262
1109.00,0.0262
1108.00,0.0263
1107.00,0.0263
1106.00,0.0264
1105.00,0.0265
1104.00,0.0266
1103.00,0.0268
1102.00,0.0269
1101.00,0.0271
1100.00,0.0273
1099.00,0.0275
1098.00,0.0277
1097.00,0.0278
1096.00,0.0279
1095.00,0.0278
1094.00,0.0276
1093.00,0.0274
1092.00,0.0271
1091.00,0.0267
1090.00,0.0265
1089.00,0.0262
1088.00,0.0261
1087.00,0.0260
1086.00,0.0261
1085.00,0.0262
1084.00,0.0265
1083.00,0.0268
1082.00,0.0272
1081.00,0.0276
1080.00,0.0281
1079.00,0.0286
1078.00,0.0291
1077.00,0.0294
1076.00,0.0296
1075.00,0.0297
1074.00,0.0296
1073.00,0.0294
1072.00,0.0292
1071.00,0.0289
1070.00,0.0286
1069.00,0.0283
1068.00,0.0281
1067.00,0.0280
1066.00,0.0281
1065.00,0.0284
1064.00,0.0288
1063.00,0.0297
1062.00,0.0309
1061.00,0.0326
1060.00,0.0348
1059.00,0.0374
1058.00,0.0401
1057.00,0.0424
1056.00,0.0440
1055.00,0.0447
1054.00,0.0442
1053.00,0.0429
1052.00,0.0412
1051.00,0.0393
1050.00,0.0376
1049.00,0.0364
1048.00,0.0358
1047.00,0.0358
1046.00,0.0363
1045.00,0.0372
1044.00,0.0385
1043.00,0.0400
1042.00,0.0419
1041.00,0.0439
1040.00,0.0462
1039.00,0.0487
1038.00,0.0515
1037.00,0.0546
1036.00,0.0577
1035.00,0.0608
1034.00,0.0637
1033.00,0.0660
1032.00,0.0678
1031.00,0.0687
1030.00,0.0687
1029.00,0.0679
1028.00,0.0662
1027.00,0.0640
1026.00,0.0615
1025.00,0.0589
1024.00,0.0565
1023.00,0.0544
1022.00,0.0527
1021.00,0.0513
1020.00,0.0502
1019.00,0.0491
1018.00,0.0480
1017.00,0.0468
1016.00,0.0454
1015.00,0.0437
1014.00,0.0419
1013.00,0.0401
1012.00,0.0384
1011.00,0.0368
1010.00,0.0355
1009.00,0.0346
1008.00,0.0339
1007.00,0.0335
1006.00,0.0334
1005.00,0.0335
1004.00,0.0336
1003.00,0.0337
1002.00,0.0336
1001.00,0.0335
1000.00,0.0331
999.00,0.0326
998.00,0.0320
997.00,0.0313
996.00,0.0306
995.00,0.0299
994.00,0.0293
993.00,0.0288
992.00,0.0285
991.00,0.0282
990.00,0.0280
989.00,0.0279
988.00,0.0277
987.00,0.0275
986.00,0.0271
985.00,0.0267
984.00,0.0263
983.00,0.0258
982.00,0.0253
981.00,0.0248
980.00,0.0243
979.00,0.0240
978.00,0.0237
977.00,0.0234
976.00,0.0232
975.00,0.0230
974.00,0.0228
973.00,0.0227
972.00,0.0226
971.00,0.0225
970.00,0.0224
969.00,0.0223
968.00,0.0223
967.00,0.0223
966.00,0.0222
965.00,0.0222
964.00,0.0221
963.00,0.0219
962.00,0.0218
961.00,0.0216
960.00,0.0213
959.00,0.0210
958.00,0.0207
957.00,0.0203
956.00,0.0199
955.00,0.0194
954.00,0.0190
953.00,0.0186
952.00,0.0182
951.00,0.0179
950.00,0.0176
949.00,0.0174
948.00,0.0172
947.00,0.0170
946.00,0.0169
945.00,0.0169
944.00,0.0169
943.00,0.0170
942.00,0.0171
941.00,0.0174
940.00,0.0177
939.00,0.0182
938.00,0.0188
937.00,0.0196
936.00,0.0204
935.00,0.0213
934.00,0.0220
933.00,0.0224
932.00,0.0226
931.00,0.0224
930.00,0.0220
929.00,0.0215
928.00,0.0210
927.00,0.0206
926.00,0.0202
925.00,0.0200
924.00,0.0197
923.00,0.0195
922.00,0.0193
921.00,0.0192
920.00,0.0192
919.00,0.0192
918.00,0.0193
917.00,0.0195
916.00,0.0196
915.00,0.0197
914.00,0.0199
913.00,0.0200
912.00,0.0201
911.00,0.0203
910.00,0.0205
909.00,0.0209
908.00,0.0213
907.00,0.0219
906.00,0.0226
905.00,0.0233
904.00,0.0242
903.00,0.0251
902.00,0.0259
901.00,0.0268
900.00,0.0276
899.00,0.0283
898.00,0.0289
897.00,0.0294
896.00,0.0299
895.00,0.0303
894.00,0.0306
893.00,0.0310
892.00,0.0313
891.00,0.0316
890.00,0.0319
889.00,0.0322
888.00,0.0324
887.00,0.0327
886.00,0.0329
885.00,0.0332
884.00,0.0333
883.00,0.0334
882.00,0.0334
881.00,0.0332
880.00,0.0329
879.00,0.0325
878.00,0.0320
877.00,0.0314
876.00,0.0308
875.00,0.0301
874.00,0.0294
873.00,0.0288
872.00,0.0283
871.00,0.0279
870.00,0.0277
869.00,0.0276
868.00,0.0275
867.00,0.0276
866.00,0.0277
865.00,0.0280
864.00,0.0283
863.00,0.0287
862.00,0.0293
861.00,0.0299
860.00,0.0306
859.00,0.0315
858.00,0.0326
857.00,0.0337
856.00,0.0348
855.00,0.0359
854.00,0.0370
853.00,0.0380
852.00,0.0389
851.00,0.0398
850.00,0.0406
849.00,0.0414
848.00,0.0420
847.00,0.0425
846.00,0.0429
845.00,0.0432
844.00,0.0433
843.00,0.0434
842.00,0.0434
841.00,0.0434
840.00,0.0433
839.00,0.0432
838.00,0.0431
837.00,0.0431
836.00,0.0430
835.00,0.0431
834.00,0.0431
833.00,0.0431
832.00,0.0431
831.00,0.0431
830.00,0.0429
829.00,0.0426
828.00,0.0421
827.00,0.0414
826.00,0.0405
825.00,0.0395
824.00,0.0384
823.00,0.0372
822.00,0.0361
821.00,0.0349
820.00,0.0338
819.00,0.0328
818.00,0.0319
817.00,0.0311
816.00,0.0304
815.00,0.0298
814.00,0.0293
813.00,0.0289
812.00,0.0287
811.00,0.0285
810.00,0.0285
809.00,0.0285
808.00,0.0285
807.00,0.0287
806.00,0.0288
805.00,0.0290
804.00,0.0289
803.00,0.0287
802.00,0.0283
801.00,0.0278
800.00,0.0274
799.00,0.0271
798.00,0.0270
797.00,0.0271
796.00,0.0273
795.00,0.0276
794.00,0.0278
793.00,0.0279
792.00,0.0279
791.00,0.0279
790.00,0.0278
789.00,0.0276
788.00,0.0273
787.00,0.0271
786.00,0.0269
785.00,0.0267
784.00,0.0266
783.00,0.0266
782.00,0.0267
781.00,0.0268
780.00,0.0270
779.00,0.0273
778.00,0.0276
777.00,0.0280
776.00,0.0284
775.00,0.0289
774.00,0.0293
773.00,0.0296
772.00,0.0298
771.00,0.0299
770.00,0.0301
769.00,0.0302
768.00,0.0303
767.00,0.0305
766.00,0.0307
765.00,0.0311
764.00,0.0315
763.00,0.0321
762.00,0.0327
761.00,0.0334
760.00,0.0341
759.00,0.0348
758.00,0.0354
757.00,0.0359
756.00,0.0363
755.00,0.0365
754.00,0.0366
753.00,0.0366
752.00,0.0366
751.00,0.0366
750.00,0.0366
749.00,0.0368
748.00,0.0371
747.00,0.0374
746.00,0.0378
745.00,0.0383
744.00,0.0388
743.00,0.0394
742.00,0.0401
741.00,0.0407
740.00,0.0415
739.00,0.0422
738.00,0.0428
737.00,0.0434
736.00,0.0439
735.00,0.0443
734.00,0.0445
733.00,0.0447
732.00,0.0446
731.00,0.0443
730.00,0.0438
729.00,0.0431
728.00,0.0424
727.00,0.0415
726.00,0.0406
725.00,0.0398
724.00,0.0390
723.00,0.0383
722.00,0.0377
721.00,0.0371
720.00,0.0366
719.00,0.0361
718.00,0.0357
717.00,0.0354
716.00,0.0352
715.00,0.0350
714.00,0.0348
713.00,0.0347
712.00,0.0346
711.00,0.0345
710.00,0.0345
709.00,0.0345
708.00,0.0345
707.00,0.0346
706.00,0.0346
705.00,0.0347
704.00,0.0348
703.00,0.0349
702.00,0.0350
701.00,0.0352
700.00,0.0355
699.00,0.0357
698.00,0.0360
697.00,0.0362
696.00,0.0364
695.00,0.0367
694.00,0.0370
693.00,0.0373
692.00,0.0377
691.00,0.0381
690.00,0.0385
689.00,0.0390
688.00,0.0395
687.00,0.0400
686.00,0.0405
685.00,0.0411
684.00,0.0417
683.00,0.0423
682.00,0.0428
681.00,0.0434
680.00,0.0440
679.00,0.0445
678.00,0.0449
677.00,0.0453
676.00,0.0457
675.00,0.0461
674.00,0.0465
673.00,0.0471
672.00,0.0476
671.00,0.0482
670.00,0.0487
669.00,0.0493
668.00,0.0501
667.00,0.0508
666.00,0.0515
665.00,0.0521
664.00,0.0528
663.00,0.0536
662.00,0.0545
661.00,0.0555
660.00,0.0565
659.00,0.0576
658.00,0.0588
657.00,0.0600
656.00,0.0612
655.00,0.0625
654.00,0.0636
653.00,0.0648
652.00,0.0658
651.00,0.0666
650.00,0.0672
649.00,0.0676
648.00,0.0677
647.00,0.0677
646.00,0.0674
645.00,0.0668
644.00,0.0660
643.00,0.0650
642.00,0.0639
641.00,0.0626
640.00,0.0614
639.00,0.0601
638.00,0.0588
637.00,0.0576
636.00,0.0564
635.00,0.0553
634.00,0.0544
633.00,0.0535
632.00,0.0526
631.00,0.0518
630.00,0.0510
629.00,0.0502
628.00,0.0495
627.00,0.0488
626.00,0.0482
625.00,0.0477
624.00,0.0473
623.00,0.0469
622.00,0.0466
621.00,0.0464
620.00,0.0462
619.00,0.0461
618.00,0.0461
617.00,0.0461
616.00,0.0460
615.00,0.0461
614.00,0.0461
613.00,0.0463
612.00,0.0464
611.00,0.0465
610.00,0.0467
609.00,0.0468
608.00,0.0469
607.00,0.0470
606.00,0.0470
605.00,0.0471
604.00,0.0471
603.00,0.0471
602.00,0.0472
601.00,0.0474
600.00,0.0476
599.00,0.0477
598.00,0.0479
597.00,0.0480
596.00,0.0483
595.00,0.0485
594.00,0.0487
593.00,0.0490
592.00,0.0494
591.00,0.0499
590.00,0.0504
589.00,0.0510
588.00,0.0516
587.00,0.0524
586.00,0.0533
585.00,0.0544
584.00,0.0557
583.00,0.0571
582.00,0.0586
581.00,0.0599
580.00,0.0611
579.00,0.0621
578.00,0.0630
577.00,0.0635
576.00,0.0639
575.00,0.0641
574.00,0.0641
573.00,0.0640
572.00,0.0638
571.00,0.0634
570.00,0.0630
569.00,0.0625
568.00,0.0620
567.00,0.0614
566.00,0.0607
565.00,0.0599
564.00,0.0589
563.00,0.0580
562.00,0.0571
561.00,0.0564
560.00,0.0558
559.00,0.0554
558.00,0.0551
557.00,0.0551
556.00,0.0552
555.00,0.0552
554.00,0.0552
553.00,0.0552
552.00,0.0550
551.00,0.0547
550.00,0.0543
549.00,0.0537
548.00,0.0530
547.00,0.0523
546.00,0.0516
545.00,0.0509
544.00,0.0503
543.00,0.0497
542.00,0.0492
541.00,0.0487
540.00,0.0482
539.00,0.0479
538.00,0.0477
537.00,0.0476
536.00,0.0477
535.00,0.0477
534.00,0.0478
533.00,0.0477
532.00,0.0476
531.00,0.0474
530.00,0.0474
529.00,0.0475
528.00,0.0477
527.00,0.0481
526.00,0.0486
525.00,0.0490
524.00,0.0493
523.00,0.0493
522.00,0.0490
521.00,0.0485
520.00,0.0476
519.00,0.0467
518.00,0.0458
517.00,0.0452
516.00,0.0448
515.00,0.0445
514.00,0.0443
513.00,0.0441
512.00,0.0437
511.00,0.0434
510.00,0.0433
509.00,0.0431
508.00,0.0429
507.00,0.0426
506.00,0.0423
505.00,0.0421
504.00,0.0419
503.00,0.0418
502.00,0.0418
501.00,0.0419
500.00,0.0422
499.00,0.0425
498.00,0.0428
497.00,0.0430
496.00,0.0432
495.00,0.0434
494.00,0.0436
493.00,0.0440
492.00,0.0443
491.00,0.0446
490.00,0.0450
489.00,0.0454
488.00,0.0457
487.00,0.0460
486.00,0.0462
485.00,0.0463
484.00,0.0463
483.00,0.0463
482.00,0.0463
481.00,0.0464
480.00,0.0465
479.00,0.0466
478.00,0.0467
477.00,0.0470
476.00,0.0474
475.00,0.0478
474.00,0.0482
473.00,0.0485
472.00,0.0486
471.00,0.0487
470.00,0.0486
469.00,0.0484
468.00,0.0479
467.00,0.0473
466.00,0.0468
465.00,0.0465
464.00,0.0464
463.00,0.0465
462.00,0.0465
461.00,0.0464
460.00,0.0458
459.00,0.0449
458.00,0.0442
457.00,0.0439
456.00,0.0438
455.00,0.0436
454.00,0.0433
453.00,0.0429
452.00,0.0424
451.00,0.0420
450.00,0.0419
449.00,0.0419
448.00,0.0419
447.00,0.0419
446.00,0.0420
445.00,0.0422
444.00,0.0425
443.00,0.0427
442.00,0.0426
441.00,0.0422
440.00,0.0416
439.00,0.0412
438.00,0.0412
437.00,0.0412
436.00,0.0412
435.00,0.0409
434.00,0.0406
433.00,0.0405
432.00,0.0407
431.00,0.0411
430.00,0.0416
429.00,0.0419
428.00,0.0420
427.00,0.0420
426.00,0.0419
425.00,0.0418
424.00,0.0413
423.00,0.0407
422.00,0.0402
421.00,0.0398
420.00,0.0397
419.00,0.0399
418.00,0.0404
417.00,0.0406
416.00,0.0403
415.00,0.0399
414.00,0.0395
413.00,0.0394
412.00,0.0392
411.00,0.0388
410.00,0.0382
409.00,0.0377
408.00,0.0375
407.00,0.0379
406.00,0.0386
405.00,0.0389
404.00,0.0384
403.00,0.0376
402.00,0.0374
401.00,0.0379
400.00,0.0386
