Created as New Dataset,Sample 343 By YargerLab Date Tuesday, November 11 2025
cm-1,A
4000.00,0.0025
3999.00,0.0025
3998.00,0.0025
3997.00,0.0025
3996.00,0.0025
3995.00,0.0025
3994.00,0.0024
3993.00,0.0024
3992.00,0.0024
3991.00,0.0024
3990.00,0.0024
3989.00,0.0024
3988.00,0.0024
3987.00,0.0024
3986.00,0.0024
3985.00,0.0025
3984.00,0.0024
3983.00,0.0024
3982.00,0.0024
3981.00,0.0024
3980.00,0.0024
3979.00,0.0025
3978.00,0.0025
3977.00,0.0025
3976.00,0.0025
3975.00,0.0025
3974.00,0.0025
3973.00,0.0025
3972.00,0.0025
3971.00,0.0025
3970.00,0.0025
3969.00,0.0025
3968.00,0.0024
3967.00,0.0024
3966.00,0.0024
3965.00,0.0024
3964.00,0.0024
3963.00,0.0024
3962.00,0.0024
3961.00,0.0024
3960.00,0.0024
3959.00,0.0025
3958.00,0.0025
3957.00,0.0025
3956.00,0.0025
3955.00,0.0025
3954.00,0.0025
3953.00,0.0025
3952.00,0.0025
3951.00,0.0025
3950.00,0.0026
3949.00,0.0026
3948.00,0.0026
3947.00,0.0026
3946.00,0.0026
3945.00,0.0026
3944.00,0.0026
3943.00,0.0026
3942.00,0.0025
3941.00,0.0025
3940.00,0.0026
3939.00,0.0026
3938.00,0.0026
3937.00,0.0026
3936.00,0.0026
3935.00,0.0027
3934.00,0.0027
3933.00,0.0027
3932.00,0.0027
3931.00,0.0026
3930.00,0.0027
3929.00,0.0027
3928.00,0.0027
3927.00,0.0027
3926.00,0.0026
3925.00,0.0026
3924.00,0.0026
3923.00,0.0026
3922.00,0.0027
3921.00,0.0027
3920.00,0.0027
3919.00,0.0028
3918.00,0.0028
3917.00,0.0027
3916.00,0.0027
3915.00,0.0027
3914.00,0.0027
3913.00,0.0026
3912.00,0.0026
3911.00,0.0026
3910.00,0.0026
3909.00,0.0026
3908.00,0.0026
3907.00,0.0026
3906.00,0.0027
3905.00,0.0027
3904.00,0.0028
3903.00,0.0029
3902.00,0.0031
3901.00,0.0031
3900.00,0.0031
3899.00,0.0031
3898.00,0.0030
3897.00,0.0030
3896.00,0.0029
3895.00,0.0029
3894.00,0.0028
3893.00,0.0027
3892.00,0.0027
3891.00,0.0027
3890.00,0.0027
3889.00,0.0028
3888.00,0.0029
3887.00,0.0029
3886.00,0.0029
3885.00,0.0028
3884.00,0.0028
3883.00,0.0029
3882.00,0.0029
3881.00,0.0029
3880.00,0.0029
3879.00,0.0029
3878.00,0.0029
3877.00,0.0030
3876.00,0.0030
3875.00,0.0030
3874.00,0.0029
3873.00,0.0029
3872.00,0.0030
3871.00,0.0030
3870.00,0.0030
3869.00,0.0030
3868.00,0.0030
3867.00,0.0030
3866.00,0.0031
3865.00,0.0031
3864.00,0.0031
3863.00,0.0030
3862.00,0.0030
3861.00,0.0030
3860.00,0.0030
3859.00,0.0029
3858.00,0.0028
3857.00,0.0027
3856.00,0.0027
3855.00,0.0027
3854.00,0.0028
3853.00,0.0029
3852.00,0.0030
3851.00,0.0031
3850.00,0.0031
3849.00,0.0031
3848.00,0.0030
3847.00,0.0030
3846.00,0.0030
3845.00,0.0030
3844.00,0.0030
3843.00,0.0030
3842.00,0.0031
3841.00,0.0031
3840.00,0.0031
3839.00,0.0031
3838.00,0.0031
3837.00,0.0031
3836.00,0.0031
3835.00,0.0031
3834.00,0.0031
3833.00,0.0031
3832.00,0.0030
3831.00,0.0030
3830.00,0.0030
3829.00,0.0030
3828.00,0.0031
3827.00,0.0030
3826.00,0.0030
3825.00,0.0030
3824.00,0.0031
3823.00,0.0031
3822.00,0.0031
3821.00,0.0031
3820.00,0.0031
3819.00,0.0031
3818.00,0.0031
3817.00,0.0032
3816.00,0.0031
3815.00,0.0030
3814.00,0.0029
3813.00,0.0029
3812.00,0.0029
3811.00,0.0029
3810.00,0.0028
3809.00,0.0029
3808.00,0.0029
3807.00,0.0029
3806.00,0.0029
3805.00,0.0029
3804.00,0.0030
3803.00,0.0032
3802.00,0.0032
3801.00,0.0031
3800.00,0.0031
3799.00,0.0031
3798.00,0.0031
3797.00,0.0031
3796.00,0.0030
3795.00,0.0030
3794.00,0.0029
3793.00,0.0029
3792.00,0.0028
3791.00,0.0028
3790.00,0.0028
3789.00,0.0028
3788.00,0.0028
3787.00,0.0028
3786.00,0.0028
3785.00,0.0028
3784.00,0.0028
3783.00,0.0028
3782.00,0.0029
3781.00,0.0029
3780.00,0.0029
3779.00,0.0029
3778.00,0.0029
3777.00,0.0028
3776.00,0.0028
3775.00,0.0027
3774.00,0.0027
3773.00,0.0027
3772.00,0.0027
3771.00,0.0028
3770.00,0.0029
3769.00,0.0029
3768.00,0.0030
3767.00,0.0030
3766.00,0.0030
3765.00,0.0030
3764.00,0.0030
3763.00,0.0030
3762.00,0.0030
3761.00,0.0031
3760.00,0.0031
3759.00,0.0031
3758.00,0.0031
3757.00,0.0031
3756.00,0.0031
3755.00,0.0031
3754.00,0.0032
3753.00,0.0032
3752.00,0.0032
3751.00,0.0033
3750.00,0.0033
3749.00,0.0034
3748.00,0.0034
3747.00,0.0034
3746.00,0.0035
3745.00,0.0035
3744.00,0.0034
3743.00,0.0034
3742.00,0.0034
3741.00,0.0034
3740.00,0.0034
3739.00,0.0034
3738.00,0.0035
3737.00,0.0035
3736.00,0.0035
3735.00,0.0035
3734.00,0.0035
3733.00,0.0034
3732.00,0.0034
3731.00,0.0033
3730.00,0.0032
3729.00,0.0032
3728.00,0.0032
3727.00,0.0031
3726.00,0.0031
3725.00,0.0030
3724.00,0.0030
3723.00,0.0030
3722.00,0.0030
3721.00,0.0030
3720.00,0.0030
3719.00,0.0030
3718.00,0.0029
3717.00,0.0029
3716.00,0.0029
3715.00,0.0029
3714.00,0.0030
3713.00,0.0030
3712.00,0.0030
3711.00,0.0031
3710.00,0.0031
3709.00,0.0032
3708.00,0.0032
3707.00,0.0031
3706.00,0.0030
3705.00,0.0029
3704.00,0.0029
3703.00,0.0028
3702.00,0.0027
3701.00,0.0027
3700.00,0.0027
3699.00,0.0028
3698.00,0.0028
3697.00,0.0029
3696.00,0.0029
3695.00,0.0029
3694.00,0.0030
3693.00,0.0031
3692.00,0.0031
3691.00,0.0032
3690.00,0.0032
3689.00,0.0033
3688.00,0.0033
3687.00,0.0033
3686.00,0.0034
3685.00,0.0034
3684.00,0.0034
3683.00,0.0034
3682.00,0.0035
3681.00,0.0035
3680.00,0.0036
3679.00,0.0036
3678.00,0.0037
3677.00,0.0038
3676.00,0.0038
3675.00,0.0038
3674.00,0.0038
3673.00,0.0039
3672.00,0.0040
3671.00,0.0040
3670.00,0.0039
3669.00,0.0038
3668.00,0.0037
3667.00,0.0037
3666.00,0.0037
3665.00,0.0037
3664.00,0.0037
3663.00,0.0036
3662.00,0.0036
3661.00,0.0036
3660.00,0.0036
3659.00,0.0037
3658.00,0.0037
3657.00,0.0038
3656.00,0.0038
3655.00,0.0039
3654.00,0.0039
3653.00,0.0040
3652.00,0.0041
3651.00,0.0042
3650.00,0.0043
3649.00,0.0044
3648.00,0.0044
3647.00,0.0044
3646.00,0.0044
3645.00,0.0043
3644.00,0.0043
3643.00,0.0042
3642.00,0.0041
3641.00,0.0040
3640.00,0.0040
3639.00,0.0040
3638.00,0.0040
3637.00,0.0041
3636.00,0.0041
3635.00,0.0041
3634.00,0.0041
3633.00,0.0041
3632.00,0.0042
3631.00,0.0042
3630.00,0.0043
3629.00,0.0043
3628.00,0.0044
3627.00,0.0045
3626.00,0.0045
3625.00,0.0045
3624.00,0.0045
3623.00,0.0045
3622.00,0.0046
3621.00,0.0046
3620.00,0.0046
3619.00,0.0046
3618.00,0.0047
3617.00,0.0048
3616.00,0.0049
3615.00,0.0049
3614.00,0.0049
3613.00,0.0049
3612.00,0.0049
3611.00,0.0051
3610.00,0.0051
3609.00,0.0052
3608.00,0.0051
3607.00,0.0051
3606.00,0.0051
3605.00,0.0051
3604.00,0.0051
3603.00,0.0051
3602.00,0.0051
3601.00,0.0051
3600.00,0.0051
3599.00,0.0052
3598.00,0.0053
3597.00,0.0053
3596.00,0.0054
3595.00,0.0054
3594.00,0.0055
3593.00,0.0055
3592.00,0.0056
3591.00,0.0057
3590.00,0.0058
3589.00,0.0058
3588.00,0.0058
3587.00,0.0058
3586.00,0.0059
3585.00,0.0060
3584.00,0.0060
3583.00,0.0060
3582.00,0.0060
3581.00,0.0061
3580.00,0.0061
3579.00,0.0062
3578.00,0.0062
3577.00,0.0063
3576.00,0.0063
3575.00,0.0064
3574.00,0.0064
3573.00,0.0064
3572.00,0.0065
3571.00,0.0066
3570.00,0.0067
3569.00,0.0068
3568.00,0.0070
3567.00,0.0070
3566.00,0.0071
3565.00,0.0072
3564.00,0.0072
3563.00,0.0072
3562.00,0.0072
3561.00,0.0072
3560.00,0.0072
3559.00,0.0073
3558.00,0.0073
3557.00,0.0074
3556.00,0.0074
3555.00,0.0075
3554.00,0.0076
3553.00,0.0077
3552.00,0.0078
3551.00,0.0078
3550.00,0.0079
3549.00,0.0079
3548.00,0.0080
3547.00,0.0080
3546.00,0.0080
3545.00,0.0081
3544.00,0.0081
3543.00,0.0082
3542.00,0.0082
3541.00,0.0082
3540.00,0.0082
3539.00,0.0082
3538.00,0.0082
3537.00,0.0083
3536.00,0.0083
3535.00,0.0084
3534.00,0.0084
3533.00,0.0085
3532.00,0.0086
3531.00,0.0087
3530.00,0.0088
3529.00,0.0088
3528.00,0.0089
3527.00,0.0090
3526.00,0.0090
3525.00,0.0091
3524.00,0.0091
3523.00,0.0091
3522.00,0.0091
3521.00,0.0092
3520.00,0.0093
3519.00,0.0093
3518.00,0.0094
3517.00,0.0095
3516.00,0.0095
3515.00,0.0096
3514.00,0.0097
3513.00,0.0097
3512.00,0.0098
3511.00,0.0099
3510.00,0.0099
3509.00,0.0100
3508.00,0.0101
3507.00,0.0102
3506.00,0.0103
3505.00,0.0104
3504.00,0.0104
3503.00,0.0105
3502.00,0.0106
3501.00,0.0107
3500.00,0.0108
3499.00,0.0109
3498.00,0.0109
3497.00,0.0110
3496.00,0.0110
3495.00,0.0111
3494.00,0.0111
3493.00,0.0112
3492.00,0.0113
3491.00,0.0114
3490.00,0.0115
3489.00,0.0116
3488.00,0.0117
3487.00,0.0118
3486.00,0.0119
3485.00,0.0119
3484.00,0.0120
3483.00,0.0121
3482.00,0.0122
3481.00,0.0123
3480.00,0.0124
3479.00,0.0125
3478.00,0.0126
3477.00,0.0127
3476.00,0.0127
3475.00,0.0128
3474.00,0.0129
3473.00,0.0130
3472.00,0.0131
3471.00,0.0131
3470.00,0.0132
3469.00,0.0133
3468.00,0.0134
3467.00,0.0135
3466.00,0.0135
3465.00,0.0136
3464.00,0.0137
3463.00,0.0138
3462.00,0.0138
3461.00,0.0139
3460.00,0.0140
3459.00,0.0140
3458.00,0.0142
3457.00,0.0143
3456.00,0.0144
3455.00,0.0144
3454.00,0.0145
3453.00,0.0145
3452.00,0.0146
3451.00,0.0147
3450.00,0.0148
3449.00,0.0148
3448.00,0.0149
3447.00,0.0150
3446.00,0.0150
3445.00,0.0151
3444.00,0.0151
3443.00,0.0152
3442.00,0.0152
3441.00,0.0152
3440.00,0.0153
3439.00,0.0154
3438.00,0.0155
3437.00,0.0155
3436.00,0.0156
3435.00,0.0156
3434.00,0.0157
3433.00,0.0157
3432.00,0.0158
3431.00,0.0159
3430.00,0.0159
3429.00,0.0160
3428.00,0.0161
3427.00,0.0161
3426.00,0.0162
3425.00,0.0162
3424.00,0.0163
3423.00,0.0163
3422.00,0.0163
3421.00,0.0164
3420.00,0.0164
3419.00,0.0165
3418.00,0.0166
3417.00,0.0166
3416.00,0.0167
3415.00,0.0167
3414.00,0.0168
3413.00,0.0168
3412.00,0.0169
3411.00,0.0169
3410.00,0.0170
3409.00,0.0171
3408.00,0.0171
3407.00,0.0172
3406.00,0.0173
3405.00,0.0173
3404.00,0.0174
3403.00,0.0174
3402.00,0.0175
3401.00,0.0175
3400.00,0.0176
3399.00,0.0176
3398.00,0.0177
3397.00,0.0177
3396.00,0.0177
3395.00,0.0178
3394.00,0.0178
3393.00,0.0179
3392.00,0.0181
3391.00,0.0182
3390.00,0.0183
3389.00,0.0183
3388.00,0.0184
3387.00,0.0185
3386.00,0.0186
3385.00,0.0187
3384.00,0.0187
3383.00,0.0188
3382.00,0.0188
3381.00,0.0189
3380.00,0.0189
3379.00,0.0190
3378.00,0.0191
3377.00,0.0191
3376.00,0.0192
3375.00,0.0193
3374.00,0.0194
3373.00,0.0194
3372.00,0.0194
3371.00,0.0194
3370.00,0.0194
3369.00,0.0194
3368.00,0.0196
3367.00,0.0197
3366.00,0.0199
3365.00,0.0200
3364.00,0.0201
3363.00,0.0202
3362.00,0.0202
3361.00,0.0203
3360.00,0.0203
3359.00,0.0204
3358.00,0.0205
3357.00,0.0206
3356.00,0.0207
3355.00,0.0207
3354.00,0.0207
3353.00,0.0207
3352.00,0.0207
3351.00,0.0207
3350.00,0.0208
3349.00,0.0209
3348.00,0.0211
3347.00,0.0211
3346.00,0.0212
3345.00,0.0212
3344.00,0.0212
3343.00,0.0212
3342.00,0.0213
3341.00,0.0213
3340.00,0.0213
3339.00,0.0213
3338.00,0.0214
3337.00,0.0215
3336.00,0.0216
3335.00,0.0217
3334.00,0.0218
3333.00,0.0219
3332.00,0.0218
3331.00,0.0218
3330.00,0.0218
3329.00,0.0218
3328.00,0.0219
3327.00,0.0219
3326.00,0.0219
3325.00,0.0220
3324.00,0.0221
3323.00,0.0222
3322.00,0.0223
3321.00,0.0223
3320.00,0.0224
3319.00,0.0224
3318.00,0.0225
3317.00,0.0225
3316.00,0.0225
3315.00,0.0226
3314.00,0.0226
3313.00,0.0226
3312.00,0.0226
3311.00,0.0225
3310.00,0.0225
3309.00,0.0224
3308.00,0.0223
3307.00,0.0223
3306.00,0.0224
3305.00,0.0225
3304.00,0.0227
3303.00,0.0228
3302.00,0.0228
3301.00,0.0229
3300.00,0.0229
3299.00,0.0229
3298.00,0.0229
3297.00,0.0229
3296.00,0.0229
3295.00,0.0229
3294.00,0.0230
3293.00,0.0230
3292.00,0.0230
3291.00,0.0231
3290.00,0.0231
3289.00,0.0232
3288.00,0.0232
3287.00,0.0233
3286.00,0.0233
3285.00,0.0233
3284.00,0.0233
3283.00,0.0233
3282.00,0.0233
3281.00,0.0233
3280.00,0.0233
3279.00,0.0233
3278.00,0.0233
3277.00,0.0232
3276.00,0.0232
3275.00,0.0232
3274.00,0.0232
3273.00,0.0233
3272.00,0.0233
3271.00,0.0234
3270.00,0.0234
3269.00,0.0235
3268.00,0.0234
3267.00,0.0234
3266.00,0.0233
3265.00,0.0233
3264.00,0.0233
3263.00,0.0233
3262.00,0.0234
3261.00,0.0234
3260.00,0.0233
3259.00,0.0233
3258.00,0.0233
3257.00,0.0233
3256.00,0.0233
3255.00,0.0233
3254.00,0.0233
3253.00,0.0233
3252.00,0.0233
3251.00,0.0233
3250.00,0.0233
3249.00,0.0232
3248.00,0.0232
3247.00,0.0232
3246.00,0.0233
3245.00,0.0233
3244.00,0.0233
3243.00,0.0233
3242.00,0.0233
3241.00,0.0233
3240.00,0.0233
3239.00,0.0233
3238.00,0.0233
3237.00,0.0234
3236.00,0.0233
3235.00,0.0233
3234.00,0.0232
3233.00,0.0232
3232.00,0.0232
3231.00,0.0231
3230.00,0.0231
3229.00,0.0231
3228.00,0.0231
3227.00,0.0231
3226.00,0.0230
3225.00,0.0230
3224.00,0.0230
3223.00,0.0229
3222.00,0.0229
3221.00,0.0229
3220.00,0.0229
3219.00,0.0229
3218.00,0.0229
3217.00,0.0229
3216.00,0.0229
3215.00,0.0228
3214.00,0.0228
3213.00,0.0228
3212.00,0.0228
3211.00,0.0227
3210.00,0.0227
3209.00,0.0227
3208.00,0.0226
3207.00,0.0226
3206.00,0.0226
3205.00,0.0226
3204.00,0.0226
3203.00,0.0227
3202.00,0.0227
3201.00,0.0226
3200.00,0.0226
3199.00,0.0226
3198.00,0.0225
3197.00,0.0225
3196.00,0.0225
3195.00,0.0224
3194.00,0.0224
3193.00,0.0224
3192.00,0.0224
3191.00,0.0223
3190.00,0.0223
3189.00,0.0222
3188.00,0.0222
3187.00,0.0222
3186.00,0.0221
3185.00,0.0221
3184.00,0.0220
3183.00,0.0220
3182.00,0.0219
3181.00,0.0219
3180.00,0.0218
3179.00,0.0218
3178.00,0.0217
3177.00,0.0216
3176.00,0.0216
3175.00,0.0215
3174.00,0.0215
3173.00,0.0214
3172.00,0.0214
3171.00,0.0213
3170.00,0.0213
3169.00,0.0212
3168.00,0.0211
3167.00,0.0211
3166.00,0.0210
3165.00,0.0210
3164.00,0.0209
3163.00,0.0208
3162.00,0.0207
3161.00,0.0207
3160.00,0.0206
3159.00,0.0205
3158.00,0.0205
3157.00,0.0204
3156.00,0.0203
3155.00,0.0202
3154.00,0.0201
3153.00,0.0201
3152.00,0.0200
3151.00,0.0199
3150.00,0.0199
3149.00,0.0198
3148.00,0.0197
3147.00,0.0196
3146.00,0.0194
3145.00,0.0193
3144.00,0.0192
3143.00,0.0192
3142.00,0.0192
3141.00,0.0192
3140.00,0.0193
3139.00,0.0192
3138.00,0.0192
3137.00,0.0191
3136.00,0.0190
3135.00,0.0190
3134.00,0.0189
3133.00,0.0189
3132.00,0.0188
3131.00,0.0187
3130.00,0.0187
3129.00,0.0186
3128.00,0.0186
3127.00,0.0185
3126.00,0.0185
3125.00,0.0184
3124.00,0.0184
3123.00,0.0183
3122.00,0.0183
3121.00,0.0182
3120.00,0.0182
3119.00,0.0181
3118.00,0.0181
3117.00,0.0180
3116.00,0.0179
3115.00,0.0179
3114.00,0.0178
3113.00,0.0177
3112.00,0.0176
3111.00,0.0175
3110.00,0.0175
3109.00,0.0174
3108.00,0.0174
3107.00,0.0173
3106.00,0.0172
3105.00,0.0171
3104.00,0.0170
3103.00,0.0169
3102.00,0.0169
3101.00,0.0168
3100.00,0.0167
3099.00,0.0167
3098.00,0.0166
3097.00,0.0165
3096.00,0.0165
3095.00,0.0164
3094.00,0.0164
3093.00,0.0163
3092.00,0.0163
3091.00,0.0162
3090.00,0.0162
3089.00,0.0161
3088.00,0.0161
3087.00,0.0161
3086.00,0.0161
3085.00,0.0161
3084.00,0.0160
3083.00,0.0160
3082.00,0.0160
3081.00,0.0160
3080.00,0.0161
3079.00,0.0161
3078.00,0.0161
3077.00,0.0161
3076.00,0.0160
3075.00,0.0160
3074.00,0.0159
3073.00,0.0159
3072.00,0.0159
3071.00,0.0158
3070.00,0.0158
3069.00,0.0157
3068.00,0.0157
3067.00,0.0156
3066.00,0.0155
3065.00,0.0154
3064.00,0.0152
3063.00,0.0151
3062.00,0.0150
3061.00,0.0149
3060.00,0.0147
3059.00,0.0146
3058.00,0.0145
3057.00,0.0145
3056.00,0.0144
3055.00,0.0143
3054.00,0.0143
3053.00,0.0142
3052.00,0.0142
3051.00,0.0142
3050.00,0.0141
3049.00,0.0141
3048.00,0.0140
3047.00,0.0139
3046.00,0.0139
3045.00,0.0138
3044.00,0.0138
3043.00,0.0138
3042.00,0.0137
3041.00,0.0137
3040.00,0.0137
3039.00,0.0136
3038.00,0.0136
3037.00,0.0136
3036.00,0.0135
3035.00,0.0135
3034.00,0.0135
3033.00,0.0135
3032.00,0.0134
3031.00,0.0134
3030.00,0.0133
3029.00,0.0133
3028.00,0.0133
3027.00,0.0133
3026.00,0.0133
3025.00,0.0133
3024.00,0.0133
3023.00,0.0133
3022.00,0.0133
3021.00,0.0133
3020.00,0.0132
3019.00,0.0132
3018.00,0.0132
3017.00,0.0133
3016.00,0.0135
3015.00,0.0137
3014.00,0.0139
3013.00,0.0141
3012.00,0.0143
3011.00,0.0144
3010.00,0.0146
3009.00,0.0148
3008.00,0.0151
3007.00,0.0153
3006.00,0.0156
3005.00,0.0159
3004.00,0.0162
3003.00,0.0165
3002.00,0.0169
3001.00,0.0173
3000.00,0.0177
2999.00,0.0181
2998.00,0.0186
2997.00,0.0191
2996.00,0.0196
2995.00,0.0201
2994.00,0.0206
2993.00,0.0212
2992.00,0.0219
2991.00,0.0225
2990.00,0.0232
2989.00,0.0238
2988.00,0.0245
2987.00,0.0252
2986.00,0.0260
2985.00,0.0268
2984.00,0.0277
2983.00,0.0286
2982.00,0.0294
2981.00,0.0301
2980.00,0.0307
2979.00,0.0313
2978.00,0.0318
2977.00,0.0323
2976.00,0.0329
2975.00,0.0335
2974.00,0.0341
2973.00,0.0348
2972.00,0.0356
2971.00,0.0362
2970.00,0.0368
2969.00,0.0374
2968.00,0.0380
2967.00,0.0385
2966.00,0.0391
2965.00,0.0397
2964.00,0.0402
2963.00,0.0408
2962.00,0.0412
2961.00,0.0416
2960.00,0.0419
2959.00,0.0422
2958.00,0.0424
2957.00,0.0426
2956.00,0.0426
2955.00,0.0425
2954.00,0.0424
2953.00,0.0422
2952.00,0.0419
2951.00,0.0416
2950.00,0.0413
2949.00,0.0410
2948.00,0.0407
2947.00,0.0405
2946.00,0.0403
2945.00,0.0403
2944.00,0.0403
2943.00,0.0404
2942.00,0.0407
2941.00,0.0410
2940.00,0.0415
2939.00,0.0421
2938.00,0.0428
2937.00,0.0435
2936.00,0.0443
2935.00,0.0451
2934.00,0.0460
2933.00,0.0468
2932.00,0.0477
2931.00,0.0485
2930.00,0.0492
2929.00,0.0498
2928.00,0.0504
2927.00,0.0508
2926.00,0.0511
2925.00,0.0513
2924.00,0.0514
2923.00,0.0514
2922.00,0.0513
2921.00,0.0512
2920.00,0.0508
2919.00,0.0504
2918.00,0.0498
2917.00,0.0492
2916.00,0.0485
2915.00,0.0477
2914.00,0.0469
2913.00,0.0461
2912.00,0.0453
2911.00,0.0445
2910.00,0.0437
2909.00,0.0429
2908.00,0.0421
2907.00,0.0414
2906.00,0.0407
2905.00,0.0400
2904.00,0.0394
2903.00,0.0389
2902.00,0.0385
2901.00,0.0381
2900.00,0.0377
2899.00,0.0375
2898.00,0.0372
2897.00,0.0370
2896.00,0.0368
2895.00,0.0366
2894.00,0.0364
2893.00,0.0363
2892.00,0.0361
2891.00,0.0360
2890.00,0.0358
2889.00,0.0356
2888.00,0.0354
2887.00,0.0353
2886.00,0.0351
2885.00,0.0350
2884.00,0.0349
2883.00,0.0349
2882.00,0.0348
2881.00,0.0347
2880.00,0.0347
2879.00,0.0347
2878.00,0.0347
2877.00,0.0347
2876.00,0.0348
2875.00,0.0349
2874.00,0.0351
2873.00,0.0352
2872.00,0.0353
2871.00,0.0353
2870.00,0.0352
2869.00,0.0351
2868.00,0.0349
2867.00,0.0348
2866.00,0.0347
2865.00,0.0346
2864.00,0.0347
2863.00,0.0349
2862.00,0.0351
2861.00,0.0354
2860.00,0.0356
2859.00,0.0359
2858.00,0.0361
2857.00,0.0362
2856.00,0.0361
2855.00,0.0359
2854.00,0.0354
2853.00,0.0348
2852.00,0.0340
2851.00,0.0331
2850.00,0.0321
2849.00,0.0311
2848.00,0.0300
2847.00,0.0289
2846.00,0.0279
2845.00,0.0269
2844.00,0.0259
2843.00,0.0250
2842.00,0.0241
2841.00,0.0234
2840.00,0.0227
2839.00,0.0222
2838.00,0.0217
2837.00,0.0214
2836.00,0.0211
2835.00,0.0208
2834.00,0.0206
2833.00,0.0204
2832.00,0.0201
2831.00,0.0198
2830.00,0.0196
2829.00,0.0193
2828.00,0.0189
2827.00,0.0185
2826.00,0.0181
2825.00,0.0176
2824.00,0.0172
2823.00,0.0167
2822.00,0.0163
2821.00,0.0158
2820.00,0.0155
2819.00,0.0151
2818.00,0.0148
2817.00,0.0145
2816.00,0.0142
2815.00,0.0140
2814.00,0.0138
2813.00,0.0136
2812.00,0.0134
2811.00,0.0132
2810.00,0.0131
2809.00,0.0129
2808.00,0.0128
2807.00,0.0127
2806.00,0.0126
2805.00,0.0124
2804.00,0.0123
2803.00,0.0122
2802.00,0.0121
2801.00,0.0121
2800.00,0.0120
2799.00,0.0120
2798.00,0.0119
2797.00,0.0118
2796.00,0.0117
2795.00,0.0116
2794.00,0.0115
2793.00,0.0115
2792.00,0.0114
2791.00,0.0114
2790.00,0.0113
2789.00,0.0113
2788.00,0.0112
2787.00,0.0112
2786.00,0.0111
2785.00,0.0111
2784.00,0.0111
2783.00,0.0110
2782.00,0.0110
2781.00,0.0109
2780.00,0.0109
2779.00,0.0109
2778.00,0.0108
2777.00,0.0107
2776.00,0.0107
2775.00,0.0107
2774.00,0.0106
2773.00,0.0106
2772.00,0.0106
2771.00,0.0105
2770.00,0.0105
2769.00,0.0104
2768.00,0.0104
2767.00,0.0104
2766.00,0.0104
2765.00,0.0103
2764.00,0.0103
2763.00,0.0103
2762.00,0.0103
2761.00,0.0103
2760.00,0.0103
2759.00,0.0103
2758.00,0.0103
2757.00,0.0103
2756.00,0.0103
2755.00,0.0103
2754.00,0.0103
2753.00,0.0103
2752.00,0.0103
2751.00,0.0102
2750.00,0.0102
2749.00,0.0102
2748.00,0.0102
2747.00,0.0102
2746.00,0.0103
2745.00,0.0103
2744.00,0.0103
2743.00,0.0103
2742.00,0.0103
2741.00,0.0103
2740.00,0.0103
2739.00,0.0104
2738.00,0.0104
2737.00,0.0104
2736.00,0.0104
2735.00,0.0104
2734.00,0.0104
2733.00,0.0104
2732.00,0.0105
2731.00,0.0105
2730.00,0.0106
2729.00,0.0106
2728.00,0.0106
2727.00,0.0106
2726.00,0.0106
2725.00,0.0105
2724.00,0.0105
2723.00,0.0105
2722.00,0.0105
2721.00,0.0105
2720.00,0.0105
2719.00,0.0104
2718.00,0.0104
2717.00,0.0104
2716.00,0.0103
2715.00,0.0103
2714.00,0.0102
2713.00,0.0102
2712.00,0.0102
2711.00,0.0102
2710.00,0.0102
2709.00,0.0101
2708.00,0.0101
2707.00,0.0101
2706.00,0.0101
2705.00,0.0101
2704.00,0.0100
2703.00,0.0100
2702.00,0.0100
2701.00,0.0100
2700.00,0.0100
2699.00,0.0100
2698.00,0.0100
2697.00,0.0099
2696.00,0.0099
2695.00,0.0099
2694.00,0.0099
2693.00,0.0099
2692.00,0.0099
2691.00,0.0099
2690.00,0.0099
2689.00,0.0099
2688.00,0.0099
2687.00,0.0099
2686.00,0.0098
2685.00,0.0098
2684.00,0.0098
2683.00,0.0098
2682.00,0.0098
2681.00,0.0098
2680.00,0.0098
2679.00,0.0097
2678.00,0.0097
2677.00,0.0097
2676.00,0.0097
2675.00,0.0097
2674.00,0.0097
2673.00,0.0097
2672.00,0.0096
2671.00,0.0097
2670.00,0.0097
2669.00,0.0097
2668.00,0.0097
2667.00,0.0097
2666.00,0.0097
2665.00,0.0098
2664.00,0.0098
2663.00,0.0098
2662.00,0.0098
2661.00,0.0098
2660.00,0.0098
2659.00,0.0097
2658.00,0.0097
2657.00,0.0097
2656.00,0.0097
2655.00,0.0097
2654.00,0.0097
2653.00,0.0096
2652.00,0.0096
2651.00,0.0096
2650.00,0.0096
2649.00,0.0095
2648.00,0.0095
2647.00,0.0095
2646.00,0.0094
2645.00,0.0094
2644.00,0.0094
2643.00,0.0093
2642.00,0.0093
2641.00,0.0092
2640.00,0.0092
2639.00,0.0092
2638.00,0.0092
2637.00,0.0092
2636.00,0.0091
2635.00,0.0091
2634.00,0.0091
2633.00,0.0091
2632.00,0.0090
2631.00,0.0090
2630.00,0.0090
2629.00,0.0090
2628.00,0.0089
2627.00,0.0089
2626.00,0.0089
2625.00,0.0089
2624.00,0.0089
2623.00,0.0088
2622.00,0.0088
2621.00,0.0088
2620.00,0.0088
2619.00,0.0088
2618.00,0.0087
2617.00,0.0087
2616.00,0.0086
2615.00,0.0086
2614.00,0.0085
2613.00,0.0085
2612.00,0.0085
2611.00,0.0085
2610.00,0.0085
2609.00,0.0085
2608.00,0.0086
2607.00,0.0086
2606.00,0.0086
2605.00,0.0086
2604.00,0.0085
2603.00,0.0085
2602.00,0.0085
2601.00,0.0085
2600.00,0.0085
2599.00,0.0084
2598.00,0.0084
2597.00,0.0084
2596.00,0.0084
2595.00,0.0084
2594.00,0.0084
2593.00,0.0084
2592.00,0.0084
2591.00,0.0084
2590.00,0.0084
2589.00,0.0084
2588.00,0.0084
2587.00,0.0083
2586.00,0.0083
2585.00,0.0083
2584.00,0.0083
2583.00,0.0083
2582.00,0.0083
2581.00,0.0083
2580.00,0.0083
2579.00,0.0083
2578.00,0.0083
2577.00,0.0083
2576.00,0.0082
2575.00,0.0082
2574.00,0.0082
2573.00,0.0082
2572.00,0.0082
2571.00,0.0081
2570.00,0.0081
2569.00,0.0081
2568.00,0.0081
2567.00,0.0081
2566.00,0.0081
2565.00,0.0081
2564.00,0.0081
2563.00,0.0081
2562.00,0.0080
2561.00,0.0080
2560.00,0.0079
2559.00,0.0079
2558.00,0.0079
2557.00,0.0079
2556.00,0.0079
2555.00,0.0079
2554.00,0.0079
2553.00,0.0079
2552.00,0.0078
2551.00,0.0078
2550.00,0.0078
2549.00,0.0077
2548.00,0.0076
2547.00,0.0074
2546.00,0.0074
2545.00,0.0075
2544.00,0.0077
2543.00,0.0078
2542.00,0.0078
2541.00,0.0078
2540.00,0.0077
2539.00,0.0077
2538.00,0.0077
2537.00,0.0077
2536.00,0.0077
2535.00,0.0077
2534.00,0.0077
2533.00,0.0076
2532.00,0.0076
2531.00,0.0076
2530.00,0.0075
2529.00,0.0075
2528.00,0.0075
2527.00,0.0075
2526.00,0.0075
2525.00,0.0075
2524.00,0.0074
2523.00,0.0074
2522.00,0.0074
2521.00,0.0074
2520.00,0.0074
2519.00,0.0074
2518.00,0.0074
2517.00,0.0074
2516.00,0.0074
2515.00,0.0074
2514.00,0.0073
2513.00,0.0073
2512.00,0.0073
2511.00,0.0073
2510.00,0.0073
2509.00,0.0073
2508.00,0.0073
2507.00,0.0072
2506.00,0.0072
2505.00,0.0072
2504.00,0.0072
2503.00,0.0072
2502.00,0.0072
2501.00,0.0072
2500.00,0.0073
2499.00,0.0073
2498.00,0.0073
2497.00,0.0073
2496.00,0.0072
2495.00,0.0072
2494.00,0.0072
2493.00,0.0072
2492.00,0.0072
2491.00,0.0072
2490.00,0.0071
2489.00,0.0071
2488.00,0.0071
2487.00,0.0071
2486.00,0.0071
2485.00,0.0071
2484.00,0.0072
2483.00,0.0072
2482.00,0.0072
2481.00,0.0071
2480.00,0.0070
2479.00,0.0069
2478.00,0.0069
2477.00,0.0069
2476.00,0.0069
2475.00,0.0069
2474.00,0.0069
2473.00,0.0069
2472.00,0.0069
2471.00,0.0070
2470.00,0.0070
2469.00,0.0070
2468.00,0.0069
2467.00,0.0069
2466.00,0.0069
2465.00,0.0069
2464.00,0.0069
2463.00,0.0069
2462.00,0.0069
2461.00,0.0069
2460.00,0.0069
2459.00,0.0069
2458.00,0.0069
2457.00,0.0069
2456.00,0.0069
2455.00,0.0069
2454.00,0.0070
2453.00,0.0070
2452.00,0.0070
2451.00,0.0069
2450.00,0.0069
2449.00,0.0068
2448.00,0.0068
2447.00,0.0068
2446.00,0.0069
2445.00,0.0069
2444.00,0.0069
2443.00,0.0068
2442.00,0.0068
2441.00,0.0068
2440.00,0.0068
2439.00,0.0068
2438.00,0.0068
2437.00,0.0068
2436.00,0.0068
2435.00,0.0068
2434.00,0.0067
2433.00,0.0067
2432.00,0.0066
2431.00,0.0066
2430.00,0.0066
2429.00,0.0066
2428.00,0.0067
2427.00,0.0067
2426.00,0.0067
2425.00,0.0067
2424.00,0.0068
2423.00,0.0068
2422.00,0.0069
2421.00,0.0069
2420.00,0.0069
2419.00,0.0069
2418.00,0.0068
2417.00,0.0068
2416.00,0.0067
2415.00,0.0068
2414.00,0.0067
2413.00,0.0067
2412.00,0.0067
2411.00,0.0067
2410.00,0.0067
2409.00,0.0066
2408.00,0.0066
2407.00,0.0066
2406.00,0.0066
2405.00,0.0066
2404.00,0.0066
2403.00,0.0066
2402.00,0.0066
2401.00,0.0066
2400.00,0.0066
2399.00,0.0066
2398.00,0.0066
2397.00,0.0066
2396.00,0.0066
2395.00,0.0066
2394.00,0.0066
2393.00,0.0066
2392.00,0.0066
2391.00,0.0066
2390.00,0.0066
2389.00,0.0066
2388.00,0.0065
2387.00,0.0064
2386.00,0.0063
2385.00,0.0062
2384.00,0.0062
2383.00,0.0061
2382.00,0.0061
2381.00,0.0060
2380.00,0.0060
2379.00,0.0059
2378.00,0.0059
2377.00,0.0060
2376.00,0.0060
2375.00,0.0061
2374.00,0.0061
2373.00,0.0061
2372.00,0.0060
2371.00,0.0060
2370.00,0.0059
2369.00,0.0059
2368.00,0.0059
2367.00,0.0059
2366.00,0.0059
2365.00,0.0059
2364.00,0.0060
2363.00,0.0060
2362.00,0.0060
2361.00,0.0060
2360.00,0.0060
2359.00,0.0059
2358.00,0.0059
2357.00,0.0059
2356.00,0.0061
2355.00,0.0062
2354.00,0.0063
2353.00,0.0063
2352.00,0.0061
2351.00,0.0058
2350.00,0.0055
2349.00,0.0054
2348.00,0.0056
2347.00,0.0058
2346.00,0.0060
2345.00,0.0061
2344.00,0.0061
2343.00,0.0062
2342.00,0.0062
2341.00,0.0063
2340.00,0.0063
2339.00,0.0063
2338.00,0.0063
2337.00,0.0063
2336.00,0.0063
2335.00,0.0062
2334.00,0.0062
2333.00,0.0062
2332.00,0.0063
2331.00,0.0064
2330.00,0.0065
2329.00,0.0067
2328.00,0.0069
2327.00,0.0071
2326.00,0.0072
2325.00,0.0072
2324.00,0.0072
2323.00,0.0071
2322.00,0.0070
2321.00,0.0070
2320.00,0.0071
2319.00,0.0071
2318.00,0.0070
2317.00,0.0070
2316.00,0.0070
2315.00,0.0069
2314.00,0.0069
2313.00,0.0068
2312.00,0.0069
2311.00,0.0068
2310.00,0.0068
2309.00,0.0068
2308.00,0.0068
2307.00,0.0068
2306.00,0.0068
2305.00,0.0068
2304.00,0.0068
2303.00,0.0068
2302.00,0.0068
2301.00,0.0068
2300.00,0.0068
2299.00,0.0068
2298.00,0.0068
2297.00,0.0068
2296.00,0.0068
2295.00,0.0069
2294.00,0.0069
2293.00,0.0070
2292.00,0.0071
2291.00,0.0071
2290.00,0.0072
2289.00,0.0072
2288.00,0.0073
2287.00,0.0073
2286.00,0.0072
2285.00,0.0071
2284.00,0.0070
2283.00,0.0069
2282.00,0.0068
2281.00,0.0068
2280.00,0.0068
2279.00,0.0068
2278.00,0.0068
2277.00,0.0068
2276.00,0.0068
2275.00,0.0068
2274.00,0.0067
2273.00,0.0067
2272.00,0.0067
2271.00,0.0067
2270.00,0.0067
2269.00,0.0066
2268.00,0.0066
2267.00,0.0065
2266.00,0.0065
2265.00,0.0064
2264.00,0.0064
2263.00,0.0065
2262.00,0.0065
2261.00,0.0066
2260.00,0.0066
2259.00,0.0066
2258.00,0.0065
2257.00,0.0064
2256.00,0.0064
2255.00,0.0063
2254.00,0.0063
2253.00,0.0064
2252.00,0.0065
2251.00,0.0065
2250.00,0.0065
2249.00,0.0065
2248.00,0.0066
2247.00,0.0066
2246.00,0.0066
2245.00,0.0066
2244.00,0.0066
2243.00,0.0066
2242.00,0.0066
2241.00,0.0065
2240.00,0.0066
2239.00,0.0066
2238.00,0.0066
2237.00,0.0066
2236.00,0.0067
2235.00,0.0068
2234.00,0.0068
2233.00,0.0068
2232.00,0.0069
2231.00,0.0068
2230.00,0.0068
2229.00,0.0067
2228.00,0.0067
2227.00,0.0066
2226.00,0.0066
2225.00,0.0067
2224.00,0.0067
2223.00,0.0067
2222.00,0.0066
2221.00,0.0066
2220.00,0.0066
2219.00,0.0066
2218.00,0.0066
2217.00,0.0066
2216.00,0.0066
2215.00,0.0066
2214.00,0.0066
2213.00,0.0066
2212.00,0.0066
2211.00,0.0065
2210.00,0.0064
2209.00,0.0063
2208.00,0.0063
2207.00,0.0063
2206.00,0.0063
2205.00,0.0064
2204.00,0.0065
2203.00,0.0065
2202.00,0.0064
2201.00,0.0064
2200.00,0.0065
2199.00,0.0067
2198.00,0.0068
2197.00,0.0068
2196.00,0.0068
2195.00,0.0067
2194.00,0.0066
2193.00,0.0066
2192.00,0.0066
2191.00,0.0067
2190.00,0.0067
2189.00,0.0068
2188.00,0.0068
2187.00,0.0069
2186.00,0.0069
2185.00,0.0068
2184.00,0.0066
2183.00,0.0063
2182.00,0.0060
2181.00,0.0060
2180.00,0.0061
2179.00,0.0062
2178.00,0.0062
2177.00,0.0061
2176.00,0.0061
2175.00,0.0061
2174.00,0.0062
2173.00,0.0064
2172.00,0.0066
2171.00,0.0068
2170.00,0.0068
2169.00,0.0069
2168.00,0.0069
2167.00,0.0071
2166.00,0.0072
2165.00,0.0074
2164.00,0.0075
2163.00,0.0074
2162.00,0.0069
2161.00,0.0060
2160.00,0.0051
2159.00,0.0044
2158.00,0.0042
2157.00,0.0043
2156.00,0.0045
2155.00,0.0047
2154.00,0.0049
2153.00,0.0051
2152.00,0.0054
2151.00,0.0056
2150.00,0.0056
2149.00,0.0057
2148.00,0.0057
2147.00,0.0057
2146.00,0.0056
2145.00,0.0055
2144.00,0.0054
2143.00,0.0054
2142.00,0.0054
2141.00,0.0055
2140.00,0.0056
2139.00,0.0056
2138.00,0.0056
2137.00,0.0055
2136.00,0.0054
2135.00,0.0053
2134.00,0.0053
2133.00,0.0054
2132.00,0.0054
2131.00,0.0055
2130.00,0.0055
2129.00,0.0056
2128.00,0.0057
2127.00,0.0057
2126.00,0.0058
2125.00,0.0058
2124.00,0.0058
2123.00,0.0059
2122.00,0.0059
2121.00,0.0060
2120.00,0.0061
2119.00,0.0062
2118.00,0.0062
2117.00,0.0063
2116.00,0.0063
2115.00,0.0063
2114.00,0.0063
2113.00,0.0064
2112.00,0.0064
2111.00,0.0064
2110.00,0.0064
2109.00,0.0064
2108.00,0.0065
2107.00,0.0065
2106.00,0.0065
2105.00,0.0064
2104.00,0.0063
2103.00,0.0062
2102.00,0.0062
2101.00,0.0062
2100.00,0.0063
2099.00,0.0063
2098.00,0.0062
2097.00,0.0061
2096.00,0.0061
2095.00,0.0061
2094.00,0.0061
2093.00,0.0061
2092.00,0.0062
2091.00,0.0062
2090.00,0.0062
2089.00,0.0062
2088.00,0.0062
2087.00,0.0062
2086.00,0.0063
2085.00,0.0063
2084.00,0.0064
2083.00,0.0064
2082.00,0.0064
2081.00,0.0065
2080.00,0.0065
2079.00,0.0065
2078.00,0.0066
2077.00,0.0069
2076.00,0.0071
2075.00,0.0072
2074.00,0.0069
2073.00,0.0066
2072.00,0.0064
2071.00,0.0063
2070.00,0.0062
2069.00,0.0062
2068.00,0.0062
2067.00,0.0062
2066.00,0.0061
2065.00,0.0061
2064.00,0.0061
2063.00,0.0060
2062.00,0.0060
2061.00,0.0060
2060.00,0.0061
2059.00,0.0061
2058.00,0.0061
2057.00,0.0061
2056.00,0.0061
2055.00,0.0061
2054.00,0.0063
2053.00,0.0065
2052.00,0.0068
2051.00,0.0069
2050.00,0.0067
2049.00,0.0065
2048.00,0.0064
2047.00,0.0062
2046.00,0.0061
2045.00,0.0061
2044.00,0.0063
2043.00,0.0064
2042.00,0.0064
2041.00,0.0063
2040.00,0.0063
2039.00,0.0062
2038.00,0.0061
2037.00,0.0059
2036.00,0.0058
2035.00,0.0056
2034.00,0.0054
2033.00,0.0054
2032.00,0.0055
2031.00,0.0056
2030.00,0.0056
2029.00,0.0055
2028.00,0.0055
2027.00,0.0054
2026.00,0.0054
2025.00,0.0055
2024.00,0.0057
2023.00,0.0058
2022.00,0.0058
2021.00,0.0059
2020.00,0.0060
2019.00,0.0059
2018.00,0.0058
2017.00,0.0057
2016.00,0.0058
2015.00,0.0059
2014.00,0.0061
2013.00,0.0063
2012.00,0.0065
2011.00,0.0064
2010.00,0.0062
2009.00,0.0059
2008.00,0.0056
2007.00,0.0053
2006.00,0.0053
2005.00,0.0054
2004.00,0.0056
2003.00,0.0058
2002.00,0.0057
2001.00,0.0057
2000.00,0.0057
1999.00,0.0057
1998.00,0.0057
1997.00,0.0058
1996.00,0.0060
1995.00,0.0061
1994.00,0.0060
1993.00,0.0060
1992.00,0.0060
1991.00,0.0060
1990.00,0.0060
1989.00,0.0061
1988.00,0.0062
1987.00,0.0064
1986.00,0.0065
1985.00,0.0065
1984.00,0.0066
1983.00,0.0067
1982.00,0.0068
1981.00,0.0069
1980.00,0.0068
1979.00,0.0064
1978.00,0.0060
1977.00,0.0058
1976.00,0.0058
1975.00,0.0058
1974.00,0.0057
1973.00,0.0057
1972.00,0.0056
1971.00,0.0055
1970.00,0.0054
1969.00,0.0055
1968.00,0.0056
1967.00,0.0056
1966.00,0.0056
1965.00,0.0055
1964.00,0.0055
1963.00,0.0054
1962.00,0.0054
1961.00,0.0054
1960.00,0.0055
1959.00,0.0054
1958.00,0.0053
1957.00,0.0053
1956.00,0.0054
1955.00,0.0054
1954.00,0.0055
1953.00,0.0057
1952.00,0.0060
1951.00,0.0060
1950.00,0.0059
1949.00,0.0057
1948.00,0.0056
1947.00,0.0055
1946.00,0.0054
1945.00,0.0054
1944.00,0.0055
1943.00,0.0056
1942.00,0.0056
1941.00,0.0057
1940.00,0.0058
1939.00,0.0058
1938.00,0.0057
1937.00,0.0057
1936.00,0.0058
1935.00,0.0058
1934.00,0.0058
1933.00,0.0058
1932.00,0.0059
1931.00,0.0060
1930.00,0.0060
1929.00,0.0059
1928.00,0.0058
1927.00,0.0057
1926.00,0.0056
1925.00,0.0056
1924.00,0.0057
1923.00,0.0058
1922.00,0.0059
1921.00,0.0060
1920.00,0.0061
1919.00,0.0062
1918.00,0.0061
1917.00,0.0061
1916.00,0.0060
1915.00,0.0060
1914.00,0.0060
1913.00,0.0060
1912.00,0.0060
1911.00,0.0059
1910.00,0.0059
1909.00,0.0060
1908.00,0.0061
1907.00,0.0062
1906.00,0.0062
1905.00,0.0062
1904.00,0.0062
1903.00,0.0061
1902.00,0.0061
1901.00,0.0060
1900.00,0.0060
1899.00,0.0060
1898.00,0.0060
1897.00,0.0060
1896.00,0.0060
1895.00,0.0060
1894.00,0.0060
1893.00,0.0059
1892.00,0.0059
1891.00,0.0059
1890.00,0.0059
1889.00,0.0059
1888.00,0.0058
1887.00,0.0058
1886.00,0.0058
1885.00,0.0058
1884.00,0.0059
1883.00,0.0060
1882.00,0.0060
1881.00,0.0060
1880.00,0.0060
1879.00,0.0060
1878.00,0.0060
1877.00,0.0060
1876.00,0.0060
1875.00,0.0060
1874.00,0.0059
1873.00,0.0060
1872.00,0.0060
1871.00,0.0060
1870.00,0.0060
1869.00,0.0060
1868.00,0.0060
1867.00,0.0061
1866.00,0.0061
1865.00,0.0060
1864.00,0.0060
1863.00,0.0060
1862.00,0.0060
1861.00,0.0059
1860.00,0.0060
1859.00,0.0060
1858.00,0.0060
1857.00,0.0061
1856.00,0.0062
1855.00,0.0062
1854.00,0.0062
1853.00,0.0061
1852.00,0.0061
1851.00,0.0061
1850.00,0.0061
1849.00,0.0060
1848.00,0.0060
1847.00,0.0060
1846.00,0.0060
1845.00,0.0060
1844.00,0.0061
1843.00,0.0061
1842.00,0.0061
1841.00,0.0061
1840.00,0.0061
1839.00,0.0061
1838.00,0.0060
1837.00,0.0060
1836.00,0.0061
1835.00,0.0061
1834.00,0.0061
1833.00,0.0061
1832.00,0.0061
1831.00,0.0061
1830.00,0.0061
1829.00,0.0060
1828.00,0.0060
1827.00,0.0061
1826.00,0.0061
1825.00,0.0061
1824.00,0.0061
1823.00,0.0061
1822.00,0.0061
1821.00,0.0060
1820.00,0.0060
1819.00,0.0059
1818.00,0.0058
1817.00,0.0058
1816.00,0.0059
1815.00,0.0059
1814.00,0.0059
1813.00,0.0059
1812.00,0.0059
1811.00,0.0060
1810.00,0.0060
1809.00,0.0060
1808.00,0.0060
1807.00,0.0060
1806.00,0.0060
1805.00,0.0060
1804.00,0.0060
1803.00,0.0059
1802.00,0.0059
1801.00,0.0060
1800.00,0.0060
1799.00,0.0060
1798.00,0.0060
1797.00,0.0060
1796.00,0.0060
1795.00,0.0060
1794.00,0.0060
1793.00,0.0060
1792.00,0.0060
1791.00,0.0061
1790.00,0.0061
1789.00,0.0062
1788.00,0.0062
1787.00,0.0062
1786.00,0.0062
1785.00,0.0061
1784.00,0.0062
1783.00,0.0062
1782.00,0.0062
1781.00,0.0063
1780.00,0.0063
1779.00,0.0063
1778.00,0.0063
1777.00,0.0063
1776.00,0.0063
1775.00,0.0063
1774.00,0.0063
1773.00,0.0063
1772.00,0.0064
1771.00,0.0064
1770.00,0.0065
1769.00,0.0065
1768.00,0.0066
1767.00,0.0066
1766.00,0.0065
1765.00,0.0065
1764.00,0.0065
1763.00,0.0065
1762.00,0.0065
1761.00,0.0065
1760.00,0.0066
1759.00,0.0066
1758.00,0.0066
1757.00,0.0067
1756.00,0.0067
1755.00,0.0068
1754.00,0.0069
1753.00,0.0070
1752.00,0.0072
1751.00,0.0072
1750.00,0.0072
1749.00,0.0072
1748.00,0.0073
1747.00,0.0073
1746.00,0.0073
1745.00,0.0072
1744.00,0.0073
1743.00,0.0073
1742.00,0.0073
1741.00,0.0074
1740.00,0.0075
1739.00,0.0076
1738.00,0.0076
1737.00,0.0076
1736.00,0.0078
1735.00,0.0079
1734.00,0.0079
1733.00,0.0079
1732.00,0.0080
1731.00,0.0081
1730.00,0.0081
1729.00,0.0082
1728.00,0.0084
1727.00,0.0085
1726.00,0.0087
1725.00,0.0088
1724.00,0.0090
1723.00,0.0092
1722.00,0.0093
1721.00,0.0094
1720.00,0.0097
1719.00,0.0100
1718.00,0.0102
1717.00,0.0105
1716.00,0.0109
1715.00,0.0114
1714.00,0.0119
1713.00,0.0124
1712.00,0.0130
1711.00,0.0136
1710.00,0.0143
1709.00,0.0152
1708.00,0.0163
1707.00,0.0176
1706.00,0.0192
1705.00,0.0210
1704.00,0.0229
1703.00,0.0248
1702.00,0.0272
1701.00,0.0309
1700.00,0.0355
1699.00,0.0399
1698.00,0.0438
1697.00,0.0483
1696.00,0.0544
1695.00,0.0611
1694.00,0.0672
1693.00,0.0727
1692.00,0.0783
1691.00,0.0843
1690.00,0.0905
1689.00,0.0967
1688.00,0.1022
1687.00,0.1071
1686.00,0.1117
1685.00,0.1170
1684.00,0.1231
1683.00,0.1282
1682.00,0.1316
1681.00,0.1340
1680.00,0.1362
1679.00,0.1381
1678.00,0.1395
1677.00,0.1408
1676.00,0.1422
1675.00,0.1438
1674.00,0.1452
1673.00,0.1465
1672.00,0.1478
1671.00,0.1494
1670.00,0.1515
1669.00,0.1541
1668.00,0.1569
1667.00,0.1594
1666.00,0.1616
1665.00,0.1638
1664.00,0.1662
1663.00,0.1689
1662.00,0.1715
1661.00,0.1737
1660.00,0.1753
1659.00,0.1763
1658.00,0.1768
1657.00,0.1768
1656.00,0.1763
1655.00,0.1751
1654.00,0.1731
1653.00,0.1705
1652.00,0.1679
1651.00,0.1651
1650.00,0.1620
1649.00,0.1579
1648.00,0.1527
1647.00,0.1466
1646.00,0.1402
1645.00,0.1341
1644.00,0.1285
1643.00,0.1229
1642.00,0.1171
1641.00,0.1112
1640.00,0.1054
1639.00,0.0999
1638.00,0.0947
1637.00,0.0892
1636.00,0.0836
1635.00,0.0785
1634.00,0.0743
1633.00,0.0711
1632.00,0.0684
1631.00,0.0660
1630.00,0.0640
1629.00,0.0623
1628.00,0.0610
1627.00,0.0601
1626.00,0.0595
1625.00,0.0591
1624.00,0.0590
1623.00,0.0592
1622.00,0.0594
1621.00,0.0594
1620.00,0.0593
1619.00,0.0590
1618.00,0.0583
1617.00,0.0573
1616.00,0.0560
1615.00,0.0546
1614.00,0.0531
1613.00,0.0514
1612.00,0.0495
1611.00,0.0477
1610.00,0.0459
1609.00,0.0441
1608.00,0.0425
1607.00,0.0411
1606.00,0.0401
1605.00,0.0392
1604.00,0.0387
1603.00,0.0385
1602.00,0.0385
1601.00,0.0389
1600.00,0.0396
1599.00,0.0406
1598.00,0.0416
1597.00,0.0426
1596.00,0.0436
1595.00,0.0445
1594.00,0.0453
1593.00,0.0458
1592.00,0.0461
1591.00,0.0463
1590.00,0.0463
1589.00,0.0461
1588.00,0.0459
1587.00,0.0454
1586.00,0.0447
1585.00,0.0437
1584.00,0.0424
1583.00,0.0410
1582.00,0.0395
1581.00,0.0378
1580.00,0.0362
1579.00,0.0347
1578.00,0.0333
1577.00,0.0317
1576.00,0.0303
1575.00,0.0291
1574.00,0.0282
1573.00,0.0274
1572.00,0.0267
1571.00,0.0260
1570.00,0.0252
1569.00,0.0245
1568.00,0.0239
1567.00,0.0235
1566.00,0.0230
1565.00,0.0225
1564.00,0.0220
1563.00,0.0216
1562.00,0.0212
1561.00,0.0209
1560.00,0.0206
1559.00,0.0204
1558.00,0.0203
1557.00,0.0200
1556.00,0.0198
1555.00,0.0197
1554.00,0.0196
1553.00,0.0194
1552.00,0.0193
1551.00,0.0192
1550.00,0.0191
1549.00,0.0190
1548.00,0.0190
1547.00,0.0189
1546.00,0.0188
1545.00,0.0187
1544.00,0.0186
1543.00,0.0186
1542.00,0.0186
1541.00,0.0186
1540.00,0.0186
1539.00,0.0186
1538.00,0.0186
1537.00,0.0185
1536.00,0.0185
1535.00,0.0185
1534.00,0.0185
1533.00,0.0185
1532.00,0.0185
1531.00,0.0184
1530.00,0.0184
1529.00,0.0184
1528.00,0.0184
1527.00,0.0184
1526.00,0.0185
1525.00,0.0185
1524.00,0.0186
1523.00,0.0187
1522.00,0.0188
1521.00,0.0189
1520.00,0.0191
1519.00,0.0192
1518.00,0.0194
1517.00,0.0195
1516.00,0.0196
1515.00,0.0196
1514.00,0.0197
1513.00,0.0197
1512.00,0.0198
1511.00,0.0198
1510.00,0.0198
1509.00,0.0200
1508.00,0.0204
1507.00,0.0211
1506.00,0.0221
1505.00,0.0230
1504.00,0.0239
1503.00,0.0249
1502.00,0.0262
1501.00,0.0276
1500.00,0.0293
1499.00,0.0311
1498.00,0.0330
1497.00,0.0350
1496.00,0.0366
1495.00,0.0378
1494.00,0.0384
1493.00,0.0385
1492.00,0.0380
1491.00,0.0369
1490.00,0.0354
1489.00,0.0336
1488.00,0.0318
1487.00,0.0300
1486.00,0.0284
1485.00,0.0270
1484.00,0.0258
1483.00,0.0248
1482.00,0.0240
1481.00,0.0235
1480.00,0.0233
1479.00,0.0233
1478.00,0.0236
1477.00,0.0241
1476.00,0.0249
1475.00,0.0259
1474.00,0.0274
1473.00,0.0298
1472.00,0.0327
1471.00,0.0360
1470.00,0.0393
1469.00,0.0430
1468.00,0.0468
1467.00,0.0510
1466.00,0.0557
1465.00,0.0607
1464.00,0.0654
1463.00,0.0689
1462.00,0.0712
1461.00,0.0724
1460.00,0.0727
1459.00,0.0718
1458.00,0.0699
1457.00,0.0673
1456.00,0.0648
1455.00,0.0627
1454.00,0.0613
1453.00,0.0603
1452.00,0.0599
1451.00,0.0601
1450.00,0.0609
1449.00,0.0626
1448.00,0.0649
1447.00,0.0676
1446.00,0.0706
1445.00,0.0738
1444.00,0.0772
1443.00,0.0805
1442.00,0.0839
1441.00,0.0871
1440.00,0.0899
1439.00,0.0924
1438.00,0.0950
1437.00,0.0980
1436.00,0.1012
1435.00,0.1040
1434.00,0.1065
1433.00,0.1091
1432.00,0.1121
1431.00,0.1152
1430.00,0.1184
1429.00,0.1214
1428.00,0.1240
1427.00,0.1258
1426.00,0.1272
1425.00,0.1283
1424.00,0.1289
1423.00,0.1286
1422.00,0.1271
1421.00,0.1243
1420.00,0.1196
1419.00,0.1129
1418.00,0.1054
1417.00,0.0982
1416.00,0.0913
1415.00,0.0846
1414.00,0.0783
1413.00,0.0728
1412.00,0.0680
1411.00,0.0639
1410.00,0.0606
1409.00,0.0580
1408.00,0.0560
1407.00,0.0543
1406.00,0.0530
1405.00,0.0520
1404.00,0.0511
1403.00,0.0504
1402.00,0.0499
1401.00,0.0493
1400.00,0.0487
1399.00,0.0482
1398.00,0.0476
1397.00,0.0471
1396.00,0.0467
1395.00,0.0463
1394.00,0.0460
1393.00,0.0459
1392.00,0.0458
1391.00,0.0458
1390.00,0.0460
1389.00,0.0463
1388.00,0.0469
1387.00,0.0477
1386.00,0.0487
1385.00,0.0499
1384.00,0.0513
1383.00,0.0528
1382.00,0.0546
1381.00,0.0564
1380.00,0.0582
1379.00,0.0600
1378.00,0.0615
1377.00,0.0627
1376.00,0.0634
1375.00,0.0636
1374.00,0.0633
1373.00,0.0626
1372.00,0.0615
1371.00,0.0603
1370.00,0.0591
1369.00,0.0578
1368.00,0.0566
1367.00,0.0555
1366.00,0.0544
1365.00,0.0533
1364.00,0.0521
1363.00,0.0508
1362.00,0.0495
1361.00,0.0483
1360.00,0.0472
1359.00,0.0460
1358.00,0.0449
1357.00,0.0438
1356.00,0.0428
1355.00,0.0418
1354.00,0.0410
1353.00,0.0402
1352.00,0.0396
1351.00,0.0389
1350.00,0.0384
1349.00,0.0379
1348.00,0.0375
1347.00,0.0371
1346.00,0.0369
1345.00,0.0366
1344.00,0.0364
1343.00,0.0362
1342.00,0.0361
1341.00,0.0360
1340.00,0.0360
1339.00,0.0360
1338.00,0.0361
1337.00,0.0362
1336.00,0.0363
1335.00,0.0365
1334.00,0.0367
1333.00,0.0369
1332.00,0.0372
1331.00,0.0376
1330.00,0.0381
1329.00,0.0387
1328.00,0.0396
1327.00,0.0406
1326.00,0.0418
1325.00,0.0431
1324.00,0.0446
1323.00,0.0461
1322.00,0.0476
1321.00,0.0489
1320.00,0.0501
1319.00,0.0511
1318.00,0.0517
1317.00,0.0520
1316.00,0.0519
1315.00,0.0515
1314.00,0.0508
1313.00,0.0500
1312.00,0.0491
1311.00,0.0482
1310.00,0.0474
1309.00,0.0467
1308.00,0.0463
1307.00,0.0461
1306.00,0.0461
1305.00,0.0464
1304.00,0.0471
1303.00,0.0483
1302.00,0.0500
1301.00,0.0523
1300.00,0.0553
1299.00,0.0593
1298.00,0.0641
1297.00,0.0700
1296.00,0.0766
1295.00,0.0839
1294.00,0.0913
1293.00,0.0987
1292.00,0.1057
1291.00,0.1118
1290.00,0.1169
1289.00,0.1208
1288.00,0.1234
1287.00,0.1247
1286.00,0.1246
1285.00,0.1232
1284.00,0.1207
1283.00,0.1174
1282.00,0.1137
1281.00,0.1100
1280.00,0.1069
1279.00,0.1045
1278.00,0.1031
1277.00,0.1025
1276.00,0.1026
1275.00,0.1032
1274.00,0.1039
1273.00,0.1044
1272.00,0.1044
1271.00,0.1038
1270.00,0.1023
1269.00,0.1002
1268.00,0.0974
1267.00,0.0941
1266.00,0.0905
1265.00,0.0869
1264.00,0.0833
1263.00,0.0801
1262.00,0.0772
1261.00,0.0748
1260.00,0.0729
1259.00,0.0716
1258.00,0.0707
1257.00,0.0704
1256.00,0.0703
1255.00,0.0705
1254.00,0.0708
1253.00,0.0710
1252.00,0.0711
1251.00,0.0711
1250.00,0.0709
1249.00,0.0706
1248.00,0.0701
1247.00,0.0694
1246.00,0.0687
1245.00,0.0679
1244.00,0.0670
1243.00,0.0661
1242.00,0.0652
1241.00,0.0642
1240.00,0.0634
1239.00,0.0626
1238.00,0.0620
1237.00,0.0615
1236.00,0.0612
1235.00,0.0610
1234.00,0.0610
1233.00,0.0609
1232.00,0.0609
1231.00,0.0609
1230.00,0.0608
1229.00,0.0608
1228.00,0.0607
1227.00,0.0607
1226.00,0.0605
1225.00,0.0604
1224.00,0.0601
1223.00,0.0598
1222.00,0.0594
1221.00,0.0589
1220.00,0.0583
1219.00,0.0577
1218.00,0.0570
1217.00,0.0562
1216.00,0.0553
1215.00,0.0543
1214.00,0.0533
1213.00,0.0522
1212.00,0.0511
1211.00,0.0500
1210.00,0.0489
1209.00,0.0479
1208.00,0.0471
1207.00,0.0464
1206.00,0.0459
1205.00,0.0455
1204.00,0.0452
1203.00,0.0449
1202.00,0.0446
1201.00,0.0442
1200.00,0.0438
1199.00,0.0434
1198.00,0.0431
1197.00,0.0428
1196.00,0.0425
1195.00,0.0424
1194.00,0.0422
1193.00,0.0421
1192.00,0.0419
1191.00,0.0417
1190.00,0.0415
1189.00,0.0412
1188.00,0.0409
1187.00,0.0406
1186.00,0.0402
1185.00,0.0398
1184.00,0.0394
1183.00,0.0390
1182.00,0.0387
1181.00,0.0386
1180.00,0.0387
1179.00,0.0391
1178.00,0.0397
1177.00,0.0405
1176.00,0.0415
1175.00,0.0425
1174.00,0.0436
1173.00,0.0447
1172.00,0.0455
1171.00,0.0462
1170.00,0.0465
1169.00,0.0467
1168.00,0.0466
1167.00,0.0463
1166.00,0.0460
1165.00,0.0456
1164.00,0.0452
1163.00,0.0449
1162.00,0.0446
1161.00,0.0445
1160.00,0.0445
1159.00,0.0448
1158.00,0.0454
1157.00,0.0462
1156.00,0.0471
1155.00,0.0479
1154.00,0.0483
1153.00,0.0483
1152.00,0.0477
1151.00,0.0466
1150.00,0.0451
1149.00,0.0433
1148.00,0.0414
1147.00,0.0395
1146.00,0.0378
1145.00,0.0362
1144.00,0.0350
1143.00,0.0340
1142.00,0.0332
1141.00,0.0328
1140.00,0.0325
1139.00,0.0324
1138.00,0.0325
1137.00,0.0327
1136.00,0.0329
1135.00,0.0332
1134.00,0.0335
1133.00,0.0338
1132.00,0.0340
1131.00,0.0341
1130.00,0.0339
1129.00,0.0336
1128.00,0.0330
1127.00,0.0322
1126.00,0.0314
1125.00,0.0305
1124.00,0.0298
1123.00,0.0292
1122.00,0.0287
1121.00,0.0284
1120.00,0.0282
1119.00,0.0280
1118.00,0.0280
1117.00,0.0281
1116.00,0.0282
1115.00,0.0284
1114.00,0.0287
1113.00,0.0289
1112.00,0.0292
1111.00,0.0294
1110.00,0.0296
1109.00,0.0298
1108.00,0.0299
1107.00,0.0301
1106.00,0.0302
1105.00,0.0303
1104.00,0.0305
1103.00,0.0307
1102.00,0.0310
1101.00,0.0312
1100.00,0.0314
1099.00,0.0315
1098.00,0.0316
1097.00,0.0315
1096.00,0.0314
1095.00,0.0311
1094.00,0.0308
1093.00,0.0303
1092.00,0.0298
1091.00,0.0293
1090.00,0.0288
1089.00,0.0284
1088.00,0.0281
1087.00,0.0279
1086.00,0.0278
1085.00,0.0278
1084.00,0.0280
1083.00,0.0282
1082.00,0.0284
1081.00,0.0287
1080.00,0.0291
1079.00,0.0295
1078.00,0.0299
1077.00,0.0302
1076.00,0.0303
1075.00,0.0303
1074.00,0.0302
1073.00,0.0300
1072.00,0.0298
1071.00,0.0295
1070.00,0.0293
1069.00,0.0292
1068.00,0.0291
1067.00,0.0293
1066.00,0.0298
1065.00,0.0305
1064.00,0.0315
1063.00,0.0329
1062.00,0.0347
1061.00,0.0371
1060.00,0.0399
1059.00,0.0430
1058.00,0.0460
1057.00,0.0485
1056.00,0.0500
1055.00,0.0502
1054.00,0.0491
1053.00,0.0470
1052.00,0.0443
1051.00,0.0415
1050.00,0.0389
1049.00,0.0368
1048.00,0.0353
1047.00,0.0342
1046.00,0.0336
1045.00,0.0333
1044.00,0.0335
1043.00,0.0340
1042.00,0.0349
1041.00,0.0362
1040.00,0.0379
1039.00,0.0401
1038.00,0.0427
1037.00,0.0457
1036.00,0.0490
1035.00,0.0524
1034.00,0.0555
1033.00,0.0581
1032.00,0.0600
1031.00,0.0610
1030.00,0.0609
1029.00,0.0598
1028.00,0.0579
1027.00,0.0554
1026.00,0.0528
1025.00,0.0502
1024.00,0.0479
1023.00,0.0461
1022.00,0.0448
1021.00,0.0439
1020.00,0.0432
1019.00,0.0426
1018.00,0.0420
1017.00,0.0412
1016.00,0.0403
1015.00,0.0391
1014.00,0.0378
1013.00,0.0364
1012.00,0.0351
1011.00,0.0340
1010.00,0.0331
1009.00,0.0326
1008.00,0.0324
1007.00,0.0325
1006.00,0.0327
1005.00,0.0329
1004.00,0.0330
1003.00,0.0330
1002.00,0.0330
1001.00,0.0327
1000.00,0.0324
999.00,0.0318
998.00,0.0311
997.00,0.0304
996.00,0.0297
995.00,0.0290
994.00,0.0285
993.00,0.0281
992.00,0.0278
991.00,0.0277
990.00,0.0277
989.00,0.0277
988.00,0.0276
987.00,0.0275
986.00,0.0273
985.00,0.0270
984.00,0.0266
983.00,0.0262
982.00,0.0257
981.00,0.0253
980.00,0.0250
979.00,0.0248
978.00,0.0247
977.00,0.0246
976.00,0.0245
975.00,0.0245
974.00,0.0245
973.00,0.0245
972.00,0.0245
971.00,0.0245
970.00,0.0246
969.00,0.0247
968.00,0.0249
967.00,0.0250
966.00,0.0252
965.00,0.0254
964.00,0.0256
963.00,0.0259
962.00,0.0263
961.00,0.0268
960.00,0.0274
959.00,0.0280
958.00,0.0286
957.00,0.0291
956.00,0.0294
955.00,0.0295
954.00,0.0293
953.00,0.0289
952.00,0.0283
951.00,0.0275
950.00,0.0266
949.00,0.0256
948.00,0.0247
947.00,0.0238
946.00,0.0230
945.00,0.0224
944.00,0.0219
943.00,0.0216
942.00,0.0214
941.00,0.0214
940.00,0.0216
939.00,0.0219
938.00,0.0224
937.00,0.0229
936.00,0.0236
935.00,0.0242
934.00,0.0248
933.00,0.0252
932.00,0.0253
931.00,0.0251
930.00,0.0246
929.00,0.0241
928.00,0.0235
927.00,0.0231
926.00,0.0227
925.00,0.0223
924.00,0.0220
923.00,0.0217
922.00,0.0215
921.00,0.0214
920.00,0.0214
919.00,0.0214
918.00,0.0214
917.00,0.0216
916.00,0.0217
915.00,0.0218
914.00,0.0220
913.00,0.0221
912.00,0.0222
911.00,0.0224
910.00,0.0225
909.00,0.0228
908.00,0.0232
907.00,0.0238
906.00,0.0244
905.00,0.0252
904.00,0.0260
903.00,0.0268
902.00,0.0276
901.00,0.0284
900.00,0.0292
899.00,0.0300
898.00,0.0306
897.00,0.0311
896.00,0.0316
895.00,0.0319
894.00,0.0322
893.00,0.0325
892.00,0.0327
891.00,0.0330
890.00,0.0333
889.00,0.0336
888.00,0.0339
887.00,0.0343
886.00,0.0347
885.00,0.0351
884.00,0.0354
883.00,0.0356
882.00,0.0356
881.00,0.0354
880.00,0.0352
879.00,0.0350
878.00,0.0346
877.00,0.0342
876.00,0.0337
875.00,0.0330
874.00,0.0324
873.00,0.0318
872.00,0.0313
871.00,0.0308
870.00,0.0305
869.00,0.0303
868.00,0.0302
867.00,0.0302
866.00,0.0303
865.00,0.0305
864.00,0.0307
863.00,0.0311
862.00,0.0315
861.00,0.0321
860.00,0.0328
859.00,0.0336
858.00,0.0345
857.00,0.0356
856.00,0.0368
855.00,0.0379
854.00,0.0390
853.00,0.0399
852.00,0.0408
851.00,0.0416
850.00,0.0423
849.00,0.0430
848.00,0.0436
847.00,0.0442
846.00,0.0446
845.00,0.0448
844.00,0.0450
843.00,0.0450
842.00,0.0450
841.00,0.0450
840.00,0.0450
839.00,0.0450
838.00,0.0450
837.00,0.0452
836.00,0.0453
835.00,0.0455
834.00,0.0456
833.00,0.0458
832.00,0.0459
831.00,0.0460
830.00,0.0459
829.00,0.0456
828.00,0.0452
827.00,0.0446
826.00,0.0438
825.00,0.0429
824.00,0.0420
823.00,0.0411
822.00,0.0403
821.00,0.0396
820.00,0.0390
819.00,0.0384
818.00,0.0377
817.00,0.0369
816.00,0.0361
815.00,0.0353
814.00,0.0345
813.00,0.0338
812.00,0.0332
811.00,0.0327
810.00,0.0322
809.00,0.0319
808.00,0.0316
807.00,0.0315
806.00,0.0315
805.00,0.0314
804.00,0.0312
803.00,0.0308
802.00,0.0302
801.00,0.0297
800.00,0.0292
799.00,0.0289
798.00,0.0289
797.00,0.0290
796.00,0.0293
795.00,0.0295
794.00,0.0297
793.00,0.0298
792.00,0.0299
791.00,0.0298
790.00,0.0296
789.00,0.0294
788.00,0.0291
787.00,0.0288
786.00,0.0286
785.00,0.0285
784.00,0.0285
783.00,0.0285
782.00,0.0286
781.00,0.0288
780.00,0.0291
779.00,0.0295
778.00,0.0299
777.00,0.0304
776.00,0.0308
775.00,0.0312
774.00,0.0315
773.00,0.0318
772.00,0.0320
771.00,0.0323
770.00,0.0324
769.00,0.0325
768.00,0.0325
767.00,0.0326
766.00,0.0326
765.00,0.0328
764.00,0.0331
763.00,0.0336
762.00,0.0341
761.00,0.0347
760.00,0.0353
759.00,0.0360
758.00,0.0366
757.00,0.0371
756.00,0.0374
755.00,0.0376
754.00,0.0375
753.00,0.0374
752.00,0.0373
751.00,0.0373
750.00,0.0373
749.00,0.0375
748.00,0.0378
747.00,0.0381
746.00,0.0386
745.00,0.0391
744.00,0.0397
743.00,0.0403
742.00,0.0409
741.00,0.0415
740.00,0.0423
739.00,0.0430
738.00,0.0436
737.00,0.0442
736.00,0.0446
735.00,0.0450
734.00,0.0451
733.00,0.0451
732.00,0.0448
731.00,0.0444
730.00,0.0438
729.00,0.0430
728.00,0.0422
727.00,0.0413
726.00,0.0404
725.00,0.0396
724.00,0.0389
723.00,0.0382
722.00,0.0376
721.00,0.0371
720.00,0.0367
719.00,0.0363
718.00,0.0360
717.00,0.0358
716.00,0.0356
715.00,0.0354
714.00,0.0352
713.00,0.0351
712.00,0.0350
711.00,0.0349
710.00,0.0348
709.00,0.0348
708.00,0.0348
707.00,0.0349
706.00,0.0349
705.00,0.0349
704.00,0.0349
703.00,0.0350
702.00,0.0351
701.00,0.0352
700.00,0.0353
699.00,0.0355
698.00,0.0357
697.00,0.0360
696.00,0.0362
695.00,0.0365
694.00,0.0368
693.00,0.0371
692.00,0.0374
691.00,0.0377
690.00,0.0381
689.00,0.0385
688.00,0.0389
687.00,0.0394
686.00,0.0398
685.00,0.0403
684.00,0.0408
683.00,0.0413
682.00,0.0417
681.00,0.0421
680.00,0.0425
679.00,0.0428
678.00,0.0433
677.00,0.0438
676.00,0.0442
675.00,0.0447
674.00,0.0451
673.00,0.0455
672.00,0.0458
671.00,0.0461
670.00,0.0463
669.00,0.0470
668.00,0.0483
667.00,0.0495
666.00,0.0502
665.00,0.0507
664.00,0.0512
663.00,0.0519
662.00,0.0527
661.00,0.0536
660.00,0.0545
659.00,0.0554
658.00,0.0564
657.00,0.0574
656.00,0.0586
655.00,0.0598
654.00,0.0609
653.00,0.0618
652.00,0.0627
651.00,0.0634
650.00,0.0639
649.00,0.0642
648.00,0.0643
647.00,0.0642
646.00,0.0637
645.00,0.0630
644.00,0.0622
643.00,0.0612
642.00,0.0601
641.00,0.0588
640.00,0.0576
639.00,0.0563
638.00,0.0550
637.00,0.0539
636.00,0.0528
635.00,0.0517
634.00,0.0507
633.00,0.0497
632.00,0.0489
631.00,0.0481
630.00,0.0474
629.00,0.0467
628.00,0.0461
627.00,0.0456
626.00,0.0450
625.00,0.0445
624.00,0.0441
623.00,0.0438
622.00,0.0435
621.00,0.0434
620.00,0.0434
619.00,0.0434
618.00,0.0434
617.00,0.0434
616.00,0.0434
615.00,0.0434
614.00,0.0435
613.00,0.0436
612.00,0.0438
611.00,0.0440
610.00,0.0441
609.00,0.0442
608.00,0.0443
607.00,0.0445
606.00,0.0446
605.00,0.0446
604.00,0.0445
603.00,0.0445
602.00,0.0447
601.00,0.0449
600.00,0.0452
599.00,0.0454
598.00,0.0455
597.00,0.0456
596.00,0.0458
595.00,0.0460
594.00,0.0462
593.00,0.0464
592.00,0.0466
591.00,0.0469
590.00,0.0473
589.00,0.0479
588.00,0.0487
587.00,0.0497
586.00,0.0508
585.00,0.0520
584.00,0.0533
583.00,0.0545
582.00,0.0556
581.00,0.0568
580.00,0.0579
579.00,0.0588
578.00,0.0594
577.00,0.0598
576.00,0.0600
575.00,0.0600
574.00,0.0598
573.00,0.0595
572.00,0.0591
571.00,0.0586
570.00,0.0581
569.00,0.0576
568.00,0.0570
567.00,0.0564
566.00,0.0557
565.00,0.0550
564.00,0.0543
563.00,0.0534
562.00,0.0526
561.00,0.0520
560.00,0.0515
559.00,0.0512
558.00,0.0510
557.00,0.0510
556.00,0.0510
555.00,0.0510
554.00,0.0511
553.00,0.0512
552.00,0.0512
551.00,0.0511
550.00,0.0507
549.00,0.0502
548.00,0.0498
547.00,0.0493
546.00,0.0487
545.00,0.0481
544.00,0.0474
543.00,0.0468
542.00,0.0462
541.00,0.0457
540.00,0.0453
539.00,0.0450
538.00,0.0447
537.00,0.0446
536.00,0.0445
535.00,0.0445
534.00,0.0447
533.00,0.0450
532.00,0.0453
531.00,0.0453
530.00,0.0452
529.00,0.0453
528.00,0.0456
527.00,0.0462
526.00,0.0468
525.00,0.0474
524.00,0.0477
523.00,0.0476
522.00,0.0471
521.00,0.0463
520.00,0.0455
519.00,0.0447
518.00,0.0439
517.00,0.0432
516.00,0.0426
515.00,0.0421
514.00,0.0416
513.00,0.0412
512.00,0.0409
511.00,0.0406
510.00,0.0404
509.00,0.0402
508.00,0.0399
507.00,0.0397
506.00,0.0395
505.00,0.0394
504.00,0.0394
503.00,0.0396
502.00,0.0398
501.00,0.0399
500.00,0.0400
499.00,0.0400
498.00,0.0399
497.00,0.0400
496.00,0.0402
495.00,0.0404
494.00,0.0406
493.00,0.0408
492.00,0.0412
491.00,0.0416
490.00,0.0420
489.00,0.0423
488.00,0.0426
487.00,0.0428
486.00,0.0429
485.00,0.0429
484.00,0.0430
483.00,0.0430
482.00,0.0430
481.00,0.0429
480.00,0.0428
479.00,0.0427
478.00,0.0426
477.00,0.0426
476.00,0.0428
475.00,0.0430
474.00,0.0432
473.00,0.0433
472.00,0.0436
471.00,0.0436
470.00,0.0434
469.00,0.0432
468.00,0.0432
467.00,0.0432
466.00,0.0431
465.00,0.0429
464.00,0.0425
463.00,0.0422
462.00,0.0419
461.00,0.0418
460.00,0.0417
459.00,0.0416
458.00,0.0413
457.00,0.0410
456.00,0.0406
455.00,0.0402
454.00,0.0399
453.00,0.0398
452.00,0.0399
451.00,0.0399
450.00,0.0397
449.00,0.0396
448.00,0.0397
447.00,0.0398
446.00,0.0397
445.00,0.0394
444.00,0.0392
443.00,0.0390
442.00,0.0388
441.00,0.0387
440.00,0.0386
439.00,0.0385
438.00,0.0384
437.00,0.0384
436.00,0.0385
435.00,0.0384
434.00,0.0381
433.00,0.0377
432.00,0.0374
431.00,0.0371
430.00,0.0367
429.00,0.0366
428.00,0.0367
427.00,0.0371
426.00,0.0375
425.00,0.0377
424.00,0.0379
423.00,0.0380
422.00,0.0381
421.00,0.0382
420.00,0.0385
419.00,0.0387
418.00,0.0387
417.00,0.0387
416.00,0.0384
415.00,0.0376
414.00,0.0366
413.00,0.0359
412.00,0.0356
411.00,0.0355
410.00,0.0353
409.00,0.0355
408.00,0.0366
407.00,0.0378
406.00,0.0383
405.00,0.0380
404.00,0.0372
403.00,0.0364
402.00,0.0357
401.00,0.0357
400.00,0.0367
