Created as New Dataset,Sample 279 By YargerLab Date Saturday, October 18 2025
cm-1,A
4000.00,0.0066
3999.00,0.0065
3998.00,0.0065
3997.00,0.0065
3996.00,0.0065
3995.00,0.0065
3994.00,0.0065
3993.00,0.0065
3992.00,0.0065
3991.00,0.0065
3990.00,0.0065
3989.00,0.0065
3988.00,0.0065
3987.00,0.0065
3986.00,0.0065
3985.00,0.0065
3984.00,0.0065
3983.00,0.0065
3982.00,0.0065
3981.00,0.0065
3980.00,0.0066
3979.00,0.0066
3978.00,0.0066
3977.00,0.0066
3976.00,0.0066
3975.00,0.0065
3974.00,0.0065
3973.00,0.0065
3972.00,0.0065
3971.00,0.0065
3970.00,0.0065
3969.00,0.0065
3968.00,0.0065
3967.00,0.0065
3966.00,0.0065
3965.00,0.0065
3964.00,0.0065
3963.00,0.0065
3962.00,0.0065
3961.00,0.0065
3960.00,0.0065
3959.00,0.0065
3958.00,0.0065
3957.00,0.0065
3956.00,0.0065
3955.00,0.0065
3954.00,0.0065
3953.00,0.0065
3952.00,0.0065
3951.00,0.0065
3950.00,0.0065
3949.00,0.0065
3948.00,0.0064
3947.00,0.0064
3946.00,0.0065
3945.00,0.0065
3944.00,0.0065
3943.00,0.0065
3942.00,0.0065
3941.00,0.0065
3940.00,0.0065
3939.00,0.0065
3938.00,0.0064
3937.00,0.0065
3936.00,0.0065
3935.00,0.0065
3934.00,0.0065
3933.00,0.0065
3932.00,0.0065
3931.00,0.0065
3930.00,0.0065
3929.00,0.0065
3928.00,0.0065
3927.00,0.0065
3926.00,0.0065
3925.00,0.0065
3924.00,0.0065
3923.00,0.0065
3922.00,0.0064
3921.00,0.0065
3920.00,0.0065
3919.00,0.0065
3918.00,0.0065
3917.00,0.0064
3916.00,0.0064
3915.00,0.0064
3914.00,0.0064
3913.00,0.0065
3912.00,0.0065
3911.00,0.0065
3910.00,0.0065
3909.00,0.0065
3908.00,0.0065
3907.00,0.0065
3906.00,0.0065
3905.00,0.0065
3904.00,0.0065
3903.00,0.0065
3902.00,0.0065
3901.00,0.0065
3900.00,0.0065
3899.00,0.0065
3898.00,0.0064
3897.00,0.0064
3896.00,0.0064
3895.00,0.0064
3894.00,0.0064
3893.00,0.0065
3892.00,0.0065
3891.00,0.0065
3890.00,0.0065
3889.00,0.0065
3888.00,0.0065
3887.00,0.0065
3886.00,0.0064
3885.00,0.0064
3884.00,0.0064
3883.00,0.0064
3882.00,0.0064
3881.00,0.0064
3880.00,0.0064
3879.00,0.0065
3878.00,0.0065
3877.00,0.0064
3876.00,0.0064
3875.00,0.0064
3874.00,0.0065
3873.00,0.0065
3872.00,0.0065
3871.00,0.0064
3870.00,0.0064
3869.00,0.0064
3868.00,0.0064
3867.00,0.0064
3866.00,0.0064
3865.00,0.0064
3864.00,0.0064
3863.00,0.0064
3862.00,0.0064
3861.00,0.0064
3860.00,0.0064
3859.00,0.0064
3858.00,0.0064
3857.00,0.0065
3856.00,0.0065
3855.00,0.0065
3854.00,0.0065
3853.00,0.0065
3852.00,0.0065
3851.00,0.0065
3850.00,0.0065
3849.00,0.0065
3848.00,0.0065
3847.00,0.0065
3846.00,0.0065
3845.00,0.0065
3844.00,0.0065
3843.00,0.0065
3842.00,0.0064
3841.00,0.0064
3840.00,0.0064
3839.00,0.0063
3838.00,0.0063
3837.00,0.0064
3836.00,0.0064
3835.00,0.0064
3834.00,0.0064
3833.00,0.0064
3832.00,0.0064
3831.00,0.0064
3830.00,0.0064
3829.00,0.0064
3828.00,0.0064
3827.00,0.0064
3826.00,0.0064
3825.00,0.0064
3824.00,0.0064
3823.00,0.0064
3822.00,0.0064
3821.00,0.0064
3820.00,0.0064
3819.00,0.0064
3818.00,0.0064
3817.00,0.0064
3816.00,0.0064
3815.00,0.0064
3814.00,0.0064
3813.00,0.0064
3812.00,0.0064
3811.00,0.0064
3810.00,0.0064
3809.00,0.0064
3808.00,0.0064
3807.00,0.0064
3806.00,0.0064
3805.00,0.0064
3804.00,0.0064
3803.00,0.0064
3802.00,0.0063
3801.00,0.0064
3800.00,0.0064
3799.00,0.0064
3798.00,0.0064
3797.00,0.0063
3796.00,0.0063
3795.00,0.0064
3794.00,0.0064
3793.00,0.0064
3792.00,0.0064
3791.00,0.0064
3790.00,0.0064
3789.00,0.0064
3788.00,0.0064
3787.00,0.0064
3786.00,0.0064
3785.00,0.0064
3784.00,0.0064
3783.00,0.0064
3782.00,0.0064
3781.00,0.0064
3780.00,0.0064
3779.00,0.0064
3778.00,0.0064
3777.00,0.0064
3776.00,0.0064
3775.00,0.0064
3774.00,0.0064
3773.00,0.0064
3772.00,0.0064
3771.00,0.0064
3770.00,0.0064
3769.00,0.0064
3768.00,0.0064
3767.00,0.0064
3766.00,0.0064
3765.00,0.0064
3764.00,0.0064
3763.00,0.0064
3762.00,0.0064
3761.00,0.0064
3760.00,0.0064
3759.00,0.0064
3758.00,0.0064
3757.00,0.0064
3756.00,0.0064
3755.00,0.0063
3754.00,0.0063
3753.00,0.0063
3752.00,0.0062
3751.00,0.0062
3750.00,0.0063
3749.00,0.0063
3748.00,0.0064
3747.00,0.0064
3746.00,0.0064
3745.00,0.0064
3744.00,0.0064
3743.00,0.0064
3742.00,0.0064
3741.00,0.0064
3740.00,0.0063
3739.00,0.0063
3738.00,0.0063
3737.00,0.0063
3736.00,0.0063
3735.00,0.0062
3734.00,0.0062
3733.00,0.0062
3732.00,0.0062
3731.00,0.0063
3730.00,0.0063
3729.00,0.0063
3728.00,0.0063
3727.00,0.0064
3726.00,0.0064
3725.00,0.0063
3724.00,0.0063
3723.00,0.0063
3722.00,0.0063
3721.00,0.0063
3720.00,0.0063
3719.00,0.0063
3718.00,0.0063
3717.00,0.0063
3716.00,0.0063
3715.00,0.0063
3714.00,0.0063
3713.00,0.0063
3712.00,0.0063
3711.00,0.0063
3710.00,0.0063
3709.00,0.0063
3708.00,0.0063
3707.00,0.0063
3706.00,0.0063
3705.00,0.0063
3704.00,0.0063
3703.00,0.0063
3702.00,0.0062
3701.00,0.0062
3700.00,0.0062
3699.00,0.0062
3698.00,0.0062
3697.00,0.0062
3696.00,0.0062
3695.00,0.0062
3694.00,0.0062
3693.00,0.0062
3692.00,0.0062
3691.00,0.0062
3690.00,0.0063
3689.00,0.0063
3688.00,0.0063
3687.00,0.0063
3686.00,0.0063
3685.00,0.0063
3684.00,0.0063
3683.00,0.0063
3682.00,0.0064
3681.00,0.0064
3680.00,0.0063
3679.00,0.0063
3678.00,0.0063
3677.00,0.0063
3676.00,0.0063
3675.00,0.0063
3674.00,0.0063
3673.00,0.0063
3672.00,0.0063
3671.00,0.0063
3670.00,0.0063
3669.00,0.0063
3668.00,0.0063
3667.00,0.0063
3666.00,0.0063
3665.00,0.0063
3664.00,0.0063
3663.00,0.0063
3662.00,0.0063
3661.00,0.0063
3660.00,0.0063
3659.00,0.0063
3658.00,0.0064
3657.00,0.0064
3656.00,0.0064
3655.00,0.0064
3654.00,0.0064
3653.00,0.0063
3652.00,0.0063
3651.00,0.0063
3650.00,0.0063
3649.00,0.0063
3648.00,0.0064
3647.00,0.0064
3646.00,0.0064
3645.00,0.0065
3644.00,0.0065
3643.00,0.0065
3642.00,0.0065
3641.00,0.0065
3640.00,0.0065
3639.00,0.0065
3638.00,0.0065
3637.00,0.0065
3636.00,0.0065
3635.00,0.0066
3634.00,0.0066
3633.00,0.0067
3632.00,0.0067
3631.00,0.0068
3630.00,0.0068
3629.00,0.0068
3628.00,0.0068
3627.00,0.0068
3626.00,0.0068
3625.00,0.0068
3624.00,0.0069
3623.00,0.0069
3622.00,0.0069
3621.00,0.0069
3620.00,0.0070
3619.00,0.0070
3618.00,0.0070
3617.00,0.0070
3616.00,0.0071
3615.00,0.0071
3614.00,0.0070
3613.00,0.0070
3612.00,0.0071
3611.00,0.0071
3610.00,0.0071
3609.00,0.0071
3608.00,0.0072
3607.00,0.0072
3606.00,0.0072
3605.00,0.0072
3604.00,0.0072
3603.00,0.0072
3602.00,0.0072
3601.00,0.0072
3600.00,0.0073
3599.00,0.0073
3598.00,0.0073
3597.00,0.0074
3596.00,0.0074
3595.00,0.0074
3594.00,0.0074
3593.00,0.0075
3592.00,0.0075
3591.00,0.0076
3590.00,0.0076
3589.00,0.0077
3588.00,0.0077
3587.00,0.0077
3586.00,0.0076
3585.00,0.0076
3584.00,0.0077
3583.00,0.0077
3582.00,0.0077
3581.00,0.0077
3580.00,0.0078
3579.00,0.0078
3578.00,0.0078
3577.00,0.0079
3576.00,0.0079
3575.00,0.0079
3574.00,0.0080
3573.00,0.0080
3572.00,0.0080
3571.00,0.0081
3570.00,0.0081
3569.00,0.0081
3568.00,0.0082
3567.00,0.0082
3566.00,0.0082
3565.00,0.0081
3564.00,0.0082
3563.00,0.0082
3562.00,0.0082
3561.00,0.0083
3560.00,0.0083
3559.00,0.0084
3558.00,0.0084
3557.00,0.0084
3556.00,0.0084
3555.00,0.0085
3554.00,0.0085
3553.00,0.0086
3552.00,0.0086
3551.00,0.0087
3550.00,0.0087
3549.00,0.0087
3548.00,0.0087
3547.00,0.0087
3546.00,0.0087
3545.00,0.0087
3544.00,0.0087
3543.00,0.0088
3542.00,0.0088
3541.00,0.0088
3540.00,0.0089
3539.00,0.0089
3538.00,0.0089
3537.00,0.0089
3536.00,0.0089
3535.00,0.0090
3534.00,0.0090
3533.00,0.0090
3532.00,0.0090
3531.00,0.0091
3530.00,0.0091
3529.00,0.0091
3528.00,0.0092
3527.00,0.0092
3526.00,0.0092
3525.00,0.0092
3524.00,0.0092
3523.00,0.0092
3522.00,0.0092
3521.00,0.0093
3520.00,0.0093
3519.00,0.0094
3518.00,0.0094
3517.00,0.0094
3516.00,0.0095
3515.00,0.0095
3514.00,0.0095
3513.00,0.0095
3512.00,0.0095
3511.00,0.0096
3510.00,0.0096
3509.00,0.0096
3508.00,0.0097
3507.00,0.0097
3506.00,0.0097
3505.00,0.0097
3504.00,0.0098
3503.00,0.0098
3502.00,0.0099
3501.00,0.0099
3500.00,0.0099
3499.00,0.0100
3498.00,0.0100
3497.00,0.0100
3496.00,0.0100
3495.00,0.0101
3494.00,0.0101
3493.00,0.0101
3492.00,0.0101
3491.00,0.0101
3490.00,0.0102
3489.00,0.0102
3488.00,0.0103
3487.00,0.0103
3486.00,0.0104
3485.00,0.0104
3484.00,0.0105
3483.00,0.0105
3482.00,0.0105
3481.00,0.0105
3480.00,0.0106
3479.00,0.0106
3478.00,0.0107
3477.00,0.0107
3476.00,0.0107
3475.00,0.0108
3474.00,0.0108
3473.00,0.0108
3472.00,0.0108
3471.00,0.0108
3470.00,0.0108
3469.00,0.0109
3468.00,0.0109
3467.00,0.0109
3466.00,0.0110
3465.00,0.0110
3464.00,0.0110
3463.00,0.0110
3462.00,0.0111
3461.00,0.0111
3460.00,0.0111
3459.00,0.0112
3458.00,0.0112
3457.00,0.0112
3456.00,0.0113
3455.00,0.0113
3454.00,0.0114
3453.00,0.0114
3452.00,0.0114
3451.00,0.0114
3450.00,0.0115
3449.00,0.0115
3448.00,0.0115
3447.00,0.0115
3446.00,0.0116
3445.00,0.0116
3444.00,0.0116
3443.00,0.0116
3442.00,0.0116
3441.00,0.0116
3440.00,0.0116
3439.00,0.0117
3438.00,0.0117
3437.00,0.0117
3436.00,0.0118
3435.00,0.0118
3434.00,0.0118
3433.00,0.0118
3432.00,0.0118
3431.00,0.0118
3430.00,0.0119
3429.00,0.0119
3428.00,0.0119
3427.00,0.0119
3426.00,0.0119
3425.00,0.0119
3424.00,0.0119
3423.00,0.0120
3422.00,0.0120
3421.00,0.0120
3420.00,0.0120
3419.00,0.0120
3418.00,0.0120
3417.00,0.0121
3416.00,0.0121
3415.00,0.0121
3414.00,0.0121
3413.00,0.0121
3412.00,0.0121
3411.00,0.0121
3410.00,0.0121
3409.00,0.0121
3408.00,0.0122
3407.00,0.0122
3406.00,0.0122
3405.00,0.0122
3404.00,0.0122
3403.00,0.0122
3402.00,0.0122
3401.00,0.0122
3400.00,0.0122
3399.00,0.0122
3398.00,0.0122
3397.00,0.0123
3396.00,0.0123
3395.00,0.0123
3394.00,0.0123
3393.00,0.0123
3392.00,0.0123
3391.00,0.0123
3390.00,0.0124
3389.00,0.0124
3388.00,0.0125
3387.00,0.0125
3386.00,0.0125
3385.00,0.0125
3384.00,0.0125
3383.00,0.0125
3382.00,0.0126
3381.00,0.0126
3380.00,0.0126
3379.00,0.0126
3378.00,0.0127
3377.00,0.0127
3376.00,0.0127
3375.00,0.0127
3374.00,0.0127
3373.00,0.0127
3372.00,0.0127
3371.00,0.0127
3370.00,0.0126
3369.00,0.0126
3368.00,0.0127
3367.00,0.0127
3366.00,0.0128
3365.00,0.0128
3364.00,0.0129
3363.00,0.0129
3362.00,0.0129
3361.00,0.0129
3360.00,0.0129
3359.00,0.0129
3358.00,0.0130
3357.00,0.0130
3356.00,0.0130
3355.00,0.0130
3354.00,0.0130
3353.00,0.0130
3352.00,0.0130
3351.00,0.0130
3350.00,0.0130
3349.00,0.0131
3348.00,0.0131
3347.00,0.0131
3346.00,0.0131
3345.00,0.0131
3344.00,0.0131
3343.00,0.0131
3342.00,0.0131
3341.00,0.0131
3340.00,0.0131
3339.00,0.0131
3338.00,0.0132
3337.00,0.0132
3336.00,0.0133
3335.00,0.0133
3334.00,0.0134
3333.00,0.0134
3332.00,0.0134
3331.00,0.0134
3330.00,0.0134
3329.00,0.0133
3328.00,0.0133
3327.00,0.0133
3326.00,0.0133
3325.00,0.0133
3324.00,0.0133
3323.00,0.0134
3322.00,0.0134
3321.00,0.0135
3320.00,0.0135
3319.00,0.0135
3318.00,0.0136
3317.00,0.0136
3316.00,0.0136
3315.00,0.0136
3314.00,0.0136
3313.00,0.0136
3312.00,0.0135
3311.00,0.0135
3310.00,0.0134
3309.00,0.0133
3308.00,0.0133
3307.00,0.0133
3306.00,0.0133
3305.00,0.0134
3304.00,0.0135
3303.00,0.0136
3302.00,0.0137
3301.00,0.0137
3300.00,0.0137
3299.00,0.0137
3298.00,0.0136
3297.00,0.0136
3296.00,0.0136
3295.00,0.0136
3294.00,0.0136
3293.00,0.0136
3292.00,0.0136
3291.00,0.0137
3290.00,0.0137
3289.00,0.0137
3288.00,0.0138
3287.00,0.0138
3286.00,0.0138
3285.00,0.0138
3284.00,0.0138
3283.00,0.0138
3282.00,0.0139
3281.00,0.0139
3280.00,0.0139
3279.00,0.0139
3278.00,0.0139
3277.00,0.0138
3276.00,0.0138
3275.00,0.0138
3274.00,0.0138
3273.00,0.0137
3272.00,0.0137
3271.00,0.0137
3270.00,0.0137
3269.00,0.0138
3268.00,0.0138
3267.00,0.0138
3266.00,0.0138
3265.00,0.0139
3264.00,0.0139
3263.00,0.0139
3262.00,0.0139
3261.00,0.0139
3260.00,0.0138
3259.00,0.0138
3258.00,0.0138
3257.00,0.0138
3256.00,0.0138
3255.00,0.0138
3254.00,0.0138
3253.00,0.0138
3252.00,0.0138
3251.00,0.0138
3250.00,0.0138
3249.00,0.0138
3248.00,0.0137
3247.00,0.0137
3246.00,0.0137
3245.00,0.0137
3244.00,0.0138
3243.00,0.0138
3242.00,0.0137
3241.00,0.0137
3240.00,0.0137
3239.00,0.0137
3238.00,0.0137
3237.00,0.0137
3236.00,0.0137
3235.00,0.0137
3234.00,0.0137
3233.00,0.0137
3232.00,0.0137
3231.00,0.0137
3230.00,0.0137
3229.00,0.0137
3228.00,0.0137
3227.00,0.0137
3226.00,0.0137
3225.00,0.0137
3224.00,0.0137
3223.00,0.0137
3222.00,0.0137
3221.00,0.0137
3220.00,0.0137
3219.00,0.0137
3218.00,0.0137
3217.00,0.0137
3216.00,0.0136
3215.00,0.0136
3214.00,0.0135
3213.00,0.0135
3212.00,0.0135
3211.00,0.0135
3210.00,0.0135
3209.00,0.0135
3208.00,0.0135
3207.00,0.0135
3206.00,0.0135
3205.00,0.0135
3204.00,0.0135
3203.00,0.0135
3202.00,0.0135
3201.00,0.0135
3200.00,0.0135
3199.00,0.0135
3198.00,0.0134
3197.00,0.0134
3196.00,0.0134
3195.00,0.0134
3194.00,0.0134
3193.00,0.0134
3192.00,0.0134
3191.00,0.0134
3190.00,0.0134
3189.00,0.0133
3188.00,0.0133
3187.00,0.0133
3186.00,0.0133
3185.00,0.0133
3184.00,0.0132
3183.00,0.0132
3182.00,0.0131
3181.00,0.0131
3180.00,0.0131
3179.00,0.0131
3178.00,0.0131
3177.00,0.0131
3176.00,0.0131
3175.00,0.0131
3174.00,0.0131
3173.00,0.0131
3172.00,0.0130
3171.00,0.0130
3170.00,0.0130
3169.00,0.0130
3168.00,0.0130
3167.00,0.0129
3166.00,0.0129
3165.00,0.0128
3164.00,0.0128
3163.00,0.0128
3162.00,0.0127
3161.00,0.0127
3160.00,0.0127
3159.00,0.0127
3158.00,0.0126
3157.00,0.0126
3156.00,0.0125
3155.00,0.0125
3154.00,0.0125
3153.00,0.0124
3152.00,0.0124
3151.00,0.0124
3150.00,0.0124
3149.00,0.0124
3148.00,0.0123
3147.00,0.0123
3146.00,0.0123
3145.00,0.0123
3144.00,0.0123
3143.00,0.0122
3142.00,0.0122
3141.00,0.0122
3140.00,0.0121
3139.00,0.0121
3138.00,0.0121
3137.00,0.0121
3136.00,0.0121
3135.00,0.0121
3134.00,0.0121
3133.00,0.0120
3132.00,0.0120
3131.00,0.0119
3130.00,0.0119
3129.00,0.0119
3128.00,0.0119
3127.00,0.0119
3126.00,0.0119
3125.00,0.0118
3124.00,0.0118
3123.00,0.0118
3122.00,0.0118
3121.00,0.0117
3120.00,0.0117
3119.00,0.0116
3118.00,0.0116
3117.00,0.0116
3116.00,0.0116
3115.00,0.0116
3114.00,0.0116
3113.00,0.0116
3112.00,0.0115
3111.00,0.0115
3110.00,0.0114
3109.00,0.0114
3108.00,0.0114
3107.00,0.0114
3106.00,0.0114
3105.00,0.0114
3104.00,0.0113
3103.00,0.0113
3102.00,0.0113
3101.00,0.0113
3100.00,0.0113
3099.00,0.0112
3098.00,0.0112
3097.00,0.0112
3096.00,0.0111
3095.00,0.0111
3094.00,0.0111
3093.00,0.0111
3092.00,0.0111
3091.00,0.0110
3090.00,0.0110
3089.00,0.0110
3088.00,0.0110
3087.00,0.0109
3086.00,0.0109
3085.00,0.0109
3084.00,0.0109
3083.00,0.0109
3082.00,0.0109
3081.00,0.0109
3080.00,0.0109
3079.00,0.0109
3078.00,0.0109
3077.00,0.0109
3076.00,0.0109
3075.00,0.0109
3074.00,0.0109
3073.00,0.0109
3072.00,0.0109
3071.00,0.0109
3070.00,0.0108
3069.00,0.0108
3068.00,0.0107
3067.00,0.0107
3066.00,0.0107
3065.00,0.0106
3064.00,0.0106
3063.00,0.0105
3062.00,0.0105
3061.00,0.0104
3060.00,0.0104
3059.00,0.0103
3058.00,0.0102
3057.00,0.0102
3056.00,0.0101
3055.00,0.0101
3054.00,0.0101
3053.00,0.0100
3052.00,0.0100
3051.00,0.0100
3050.00,0.0099
3049.00,0.0099
3048.00,0.0099
3047.00,0.0099
3046.00,0.0098
3045.00,0.0098
3044.00,0.0098
3043.00,0.0097
3042.00,0.0097
3041.00,0.0097
3040.00,0.0097
3039.00,0.0097
3038.00,0.0097
3037.00,0.0097
3036.00,0.0097
3035.00,0.0097
3034.00,0.0096
3033.00,0.0096
3032.00,0.0096
3031.00,0.0096
3030.00,0.0095
3029.00,0.0095
3028.00,0.0095
3027.00,0.0095
3026.00,0.0095
3025.00,0.0095
3024.00,0.0095
3023.00,0.0095
3022.00,0.0095
3021.00,0.0095
3020.00,0.0095
3019.00,0.0095
3018.00,0.0095
3017.00,0.0095
3016.00,0.0095
3015.00,0.0095
3014.00,0.0095
3013.00,0.0095
3012.00,0.0095
3011.00,0.0095
3010.00,0.0096
3009.00,0.0096
3008.00,0.0096
3007.00,0.0096
3006.00,0.0097
3005.00,0.0097
3004.00,0.0098
3003.00,0.0098
3002.00,0.0099
3001.00,0.0099
3000.00,0.0100
2999.00,0.0100
2998.00,0.0101
2997.00,0.0101
2996.00,0.0102
2995.00,0.0103
2994.00,0.0104
2993.00,0.0105
2992.00,0.0106
2991.00,0.0107
2990.00,0.0109
2989.00,0.0110
2988.00,0.0111
2987.00,0.0112
2986.00,0.0113
2985.00,0.0113
2984.00,0.0113
2983.00,0.0112
2982.00,0.0112
2981.00,0.0113
2980.00,0.0115
2979.00,0.0118
2978.00,0.0120
2977.00,0.0123
2976.00,0.0125
2975.00,0.0127
2974.00,0.0128
2973.00,0.0130
2972.00,0.0132
2971.00,0.0135
2970.00,0.0137
2969.00,0.0140
2968.00,0.0142
2967.00,0.0144
2966.00,0.0147
2965.00,0.0150
2964.00,0.0153
2963.00,0.0156
2962.00,0.0158
2961.00,0.0161
2960.00,0.0163
2959.00,0.0166
2958.00,0.0168
2957.00,0.0170
2956.00,0.0172
2955.00,0.0173
2954.00,0.0174
2953.00,0.0175
2952.00,0.0176
2951.00,0.0177
2950.00,0.0178
2949.00,0.0178
2948.00,0.0178
2947.00,0.0177
2946.00,0.0176
2945.00,0.0176
2944.00,0.0175
2943.00,0.0175
2942.00,0.0175
2941.00,0.0175
2940.00,0.0175
2939.00,0.0175
2938.00,0.0175
2937.00,0.0176
2936.00,0.0176
2935.00,0.0177
2934.00,0.0179
2933.00,0.0180
2932.00,0.0181
2931.00,0.0182
2930.00,0.0183
2929.00,0.0185
2928.00,0.0187
2927.00,0.0190
2926.00,0.0192
2925.00,0.0194
2924.00,0.0196
2923.00,0.0198
2922.00,0.0200
2921.00,0.0202
2920.00,0.0204
2919.00,0.0205
2918.00,0.0206
2917.00,0.0206
2916.00,0.0206
2915.00,0.0206
2914.00,0.0205
2913.00,0.0205
2912.00,0.0204
2911.00,0.0203
2910.00,0.0202
2909.00,0.0200
2908.00,0.0199
2907.00,0.0197
2906.00,0.0195
2905.00,0.0194
2904.00,0.0192
2903.00,0.0191
2902.00,0.0190
2901.00,0.0189
2900.00,0.0188
2899.00,0.0188
2898.00,0.0187
2897.00,0.0186
2896.00,0.0186
2895.00,0.0185
2894.00,0.0185
2893.00,0.0184
2892.00,0.0184
2891.00,0.0184
2890.00,0.0183
2889.00,0.0183
2888.00,0.0183
2887.00,0.0183
2886.00,0.0182
2885.00,0.0182
2884.00,0.0182
2883.00,0.0182
2882.00,0.0182
2881.00,0.0182
2880.00,0.0182
2879.00,0.0182
2878.00,0.0181
2877.00,0.0181
2876.00,0.0180
2875.00,0.0180
2874.00,0.0179
2873.00,0.0179
2872.00,0.0179
2871.00,0.0179
2870.00,0.0179
2869.00,0.0179
2868.00,0.0178
2867.00,0.0177
2866.00,0.0177
2865.00,0.0176
2864.00,0.0175
2863.00,0.0175
2862.00,0.0174
2861.00,0.0174
2860.00,0.0174
2859.00,0.0174
2858.00,0.0174
2857.00,0.0174
2856.00,0.0174
2855.00,0.0174
2854.00,0.0173
2853.00,0.0173
2852.00,0.0171
2851.00,0.0170
2850.00,0.0168
2849.00,0.0165
2848.00,0.0163
2847.00,0.0161
2846.00,0.0159
2845.00,0.0156
2844.00,0.0154
2843.00,0.0152
2842.00,0.0149
2841.00,0.0147
2840.00,0.0145
2839.00,0.0144
2838.00,0.0143
2837.00,0.0142
2836.00,0.0142
2835.00,0.0142
2834.00,0.0141
2833.00,0.0141
2832.00,0.0141
2831.00,0.0141
2830.00,0.0140
2829.00,0.0139
2828.00,0.0138
2827.00,0.0136
2826.00,0.0134
2825.00,0.0132
2824.00,0.0130
2823.00,0.0128
2822.00,0.0126
2821.00,0.0124
2820.00,0.0122
2819.00,0.0120
2818.00,0.0119
2817.00,0.0117
2816.00,0.0116
2815.00,0.0114
2814.00,0.0113
2813.00,0.0112
2812.00,0.0111
2811.00,0.0110
2810.00,0.0109
2809.00,0.0109
2808.00,0.0108
2807.00,0.0108
2806.00,0.0107
2805.00,0.0107
2804.00,0.0106
2803.00,0.0106
2802.00,0.0105
2801.00,0.0104
2800.00,0.0104
2799.00,0.0103
2798.00,0.0103
2797.00,0.0102
2796.00,0.0102
2795.00,0.0102
2794.00,0.0101
2793.00,0.0101
2792.00,0.0101
2791.00,0.0100
2790.00,0.0100
2789.00,0.0100
2788.00,0.0100
2787.00,0.0100
2786.00,0.0100
2785.00,0.0100
2784.00,0.0100
2783.00,0.0100
2782.00,0.0099
2781.00,0.0099
2780.00,0.0099
2779.00,0.0098
2778.00,0.0098
2777.00,0.0098
2776.00,0.0098
2775.00,0.0098
2774.00,0.0097
2773.00,0.0097
2772.00,0.0097
2771.00,0.0097
2770.00,0.0097
2769.00,0.0097
2768.00,0.0097
2767.00,0.0097
2766.00,0.0097
2765.00,0.0097
2764.00,0.0096
2763.00,0.0096
2762.00,0.0096
2761.00,0.0096
2760.00,0.0095
2759.00,0.0095
2758.00,0.0095
2757.00,0.0095
2756.00,0.0095
2755.00,0.0095
2754.00,0.0095
2753.00,0.0095
2752.00,0.0094
2751.00,0.0094
2750.00,0.0094
2749.00,0.0094
2748.00,0.0094
2747.00,0.0094
2746.00,0.0094
2745.00,0.0094
2744.00,0.0094
2743.00,0.0094
2742.00,0.0094
2741.00,0.0094
2740.00,0.0094
2739.00,0.0094
2738.00,0.0094
2737.00,0.0094
2736.00,0.0094
2735.00,0.0094
2734.00,0.0094
2733.00,0.0095
2732.00,0.0095
2731.00,0.0095
2730.00,0.0095
2729.00,0.0095
2728.00,0.0095
2727.00,0.0095
2726.00,0.0095
2725.00,0.0095
2724.00,0.0095
2723.00,0.0095
2722.00,0.0095
2721.00,0.0095
2720.00,0.0095
2719.00,0.0095
2718.00,0.0095
2717.00,0.0095
2716.00,0.0095
2715.00,0.0095
2714.00,0.0095
2713.00,0.0095
2712.00,0.0095
2711.00,0.0095
2710.00,0.0094
2709.00,0.0094
2708.00,0.0094
2707.00,0.0094
2706.00,0.0094
2705.00,0.0094
2704.00,0.0094
2703.00,0.0094
2702.00,0.0094
2701.00,0.0093
2700.00,0.0093
2699.00,0.0093
2698.00,0.0093
2697.00,0.0093
2696.00,0.0093
2695.00,0.0093
2694.00,0.0093
2693.00,0.0093
2692.00,0.0093
2691.00,0.0093
2690.00,0.0093
2689.00,0.0093
2688.00,0.0093
2687.00,0.0093
2686.00,0.0093
2685.00,0.0093
2684.00,0.0093
2683.00,0.0093
2682.00,0.0093
2681.00,0.0093
2680.00,0.0093
2679.00,0.0093
2678.00,0.0093
2677.00,0.0093
2676.00,0.0093
2675.00,0.0093
2674.00,0.0093
2673.00,0.0093
2672.00,0.0093
2671.00,0.0093
2670.00,0.0093
2669.00,0.0093
2668.00,0.0093
2667.00,0.0093
2666.00,0.0093
2665.00,0.0094
2664.00,0.0094
2663.00,0.0094
2662.00,0.0094
2661.00,0.0095
2660.00,0.0095
2659.00,0.0095
2658.00,0.0095
2657.00,0.0095
2656.00,0.0095
2655.00,0.0095
2654.00,0.0094
2653.00,0.0094
2652.00,0.0094
2651.00,0.0095
2650.00,0.0095
2649.00,0.0095
2648.00,0.0095
2647.00,0.0095
2646.00,0.0095
2645.00,0.0094
2644.00,0.0094
2643.00,0.0094
2642.00,0.0094
2641.00,0.0094
2640.00,0.0093
2639.00,0.0093
2638.00,0.0093
2637.00,0.0093
2636.00,0.0093
2635.00,0.0093
2634.00,0.0093
2633.00,0.0093
2632.00,0.0093
2631.00,0.0093
2630.00,0.0092
2629.00,0.0092
2628.00,0.0092
2627.00,0.0092
2626.00,0.0091
2625.00,0.0091
2624.00,0.0091
2623.00,0.0091
2622.00,0.0091
2621.00,0.0091
2620.00,0.0091
2619.00,0.0091
2618.00,0.0090
2617.00,0.0090
2616.00,0.0091
2615.00,0.0091
2614.00,0.0091
2613.00,0.0090
2612.00,0.0090
2611.00,0.0090
2610.00,0.0090
2609.00,0.0090
2608.00,0.0090
2607.00,0.0090
2606.00,0.0089
2605.00,0.0089
2604.00,0.0089
2603.00,0.0089
2602.00,0.0089
2601.00,0.0089
2600.00,0.0089
2599.00,0.0089
2598.00,0.0089
2597.00,0.0089
2596.00,0.0089
2595.00,0.0089
2594.00,0.0089
2593.00,0.0089
2592.00,0.0089
2591.00,0.0089
2590.00,0.0088
2589.00,0.0088
2588.00,0.0088
2587.00,0.0088
2586.00,0.0088
2585.00,0.0088
2584.00,0.0088
2583.00,0.0088
2582.00,0.0088
2581.00,0.0088
2580.00,0.0088
2579.00,0.0088
2578.00,0.0088
2577.00,0.0088
2576.00,0.0087
2575.00,0.0087
2574.00,0.0087
2573.00,0.0087
2572.00,0.0087
2571.00,0.0088
2570.00,0.0088
2569.00,0.0088
2568.00,0.0088
2567.00,0.0087
2566.00,0.0087
2565.00,0.0086
2564.00,0.0086
2563.00,0.0086
2562.00,0.0087
2561.00,0.0087
2560.00,0.0086
2559.00,0.0086
2558.00,0.0086
2557.00,0.0086
2556.00,0.0086
2555.00,0.0086
2554.00,0.0086
2553.00,0.0086
2552.00,0.0086
2551.00,0.0086
2550.00,0.0086
2549.00,0.0086
2548.00,0.0086
2547.00,0.0086
2546.00,0.0086
2545.00,0.0086
2544.00,0.0085
2543.00,0.0085
2542.00,0.0085
2541.00,0.0085
2540.00,0.0085
2539.00,0.0085
2538.00,0.0085
2537.00,0.0085
2536.00,0.0084
2535.00,0.0084
2534.00,0.0084
2533.00,0.0084
2532.00,0.0084
2531.00,0.0084
2530.00,0.0085
2529.00,0.0085
2528.00,0.0085
2527.00,0.0085
2526.00,0.0085
2525.00,0.0084
2524.00,0.0084
2523.00,0.0084
2522.00,0.0083
2521.00,0.0083
2520.00,0.0083
2519.00,0.0083
2518.00,0.0083
2517.00,0.0083
2516.00,0.0083
2515.00,0.0083
2514.00,0.0083
2513.00,0.0083
2512.00,0.0083
2511.00,0.0083
2510.00,0.0083
2509.00,0.0083
2508.00,0.0083
2507.00,0.0083
2506.00,0.0083
2505.00,0.0083
2504.00,0.0083
2503.00,0.0082
2502.00,0.0082
2501.00,0.0082
2500.00,0.0083
2499.00,0.0083
2498.00,0.0083
2497.00,0.0083
2496.00,0.0083
2495.00,0.0083
2494.00,0.0082
2493.00,0.0082
2492.00,0.0082
2491.00,0.0082
2490.00,0.0082
2489.00,0.0082
2488.00,0.0082
2487.00,0.0082
2486.00,0.0082
2485.00,0.0081
2484.00,0.0081
2483.00,0.0081
2482.00,0.0081
2481.00,0.0081
2480.00,0.0082
2479.00,0.0082
2478.00,0.0082
2477.00,0.0082
2476.00,0.0081
2475.00,0.0081
2474.00,0.0081
2473.00,0.0081
2472.00,0.0081
2471.00,0.0081
2470.00,0.0081
2469.00,0.0081
2468.00,0.0081
2467.00,0.0080
2466.00,0.0080
2465.00,0.0081
2464.00,0.0081
2463.00,0.0081
2462.00,0.0081
2461.00,0.0081
2460.00,0.0081
2459.00,0.0081
2458.00,0.0081
2457.00,0.0081
2456.00,0.0081
2455.00,0.0081
2454.00,0.0081
2453.00,0.0081
2452.00,0.0081
2451.00,0.0081
2450.00,0.0081
2449.00,0.0081
2448.00,0.0081
2447.00,0.0081
2446.00,0.0081
2445.00,0.0081
2444.00,0.0081
2443.00,0.0081
2442.00,0.0081
2441.00,0.0081
2440.00,0.0080
2439.00,0.0080
2438.00,0.0080
2437.00,0.0080
2436.00,0.0080
2435.00,0.0080
2434.00,0.0079
2433.00,0.0079
2432.00,0.0079
2431.00,0.0079
2430.00,0.0079
2429.00,0.0079
2428.00,0.0079
2427.00,0.0079
2426.00,0.0079
2425.00,0.0079
2424.00,0.0079
2423.00,0.0079
2422.00,0.0079
2421.00,0.0078
2420.00,0.0078
2419.00,0.0078
2418.00,0.0078
2417.00,0.0078
2416.00,0.0078
2415.00,0.0079
2414.00,0.0079
2413.00,0.0079
2412.00,0.0079
2411.00,0.0079
2410.00,0.0078
2409.00,0.0078
2408.00,0.0077
2407.00,0.0077
2406.00,0.0077
2405.00,0.0077
2404.00,0.0077
2403.00,0.0077
2402.00,0.0077
2401.00,0.0077
2400.00,0.0077
2399.00,0.0077
2398.00,0.0077
2397.00,0.0077
2396.00,0.0077
2395.00,0.0077
2394.00,0.0076
2393.00,0.0076
2392.00,0.0076
2391.00,0.0077
2390.00,0.0077
2389.00,0.0077
2388.00,0.0077
2387.00,0.0077
2386.00,0.0076
2385.00,0.0076
2384.00,0.0076
2383.00,0.0075
2382.00,0.0074
2381.00,0.0074
2380.00,0.0073
2379.00,0.0073
2378.00,0.0073
2377.00,0.0073
2376.00,0.0073
2375.00,0.0073
2374.00,0.0073
2373.00,0.0072
2372.00,0.0072
2371.00,0.0071
2370.00,0.0071
2369.00,0.0070
2368.00,0.0071
2367.00,0.0071
2366.00,0.0072
2365.00,0.0072
2364.00,0.0073
2363.00,0.0073
2362.00,0.0073
2361.00,0.0073
2360.00,0.0073
2359.00,0.0073
2358.00,0.0073
2357.00,0.0073
2356.00,0.0073
2355.00,0.0074
2354.00,0.0074
2353.00,0.0074
2352.00,0.0073
2351.00,0.0073
2350.00,0.0073
2349.00,0.0074
2348.00,0.0074
2347.00,0.0074
2346.00,0.0074
2345.00,0.0074
2344.00,0.0074
2343.00,0.0075
2342.00,0.0075
2341.00,0.0076
2340.00,0.0076
2339.00,0.0076
2338.00,0.0076
2337.00,0.0077
2336.00,0.0077
2335.00,0.0077
2334.00,0.0077
2333.00,0.0077
2332.00,0.0077
2331.00,0.0076
2330.00,0.0076
2329.00,0.0077
2328.00,0.0079
2327.00,0.0082
2326.00,0.0085
2325.00,0.0086
2324.00,0.0086
2323.00,0.0084
2322.00,0.0083
2321.00,0.0081
2320.00,0.0081
2319.00,0.0080
2318.00,0.0080
2317.00,0.0080
2316.00,0.0080
2315.00,0.0080
2314.00,0.0079
2313.00,0.0079
2312.00,0.0079
2311.00,0.0078
2310.00,0.0078
2309.00,0.0078
2308.00,0.0079
2307.00,0.0079
2306.00,0.0079
2305.00,0.0079
2304.00,0.0079
2303.00,0.0079
2302.00,0.0079
2301.00,0.0080
2300.00,0.0080
2299.00,0.0080
2298.00,0.0080
2297.00,0.0081
2296.00,0.0081
2295.00,0.0081
2294.00,0.0082
2293.00,0.0082
2292.00,0.0083
2291.00,0.0084
2290.00,0.0085
2289.00,0.0085
2288.00,0.0086
2287.00,0.0086
2286.00,0.0086
2285.00,0.0085
2284.00,0.0085
2283.00,0.0084
2282.00,0.0083
2281.00,0.0082
2280.00,0.0082
2279.00,0.0082
2278.00,0.0082
2277.00,0.0082
2276.00,0.0082
2275.00,0.0082
2274.00,0.0082
2273.00,0.0082
2272.00,0.0082
2271.00,0.0082
2270.00,0.0082
2269.00,0.0082
2268.00,0.0081
2267.00,0.0081
2266.00,0.0080
2265.00,0.0080
2264.00,0.0080
2263.00,0.0080
2262.00,0.0081
2261.00,0.0081
2260.00,0.0082
2259.00,0.0082
2258.00,0.0081
2257.00,0.0080
2256.00,0.0079
2255.00,0.0078
2254.00,0.0078
2253.00,0.0078
2252.00,0.0079
2251.00,0.0079
2250.00,0.0079
2249.00,0.0079
2248.00,0.0080
2247.00,0.0080
2246.00,0.0081
2245.00,0.0081
2244.00,0.0081
2243.00,0.0081
2242.00,0.0080
2241.00,0.0079
2240.00,0.0079
2239.00,0.0079
2238.00,0.0080
2237.00,0.0080
2236.00,0.0080
2235.00,0.0080
2234.00,0.0079
2233.00,0.0079
2232.00,0.0079
2231.00,0.0079
2230.00,0.0078
2229.00,0.0078
2228.00,0.0079
2227.00,0.0079
2226.00,0.0078
2225.00,0.0078
2224.00,0.0078
2223.00,0.0079
2222.00,0.0079
2221.00,0.0079
2220.00,0.0079
2219.00,0.0078
2218.00,0.0078
2217.00,0.0078
2216.00,0.0078
2215.00,0.0079
2214.00,0.0079
2213.00,0.0080
2212.00,0.0080
2211.00,0.0080
2210.00,0.0079
2209.00,0.0079
2208.00,0.0080
2207.00,0.0081
2206.00,0.0082
2205.00,0.0082
2204.00,0.0081
2203.00,0.0081
2202.00,0.0080
2201.00,0.0080
2200.00,0.0080
2199.00,0.0080
2198.00,0.0080
2197.00,0.0081
2196.00,0.0081
2195.00,0.0081
2194.00,0.0081
2193.00,0.0081
2192.00,0.0082
2191.00,0.0083
2190.00,0.0083
2189.00,0.0084
2188.00,0.0085
2187.00,0.0085
2186.00,0.0084
2185.00,0.0082
2184.00,0.0079
2183.00,0.0077
2182.00,0.0075
2181.00,0.0075
2180.00,0.0076
2179.00,0.0077
2178.00,0.0077
2177.00,0.0077
2176.00,0.0076
2175.00,0.0075
2174.00,0.0076
2173.00,0.0077
2172.00,0.0079
2171.00,0.0082
2170.00,0.0084
2169.00,0.0085
2168.00,0.0087
2167.00,0.0088
2166.00,0.0089
2165.00,0.0090
2164.00,0.0092
2163.00,0.0092
2162.00,0.0087
2161.00,0.0077
2160.00,0.0065
2159.00,0.0055
2158.00,0.0049
2157.00,0.0049
2156.00,0.0051
2155.00,0.0054
2154.00,0.0056
2153.00,0.0059
2152.00,0.0061
2151.00,0.0063
2150.00,0.0063
2149.00,0.0063
2148.00,0.0063
2147.00,0.0063
2146.00,0.0063
2145.00,0.0063
2144.00,0.0064
2143.00,0.0065
2142.00,0.0065
2141.00,0.0066
2140.00,0.0066
2139.00,0.0066
2138.00,0.0065
2137.00,0.0064
2136.00,0.0062
2135.00,0.0060
2134.00,0.0059
2133.00,0.0060
2132.00,0.0061
2131.00,0.0063
2130.00,0.0064
2129.00,0.0064
2128.00,0.0065
2127.00,0.0066
2126.00,0.0067
2125.00,0.0068
2124.00,0.0069
2123.00,0.0069
2122.00,0.0070
2121.00,0.0070
2120.00,0.0071
2119.00,0.0071
2118.00,0.0072
2117.00,0.0072
2116.00,0.0073
2115.00,0.0074
2114.00,0.0075
2113.00,0.0075
2112.00,0.0076
2111.00,0.0076
2110.00,0.0075
2109.00,0.0075
2108.00,0.0075
2107.00,0.0075
2106.00,0.0074
2105.00,0.0073
2104.00,0.0073
2103.00,0.0073
2102.00,0.0073
2101.00,0.0073
2100.00,0.0074
2099.00,0.0075
2098.00,0.0074
2097.00,0.0073
2096.00,0.0071
2095.00,0.0070
2094.00,0.0070
2093.00,0.0071
2092.00,0.0072
2091.00,0.0073
2090.00,0.0073
2089.00,0.0073
2088.00,0.0073
2087.00,0.0073
2086.00,0.0073
2085.00,0.0074
2084.00,0.0074
2083.00,0.0075
2082.00,0.0075
2081.00,0.0075
2080.00,0.0074
2079.00,0.0074
2078.00,0.0073
2077.00,0.0073
2076.00,0.0074
2075.00,0.0075
2074.00,0.0074
2073.00,0.0074
2072.00,0.0073
2071.00,0.0072
2070.00,0.0072
2069.00,0.0071
2068.00,0.0071
2067.00,0.0071
2066.00,0.0071
2065.00,0.0071
2064.00,0.0071
2063.00,0.0071
2062.00,0.0072
2061.00,0.0072
2060.00,0.0073
2059.00,0.0073
2058.00,0.0073
2057.00,0.0073
2056.00,0.0072
2055.00,0.0073
2054.00,0.0075
2053.00,0.0079
2052.00,0.0082
2051.00,0.0082
2050.00,0.0080
2049.00,0.0078
2048.00,0.0075
2047.00,0.0073
2046.00,0.0072
2045.00,0.0071
2044.00,0.0071
2043.00,0.0072
2042.00,0.0073
2041.00,0.0075
2040.00,0.0076
2039.00,0.0077
2038.00,0.0076
2037.00,0.0074
2036.00,0.0072
2035.00,0.0071
2034.00,0.0069
2033.00,0.0069
2032.00,0.0069
2031.00,0.0069
2030.00,0.0068
2029.00,0.0069
2028.00,0.0070
2027.00,0.0071
2026.00,0.0071
2025.00,0.0071
2024.00,0.0073
2023.00,0.0074
2022.00,0.0074
2021.00,0.0074
2020.00,0.0073
2019.00,0.0071
2018.00,0.0069
2017.00,0.0068
2016.00,0.0069
2015.00,0.0069
2014.00,0.0070
2013.00,0.0071
2012.00,0.0073
2011.00,0.0074
2010.00,0.0073
2009.00,0.0071
2008.00,0.0069
2007.00,0.0066
2006.00,0.0062
2005.00,0.0061
2004.00,0.0061
2003.00,0.0062
2002.00,0.0063
2001.00,0.0064
2000.00,0.0066
1999.00,0.0067
1998.00,0.0068
1997.00,0.0070
1996.00,0.0072
1995.00,0.0073
1994.00,0.0073
1993.00,0.0073
1992.00,0.0073
1991.00,0.0073
1990.00,0.0073
1989.00,0.0073
1988.00,0.0074
1987.00,0.0074
1986.00,0.0074
1985.00,0.0073
1984.00,0.0074
1983.00,0.0076
1982.00,0.0077
1981.00,0.0078
1980.00,0.0076
1979.00,0.0073
1978.00,0.0068
1977.00,0.0065
1976.00,0.0064
1975.00,0.0064
1974.00,0.0064
1973.00,0.0064
1972.00,0.0064
1971.00,0.0063
1970.00,0.0062
1969.00,0.0062
1968.00,0.0062
1967.00,0.0064
1966.00,0.0065
1965.00,0.0066
1964.00,0.0067
1963.00,0.0067
1962.00,0.0065
1961.00,0.0062
1960.00,0.0061
1959.00,0.0060
1958.00,0.0060
1957.00,0.0061
1956.00,0.0062
1955.00,0.0063
1954.00,0.0064
1953.00,0.0064
1952.00,0.0064
1951.00,0.0064
1950.00,0.0064
1949.00,0.0063
1948.00,0.0063
1947.00,0.0063
1946.00,0.0064
1945.00,0.0064
1944.00,0.0065
1943.00,0.0066
1942.00,0.0066
1941.00,0.0066
1940.00,0.0065
1939.00,0.0065
1938.00,0.0064
1937.00,0.0063
1936.00,0.0063
1935.00,0.0063
1934.00,0.0063
1933.00,0.0063
1932.00,0.0064
1931.00,0.0064
1930.00,0.0064
1929.00,0.0064
1928.00,0.0065
1927.00,0.0065
1926.00,0.0065
1925.00,0.0065
1924.00,0.0066
1923.00,0.0066
1922.00,0.0066
1921.00,0.0066
1920.00,0.0066
1919.00,0.0066
1918.00,0.0066
1917.00,0.0066
1916.00,0.0066
1915.00,0.0066
1914.00,0.0066
1913.00,0.0066
1912.00,0.0066
1911.00,0.0066
1910.00,0.0066
1909.00,0.0065
1908.00,0.0065
1907.00,0.0066
1906.00,0.0066
1905.00,0.0067
1904.00,0.0067
1903.00,0.0067
1902.00,0.0066
1901.00,0.0066
1900.00,0.0066
1899.00,0.0066
1898.00,0.0066
1897.00,0.0065
1896.00,0.0065
1895.00,0.0065
1894.00,0.0065
1893.00,0.0065
1892.00,0.0065
1891.00,0.0065
1890.00,0.0065
1889.00,0.0065
1888.00,0.0065
1887.00,0.0065
1886.00,0.0065
1885.00,0.0065
1884.00,0.0066
1883.00,0.0066
1882.00,0.0066
1881.00,0.0066
1880.00,0.0066
1879.00,0.0066
1878.00,0.0066
1877.00,0.0066
1876.00,0.0066
1875.00,0.0066
1874.00,0.0066
1873.00,0.0066
1872.00,0.0066
1871.00,0.0066
1870.00,0.0066
1869.00,0.0066
1868.00,0.0066
1867.00,0.0066
1866.00,0.0066
1865.00,0.0066
1864.00,0.0066
1863.00,0.0066
1862.00,0.0065
1861.00,0.0065
1860.00,0.0065
1859.00,0.0065
1858.00,0.0065
1857.00,0.0065
1856.00,0.0065
1855.00,0.0065
1854.00,0.0065
1853.00,0.0065
1852.00,0.0064
1851.00,0.0064
1850.00,0.0064
1849.00,0.0064
1848.00,0.0065
1847.00,0.0064
1846.00,0.0063
1845.00,0.0063
1844.00,0.0062
1843.00,0.0063
1842.00,0.0063
1841.00,0.0064
1840.00,0.0064
1839.00,0.0064
1838.00,0.0064
1837.00,0.0064
1836.00,0.0064
1835.00,0.0064
1834.00,0.0064
1833.00,0.0063
1832.00,0.0063
1831.00,0.0063
1830.00,0.0063
1829.00,0.0063
1828.00,0.0064
1827.00,0.0064
1826.00,0.0064
1825.00,0.0064
1824.00,0.0064
1823.00,0.0064
1822.00,0.0063
1821.00,0.0063
1820.00,0.0062
1819.00,0.0062
1818.00,0.0061
1817.00,0.0061
1816.00,0.0061
1815.00,0.0062
1814.00,0.0062
1813.00,0.0062
1812.00,0.0062
1811.00,0.0063
1810.00,0.0062
1809.00,0.0062
1808.00,0.0062
1807.00,0.0062
1806.00,0.0062
1805.00,0.0062
1804.00,0.0062
1803.00,0.0062
1802.00,0.0062
1801.00,0.0062
1800.00,0.0062
1799.00,0.0062
1798.00,0.0062
1797.00,0.0062
1796.00,0.0062
1795.00,0.0062
1794.00,0.0062
1793.00,0.0062
1792.00,0.0063
1791.00,0.0063
1790.00,0.0062
1789.00,0.0061
1788.00,0.0061
1787.00,0.0061
1786.00,0.0060
1785.00,0.0060
1784.00,0.0061
1783.00,0.0061
1782.00,0.0062
1781.00,0.0062
1780.00,0.0062
1779.00,0.0061
1778.00,0.0061
1777.00,0.0060
1776.00,0.0060
1775.00,0.0060
1774.00,0.0060
1773.00,0.0060
1772.00,0.0060
1771.00,0.0060
1770.00,0.0060
1769.00,0.0060
1768.00,0.0060
1767.00,0.0060
1766.00,0.0059
1765.00,0.0059
1764.00,0.0059
1763.00,0.0059
1762.00,0.0059
1761.00,0.0058
1760.00,0.0058
1759.00,0.0058
1758.00,0.0057
1757.00,0.0057
1756.00,0.0056
1755.00,0.0056
1754.00,0.0055
1753.00,0.0054
1752.00,0.0054
1751.00,0.0053
1750.00,0.0052
1749.00,0.0052
1748.00,0.0053
1747.00,0.0053
1746.00,0.0053
1745.00,0.0053
1744.00,0.0053
1743.00,0.0053
1742.00,0.0052
1741.00,0.0051
1740.00,0.0052
1739.00,0.0053
1738.00,0.0054
1737.00,0.0054
1736.00,0.0055
1735.00,0.0055
1734.00,0.0055
1733.00,0.0056
1732.00,0.0058
1731.00,0.0060
1730.00,0.0061
1729.00,0.0061
1728.00,0.0062
1727.00,0.0063
1726.00,0.0064
1725.00,0.0064
1724.00,0.0066
1723.00,0.0067
1722.00,0.0068
1721.00,0.0069
1720.00,0.0070
1719.00,0.0072
1718.00,0.0074
1717.00,0.0076
1716.00,0.0078
1715.00,0.0081
1714.00,0.0083
1713.00,0.0086
1712.00,0.0091
1711.00,0.0095
1710.00,0.0100
1709.00,0.0105
1708.00,0.0111
1707.00,0.0119
1706.00,0.0127
1705.00,0.0137
1704.00,0.0146
1703.00,0.0156
1702.00,0.0167
1701.00,0.0182
1700.00,0.0203
1699.00,0.0223
1698.00,0.0242
1697.00,0.0262
1696.00,0.0288
1695.00,0.0314
1694.00,0.0338
1693.00,0.0360
1692.00,0.0384
1691.00,0.0410
1690.00,0.0436
1689.00,0.0462
1688.00,0.0486
1687.00,0.0508
1686.00,0.0531
1685.00,0.0555
1684.00,0.0579
1683.00,0.0598
1682.00,0.0613
1681.00,0.0628
1680.00,0.0644
1679.00,0.0657
1678.00,0.0668
1677.00,0.0677
1676.00,0.0685
1675.00,0.0689
1674.00,0.0692
1673.00,0.0697
1672.00,0.0703
1671.00,0.0710
1670.00,0.0714
1669.00,0.0716
1668.00,0.0721
1667.00,0.0727
1666.00,0.0737
1665.00,0.0748
1664.00,0.0760
1663.00,0.0771
1662.00,0.0780
1661.00,0.0789
1660.00,0.0799
1659.00,0.0810
1658.00,0.0821
1657.00,0.0831
1656.00,0.0842
1655.00,0.0852
1654.00,0.0854
1653.00,0.0843
1652.00,0.0830
1651.00,0.0824
1650.00,0.0825
1649.00,0.0824
1648.00,0.0816
1647.00,0.0798
1646.00,0.0772
1645.00,0.0748
1644.00,0.0729
1643.00,0.0712
1642.00,0.0692
1641.00,0.0670
1640.00,0.0646
1639.00,0.0623
1638.00,0.0601
1637.00,0.0574
1636.00,0.0542
1635.00,0.0509
1634.00,0.0484
1633.00,0.0468
1632.00,0.0455
1631.00,0.0444
1630.00,0.0433
1629.00,0.0422
1628.00,0.0411
1627.00,0.0403
1626.00,0.0395
1625.00,0.0388
1624.00,0.0381
1623.00,0.0373
1622.00,0.0367
1621.00,0.0362
1620.00,0.0359
1619.00,0.0356
1618.00,0.0352
1617.00,0.0346
1616.00,0.0339
1615.00,0.0331
1614.00,0.0323
1613.00,0.0315
1612.00,0.0305
1611.00,0.0294
1610.00,0.0283
1609.00,0.0273
1608.00,0.0264
1607.00,0.0256
1606.00,0.0250
1605.00,0.0246
1604.00,0.0243
1603.00,0.0242
1602.00,0.0243
1601.00,0.0245
1600.00,0.0249
1599.00,0.0255
1598.00,0.0261
1597.00,0.0268
1596.00,0.0275
1595.00,0.0281
1594.00,0.0285
1593.00,0.0288
1592.00,0.0289
1591.00,0.0288
1590.00,0.0286
1589.00,0.0283
1588.00,0.0279
1587.00,0.0275
1586.00,0.0271
1585.00,0.0267
1584.00,0.0264
1583.00,0.0259
1582.00,0.0255
1581.00,0.0249
1580.00,0.0244
1579.00,0.0239
1578.00,0.0233
1577.00,0.0226
1576.00,0.0218
1575.00,0.0210
1574.00,0.0204
1573.00,0.0200
1572.00,0.0196
1571.00,0.0191
1570.00,0.0186
1569.00,0.0182
1568.00,0.0178
1567.00,0.0175
1566.00,0.0172
1565.00,0.0169
1564.00,0.0167
1563.00,0.0164
1562.00,0.0162
1561.00,0.0159
1560.00,0.0155
1559.00,0.0153
1558.00,0.0151
1557.00,0.0150
1556.00,0.0150
1555.00,0.0149
1554.00,0.0149
1553.00,0.0148
1552.00,0.0147
1551.00,0.0147
1550.00,0.0146
1549.00,0.0145
1548.00,0.0144
1547.00,0.0144
1546.00,0.0143
1545.00,0.0142
1544.00,0.0142
1543.00,0.0141
1542.00,0.0140
1541.00,0.0139
1540.00,0.0139
1539.00,0.0139
1538.00,0.0139
1537.00,0.0139
1536.00,0.0139
1535.00,0.0139
1534.00,0.0138
1533.00,0.0138
1532.00,0.0138
1531.00,0.0137
1530.00,0.0137
1529.00,0.0137
1528.00,0.0137
1527.00,0.0137
1526.00,0.0137
1525.00,0.0137
1524.00,0.0137
1523.00,0.0137
1522.00,0.0137
1521.00,0.0136
1520.00,0.0136
1519.00,0.0135
1518.00,0.0136
1517.00,0.0136
1516.00,0.0135
1515.00,0.0135
1514.00,0.0134
1513.00,0.0134
1512.00,0.0134
1511.00,0.0134
1510.00,0.0135
1509.00,0.0136
1508.00,0.0138
1507.00,0.0140
1506.00,0.0143
1505.00,0.0145
1504.00,0.0150
1503.00,0.0156
1502.00,0.0162
1501.00,0.0168
1500.00,0.0175
1499.00,0.0182
1498.00,0.0191
1497.00,0.0199
1496.00,0.0208
1495.00,0.0215
1494.00,0.0219
1493.00,0.0222
1492.00,0.0223
1491.00,0.0222
1490.00,0.0217
1489.00,0.0209
1488.00,0.0200
1487.00,0.0191
1486.00,0.0182
1485.00,0.0174
1484.00,0.0168
1483.00,0.0162
1482.00,0.0156
1481.00,0.0152
1480.00,0.0149
1479.00,0.0147
1478.00,0.0147
1477.00,0.0147
1476.00,0.0150
1475.00,0.0153
1474.00,0.0158
1473.00,0.0166
1472.00,0.0177
1471.00,0.0190
1470.00,0.0205
1469.00,0.0221
1468.00,0.0238
1467.00,0.0258
1466.00,0.0279
1465.00,0.0303
1464.00,0.0326
1463.00,0.0344
1462.00,0.0358
1461.00,0.0368
1460.00,0.0375
1459.00,0.0376
1458.00,0.0371
1457.00,0.0359
1456.00,0.0345
1455.00,0.0335
1454.00,0.0330
1453.00,0.0327
1452.00,0.0326
1451.00,0.0327
1450.00,0.0331
1449.00,0.0337
1448.00,0.0346
1447.00,0.0358
1446.00,0.0370
1445.00,0.0385
1444.00,0.0401
1443.00,0.0418
1442.00,0.0435
1441.00,0.0452
1440.00,0.0468
1439.00,0.0482
1438.00,0.0496
1437.00,0.0509
1436.00,0.0522
1435.00,0.0534
1434.00,0.0546
1433.00,0.0560
1432.00,0.0576
1431.00,0.0592
1430.00,0.0609
1429.00,0.0625
1428.00,0.0640
1427.00,0.0654
1426.00,0.0667
1425.00,0.0679
1424.00,0.0690
1423.00,0.0696
1422.00,0.0699
1421.00,0.0696
1420.00,0.0684
1419.00,0.0658
1418.00,0.0624
1417.00,0.0590
1416.00,0.0556
1415.00,0.0521
1414.00,0.0487
1413.00,0.0454
1412.00,0.0424
1411.00,0.0396
1410.00,0.0371
1409.00,0.0350
1408.00,0.0333
1407.00,0.0318
1406.00,0.0304
1405.00,0.0293
1404.00,0.0283
1403.00,0.0275
1402.00,0.0270
1401.00,0.0266
1400.00,0.0263
1399.00,0.0261
1398.00,0.0260
1397.00,0.0260
1396.00,0.0260
1395.00,0.0260
1394.00,0.0261
1393.00,0.0262
1392.00,0.0263
1391.00,0.0264
1390.00,0.0266
1389.00,0.0268
1388.00,0.0271
1387.00,0.0273
1386.00,0.0277
1385.00,0.0281
1384.00,0.0285
1383.00,0.0291
1382.00,0.0298
1381.00,0.0306
1380.00,0.0316
1379.00,0.0326
1378.00,0.0336
1377.00,0.0346
1376.00,0.0353
1375.00,0.0359
1374.00,0.0361
1373.00,0.0359
1372.00,0.0356
1371.00,0.0352
1370.00,0.0347
1369.00,0.0342
1368.00,0.0335
1367.00,0.0328
1366.00,0.0321
1365.00,0.0313
1364.00,0.0305
1363.00,0.0296
1362.00,0.0286
1361.00,0.0278
1360.00,0.0271
1359.00,0.0266
1358.00,0.0263
1357.00,0.0261
1356.00,0.0259
1355.00,0.0256
1354.00,0.0254
1353.00,0.0251
1352.00,0.0249
1351.00,0.0246
1350.00,0.0244
1349.00,0.0241
1348.00,0.0239
1347.00,0.0237
1346.00,0.0235
1345.00,0.0233
1344.00,0.0232
1343.00,0.0231
1342.00,0.0230
1341.00,0.0229
1340.00,0.0228
1339.00,0.0228
1338.00,0.0227
1337.00,0.0227
1336.00,0.0226
1335.00,0.0227
1334.00,0.0227
1333.00,0.0228
1332.00,0.0229
1331.00,0.0231
1330.00,0.0234
1329.00,0.0237
1328.00,0.0241
1327.00,0.0246
1326.00,0.0253
1325.00,0.0260
1324.00,0.0267
1323.00,0.0276
1322.00,0.0284
1321.00,0.0292
1320.00,0.0300
1319.00,0.0306
1318.00,0.0310
1317.00,0.0312
1316.00,0.0313
1315.00,0.0312
1314.00,0.0309
1313.00,0.0305
1312.00,0.0300
1311.00,0.0295
1310.00,0.0290
1309.00,0.0285
1308.00,0.0281
1307.00,0.0278
1306.00,0.0276
1305.00,0.0275
1304.00,0.0277
1303.00,0.0280
1302.00,0.0286
1301.00,0.0296
1300.00,0.0309
1299.00,0.0326
1298.00,0.0347
1297.00,0.0373
1296.00,0.0403
1295.00,0.0436
1294.00,0.0471
1293.00,0.0507
1292.00,0.0543
1291.00,0.0577
1290.00,0.0607
1289.00,0.0632
1288.00,0.0652
1287.00,0.0666
1286.00,0.0673
1285.00,0.0674
1284.00,0.0669
1283.00,0.0658
1282.00,0.0645
1281.00,0.0631
1280.00,0.0617
1279.00,0.0607
1278.00,0.0600
1277.00,0.0598
1276.00,0.0599
1275.00,0.0603
1274.00,0.0608
1273.00,0.0613
1272.00,0.0616
1271.00,0.0617
1270.00,0.0614
1269.00,0.0607
1268.00,0.0596
1267.00,0.0582
1266.00,0.0566
1265.00,0.0549
1264.00,0.0532
1263.00,0.0516
1262.00,0.0501
1261.00,0.0488
1260.00,0.0478
1259.00,0.0470
1258.00,0.0465
1257.00,0.0463
1256.00,0.0462
1255.00,0.0462
1254.00,0.0463
1253.00,0.0464
1252.00,0.0464
1251.00,0.0464
1250.00,0.0463
1249.00,0.0461
1248.00,0.0458
1247.00,0.0453
1246.00,0.0448
1245.00,0.0442
1244.00,0.0436
1243.00,0.0429
1242.00,0.0421
1241.00,0.0414
1240.00,0.0407
1239.00,0.0400
1238.00,0.0395
1237.00,0.0391
1236.00,0.0388
1235.00,0.0385
1234.00,0.0384
1233.00,0.0383
1232.00,0.0383
1231.00,0.0382
1230.00,0.0383
1229.00,0.0383
1228.00,0.0383
1227.00,0.0383
1226.00,0.0382
1225.00,0.0381
1224.00,0.0380
1223.00,0.0377
1222.00,0.0375
1221.00,0.0371
1220.00,0.0368
1219.00,0.0364
1218.00,0.0361
1217.00,0.0357
1216.00,0.0353
1215.00,0.0348
1214.00,0.0344
1213.00,0.0339
1212.00,0.0335
1211.00,0.0330
1210.00,0.0326
1209.00,0.0322
1208.00,0.0319
1207.00,0.0316
1206.00,0.0314
1205.00,0.0312
1204.00,0.0310
1203.00,0.0308
1202.00,0.0305
1201.00,0.0301
1200.00,0.0297
1199.00,0.0292
1198.00,0.0287
1197.00,0.0282
1196.00,0.0278
1195.00,0.0274
1194.00,0.0271
1193.00,0.0270
1192.00,0.0269
1191.00,0.0269
1190.00,0.0269
1189.00,0.0270
1188.00,0.0270
1187.00,0.0270
1186.00,0.0269
1185.00,0.0268
1184.00,0.0267
1183.00,0.0266
1182.00,0.0265
1181.00,0.0264
1180.00,0.0265
1179.00,0.0266
1178.00,0.0269
1177.00,0.0272
1176.00,0.0277
1175.00,0.0282
1174.00,0.0287
1173.00,0.0291
1172.00,0.0294
1171.00,0.0295
1170.00,0.0295
1169.00,0.0294
1168.00,0.0290
1167.00,0.0286
1166.00,0.0280
1165.00,0.0274
1164.00,0.0268
1163.00,0.0262
1162.00,0.0256
1161.00,0.0252
1160.00,0.0249
1159.00,0.0248
1158.00,0.0250
1157.00,0.0254
1156.00,0.0260
1155.00,0.0267
1154.00,0.0274
1153.00,0.0278
1152.00,0.0279
1151.00,0.0277
1150.00,0.0273
1149.00,0.0266
1148.00,0.0259
1147.00,0.0250
1146.00,0.0241
1145.00,0.0233
1144.00,0.0225
1143.00,0.0218
1142.00,0.0213
1141.00,0.0209
1140.00,0.0206
1139.00,0.0203
1138.00,0.0202
1137.00,0.0200
1136.00,0.0198
1135.00,0.0196
1134.00,0.0194
1133.00,0.0191
1132.00,0.0188
1131.00,0.0186
1130.00,0.0184
1129.00,0.0182
1128.00,0.0182
1127.00,0.0183
1126.00,0.0184
1125.00,0.0186
1124.00,0.0187
1123.00,0.0188
1122.00,0.0189
1121.00,0.0190
1120.00,0.0190
1119.00,0.0191
1118.00,0.0191
1117.00,0.0192
1116.00,0.0193
1115.00,0.0194
1114.00,0.0195
1113.00,0.0196
1112.00,0.0197
1111.00,0.0197
1110.00,0.0196
1109.00,0.0196
1108.00,0.0196
1107.00,0.0196
1106.00,0.0196
1105.00,0.0196
1104.00,0.0196
1103.00,0.0196
1102.00,0.0196
1101.00,0.0197
1100.00,0.0197
1099.00,0.0199
1098.00,0.0200
1097.00,0.0202
1096.00,0.0203
1095.00,0.0203
1094.00,0.0202
1093.00,0.0201
1092.00,0.0200
1091.00,0.0199
1090.00,0.0197
1089.00,0.0196
1088.00,0.0195
1087.00,0.0194
1086.00,0.0194
1085.00,0.0194
1084.00,0.0195
1083.00,0.0197
1082.00,0.0199
1081.00,0.0201
1080.00,0.0203
1079.00,0.0206
1078.00,0.0208
1077.00,0.0210
1076.00,0.0211
1075.00,0.0211
1074.00,0.0211
1073.00,0.0209
1072.00,0.0207
1071.00,0.0204
1070.00,0.0201
1069.00,0.0198
1068.00,0.0196
1067.00,0.0193
1066.00,0.0192
1065.00,0.0191
1064.00,0.0192
1063.00,0.0194
1062.00,0.0199
1061.00,0.0207
1060.00,0.0218
1059.00,0.0233
1058.00,0.0249
1057.00,0.0266
1056.00,0.0279
1055.00,0.0287
1054.00,0.0287
1053.00,0.0282
1052.00,0.0272
1051.00,0.0259
1050.00,0.0247
1049.00,0.0237
1048.00,0.0230
1047.00,0.0226
1046.00,0.0224
1045.00,0.0226
1044.00,0.0230
1043.00,0.0235
1042.00,0.0243
1041.00,0.0252
1040.00,0.0263
1039.00,0.0275
1038.00,0.0291
1037.00,0.0309
1036.00,0.0328
1035.00,0.0348
1034.00,0.0367
1033.00,0.0384
1032.00,0.0396
1031.00,0.0404
1030.00,0.0406
1029.00,0.0403
1028.00,0.0396
1027.00,0.0386
1026.00,0.0373
1025.00,0.0360
1024.00,0.0348
1023.00,0.0338
1022.00,0.0329
1021.00,0.0324
1020.00,0.0319
1019.00,0.0316
1018.00,0.0311
1017.00,0.0306
1016.00,0.0300
1015.00,0.0293
1014.00,0.0285
1013.00,0.0276
1012.00,0.0268
1011.00,0.0261
1010.00,0.0255
1009.00,0.0251
1008.00,0.0247
1007.00,0.0245
1006.00,0.0244
1005.00,0.0244
1004.00,0.0244
1003.00,0.0245
1002.00,0.0245
1001.00,0.0245
1000.00,0.0244
999.00,0.0242
998.00,0.0239
997.00,0.0236
996.00,0.0233
995.00,0.0230
994.00,0.0227
993.00,0.0224
992.00,0.0222
991.00,0.0221
990.00,0.0220
989.00,0.0220
988.00,0.0220
987.00,0.0220
986.00,0.0218
985.00,0.0216
984.00,0.0214
983.00,0.0211
982.00,0.0208
981.00,0.0205
980.00,0.0203
979.00,0.0200
978.00,0.0198
977.00,0.0196
976.00,0.0194
975.00,0.0193
974.00,0.0192
973.00,0.0191
972.00,0.0191
971.00,0.0190
970.00,0.0190
969.00,0.0189
968.00,0.0189
967.00,0.0189
966.00,0.0189
965.00,0.0189
964.00,0.0188
963.00,0.0188
962.00,0.0187
961.00,0.0186
960.00,0.0184
959.00,0.0182
958.00,0.0180
957.00,0.0178
956.00,0.0175
955.00,0.0173
954.00,0.0170
953.00,0.0167
952.00,0.0165
951.00,0.0163
950.00,0.0162
949.00,0.0160
948.00,0.0159
947.00,0.0158
946.00,0.0157
945.00,0.0156
944.00,0.0156
943.00,0.0156
942.00,0.0157
941.00,0.0158
940.00,0.0160
939.00,0.0162
938.00,0.0165
937.00,0.0169
936.00,0.0173
935.00,0.0178
934.00,0.0181
933.00,0.0184
932.00,0.0186
931.00,0.0185
930.00,0.0184
929.00,0.0181
928.00,0.0179
927.00,0.0177
926.00,0.0175
925.00,0.0174
924.00,0.0173
923.00,0.0172
922.00,0.0171
921.00,0.0170
920.00,0.0170
919.00,0.0170
918.00,0.0171
917.00,0.0172
916.00,0.0174
915.00,0.0175
914.00,0.0175
913.00,0.0176
912.00,0.0177
911.00,0.0178
910.00,0.0179
909.00,0.0181
908.00,0.0184
907.00,0.0188
906.00,0.0192
905.00,0.0197
904.00,0.0201
903.00,0.0206
902.00,0.0211
901.00,0.0216
900.00,0.0220
899.00,0.0224
898.00,0.0228
897.00,0.0231
896.00,0.0235
895.00,0.0238
894.00,0.0241
893.00,0.0244
892.00,0.0247
891.00,0.0250
890.00,0.0252
889.00,0.0255
888.00,0.0257
887.00,0.0259
886.00,0.0261
885.00,0.0262
884.00,0.0264
883.00,0.0265
882.00,0.0264
881.00,0.0263
880.00,0.0261
879.00,0.0258
878.00,0.0255
877.00,0.0251
876.00,0.0247
875.00,0.0242
874.00,0.0238
873.00,0.0233
872.00,0.0230
871.00,0.0227
870.00,0.0225
869.00,0.0224
868.00,0.0224
867.00,0.0224
866.00,0.0224
865.00,0.0225
864.00,0.0227
863.00,0.0229
862.00,0.0232
861.00,0.0236
860.00,0.0240
859.00,0.0245
858.00,0.0250
857.00,0.0256
856.00,0.0262
855.00,0.0268
854.00,0.0274
853.00,0.0280
852.00,0.0285
851.00,0.0290
850.00,0.0295
849.00,0.0299
848.00,0.0303
847.00,0.0306
846.00,0.0309
845.00,0.0310
844.00,0.0312
843.00,0.0312
842.00,0.0312
841.00,0.0311
840.00,0.0311
839.00,0.0311
838.00,0.0311
837.00,0.0311
836.00,0.0311
835.00,0.0312
834.00,0.0313
833.00,0.0314
832.00,0.0315
831.00,0.0316
830.00,0.0316
829.00,0.0315
828.00,0.0312
827.00,0.0308
826.00,0.0303
825.00,0.0297
824.00,0.0290
823.00,0.0283
822.00,0.0277
821.00,0.0270
820.00,0.0263
819.00,0.0257
818.00,0.0251
817.00,0.0246
816.00,0.0241
815.00,0.0237
814.00,0.0234
813.00,0.0232
812.00,0.0231
811.00,0.0231
810.00,0.0232
809.00,0.0233
808.00,0.0235
807.00,0.0238
806.00,0.0240
805.00,0.0242
804.00,0.0243
803.00,0.0242
802.00,0.0239
801.00,0.0236
800.00,0.0233
799.00,0.0231
798.00,0.0230
797.00,0.0231
796.00,0.0233
795.00,0.0234
794.00,0.0235
793.00,0.0236
792.00,0.0236
791.00,0.0235
790.00,0.0234
789.00,0.0232
788.00,0.0230
787.00,0.0229
786.00,0.0227
785.00,0.0226
784.00,0.0225
783.00,0.0224
782.00,0.0224
781.00,0.0225
780.00,0.0226
779.00,0.0227
778.00,0.0229
777.00,0.0232
776.00,0.0234
775.00,0.0237
774.00,0.0239
773.00,0.0241
772.00,0.0242
771.00,0.0243
770.00,0.0244
769.00,0.0244
768.00,0.0245
767.00,0.0247
766.00,0.0248
765.00,0.0250
764.00,0.0253
763.00,0.0255
762.00,0.0257
761.00,0.0260
760.00,0.0264
759.00,0.0267
758.00,0.0271
757.00,0.0275
756.00,0.0277
755.00,0.0278
754.00,0.0278
753.00,0.0278
752.00,0.0277
751.00,0.0276
750.00,0.0276
749.00,0.0276
748.00,0.0277
747.00,0.0279
746.00,0.0282
745.00,0.0285
744.00,0.0288
743.00,0.0291
742.00,0.0294
741.00,0.0296
740.00,0.0299
739.00,0.0302
738.00,0.0306
737.00,0.0310
736.00,0.0314
735.00,0.0318
734.00,0.0322
733.00,0.0324
732.00,0.0324
731.00,0.0323
730.00,0.0321
729.00,0.0317
728.00,0.0314
727.00,0.0309
726.00,0.0304
725.00,0.0299
724.00,0.0295
723.00,0.0290
722.00,0.0286
721.00,0.0282
720.00,0.0279
719.00,0.0278
718.00,0.0276
717.00,0.0275
716.00,0.0274
715.00,0.0273
714.00,0.0272
713.00,0.0271
712.00,0.0270
711.00,0.0270
710.00,0.0269
709.00,0.0269
708.00,0.0269
707.00,0.0269
706.00,0.0269
705.00,0.0269
704.00,0.0269
703.00,0.0270
702.00,0.0271
701.00,0.0272
700.00,0.0273
699.00,0.0274
698.00,0.0275
697.00,0.0277
696.00,0.0278
695.00,0.0280
694.00,0.0281
693.00,0.0282
692.00,0.0284
691.00,0.0286
690.00,0.0288
689.00,0.0291
688.00,0.0295
687.00,0.0298
686.00,0.0300
685.00,0.0304
684.00,0.0308
683.00,0.0311
682.00,0.0314
681.00,0.0317
680.00,0.0319
679.00,0.0322
678.00,0.0325
677.00,0.0329
676.00,0.0332
675.00,0.0335
674.00,0.0337
673.00,0.0338
672.00,0.0339
671.00,0.0341
670.00,0.0343
669.00,0.0346
668.00,0.0351
667.00,0.0357
666.00,0.0362
665.00,0.0366
664.00,0.0369
663.00,0.0373
662.00,0.0377
661.00,0.0382
660.00,0.0388
659.00,0.0395
658.00,0.0402
657.00,0.0409
656.00,0.0416
655.00,0.0423
654.00,0.0429
653.00,0.0435
652.00,0.0441
651.00,0.0447
650.00,0.0452
649.00,0.0456
648.00,0.0458
647.00,0.0459
646.00,0.0457
645.00,0.0453
644.00,0.0449
643.00,0.0444
642.00,0.0438
641.00,0.0431
640.00,0.0424
639.00,0.0418
638.00,0.0411
637.00,0.0404
636.00,0.0397
635.00,0.0390
634.00,0.0384
633.00,0.0379
632.00,0.0374
631.00,0.0369
630.00,0.0365
629.00,0.0361
628.00,0.0359
627.00,0.0355
626.00,0.0352
625.00,0.0348
624.00,0.0345
623.00,0.0342
622.00,0.0341
621.00,0.0340
620.00,0.0340
619.00,0.0339
618.00,0.0340
617.00,0.0340
616.00,0.0341
615.00,0.0342
614.00,0.0341
613.00,0.0341
612.00,0.0342
611.00,0.0343
610.00,0.0343
609.00,0.0343
608.00,0.0344
607.00,0.0345
606.00,0.0347
605.00,0.0348
604.00,0.0349
603.00,0.0349
602.00,0.0348
601.00,0.0348
600.00,0.0348
599.00,0.0349
598.00,0.0350
597.00,0.0352
596.00,0.0355
595.00,0.0357
594.00,0.0358
593.00,0.0359
592.00,0.0361
591.00,0.0363
590.00,0.0365
589.00,0.0368
588.00,0.0372
587.00,0.0376
586.00,0.0381
585.00,0.0387
584.00,0.0395
583.00,0.0402
582.00,0.0409
581.00,0.0417
580.00,0.0425
579.00,0.0433
578.00,0.0439
577.00,0.0444
576.00,0.0446
575.00,0.0447
574.00,0.0447
573.00,0.0446
572.00,0.0445
571.00,0.0443
570.00,0.0441
569.00,0.0438
568.00,0.0436
567.00,0.0432
566.00,0.0428
565.00,0.0423
564.00,0.0419
563.00,0.0415
562.00,0.0412
561.00,0.0408
560.00,0.0405
559.00,0.0403
558.00,0.0402
557.00,0.0402
556.00,0.0404
555.00,0.0405
554.00,0.0406
553.00,0.0406
552.00,0.0405
551.00,0.0404
550.00,0.0401
549.00,0.0399
548.00,0.0395
547.00,0.0392
546.00,0.0387
545.00,0.0384
544.00,0.0380
543.00,0.0376
542.00,0.0371
541.00,0.0368
540.00,0.0367
539.00,0.0366
538.00,0.0366
537.00,0.0367
536.00,0.0368
535.00,0.0368
534.00,0.0367
533.00,0.0366
532.00,0.0364
531.00,0.0362
530.00,0.0362
529.00,0.0363
528.00,0.0365
527.00,0.0368
526.00,0.0372
525.00,0.0376
524.00,0.0379
523.00,0.0380
522.00,0.0378
521.00,0.0374
520.00,0.0370
519.00,0.0365
518.00,0.0360
517.00,0.0356
516.00,0.0353
515.00,0.0349
514.00,0.0345
513.00,0.0342
512.00,0.0341
511.00,0.0340
510.00,0.0339
509.00,0.0338
508.00,0.0337
507.00,0.0336
506.00,0.0334
505.00,0.0333
504.00,0.0333
503.00,0.0333
502.00,0.0334
501.00,0.0334
500.00,0.0334
499.00,0.0335
498.00,0.0336
497.00,0.0338
496.00,0.0341
495.00,0.0343
494.00,0.0344
493.00,0.0347
492.00,0.0349
491.00,0.0350
490.00,0.0350
489.00,0.0351
488.00,0.0354
487.00,0.0356
486.00,0.0358
485.00,0.0358
484.00,0.0359
483.00,0.0359
482.00,0.0359
481.00,0.0359
480.00,0.0358
479.00,0.0357
478.00,0.0357
477.00,0.0358
476.00,0.0360
475.00,0.0361
474.00,0.0362
473.00,0.0363
472.00,0.0365
471.00,0.0367
470.00,0.0366
469.00,0.0364
468.00,0.0361
467.00,0.0358
466.00,0.0356
465.00,0.0355
464.00,0.0355
463.00,0.0355
462.00,0.0354
461.00,0.0354
460.00,0.0354
459.00,0.0352
458.00,0.0347
457.00,0.0342
456.00,0.0340
455.00,0.0340
454.00,0.0341
453.00,0.0342
452.00,0.0343
451.00,0.0340
450.00,0.0336
449.00,0.0332
448.00,0.0331
447.00,0.0330
446.00,0.0328
445.00,0.0327
444.00,0.0327
443.00,0.0329
442.00,0.0329
441.00,0.0329
440.00,0.0328
439.00,0.0327
438.00,0.0326
437.00,0.0327
436.00,0.0330
435.00,0.0334
434.00,0.0336
433.00,0.0335
432.00,0.0334
431.00,0.0331
430.00,0.0328
429.00,0.0326
428.00,0.0327
427.00,0.0329
426.00,0.0332
425.00,0.0334
424.00,0.0336
423.00,0.0337
422.00,0.0336
421.00,0.0335
420.00,0.0336
419.00,0.0338
418.00,0.0337
417.00,0.0335
416.00,0.0331
415.00,0.0324
414.00,0.0315
413.00,0.0308
412.00,0.0307
411.00,0.0308
410.00,0.0309
409.00,0.0313
408.00,0.0322
407.00,0.0330
406.00,0.0331
405.00,0.0325
404.00,0.0316
403.00,0.0312
402.00,0.0316
401.00,0.0328
400.00,0.0343
