Created as New Dataset,Sample 267 By YargerLab Date Saturday, October 18 2025
cm-1,A
4000.00,0.0040
3999.00,0.0041
3998.00,0.0041
3997.00,0.0041
3996.00,0.0040
3995.00,0.0040
3994.00,0.0040
3993.00,0.0040
3992.00,0.0040
3991.00,0.0040
3990.00,0.0040
3989.00,0.0041
3988.00,0.0041
3987.00,0.0041
3986.00,0.0041
3985.00,0.0041
3984.00,0.0041
3983.00,0.0041
3982.00,0.0040
3981.00,0.0040
3980.00,0.0040
3979.00,0.0041
3978.00,0.0040
3977.00,0.0040
3976.00,0.0040
3975.00,0.0040
3974.00,0.0040
3973.00,0.0040
3972.00,0.0040
3971.00,0.0040
3970.00,0.0040
3969.00,0.0040
3968.00,0.0040
3967.00,0.0040
3966.00,0.0040
3965.00,0.0040
3964.00,0.0040
3963.00,0.0040
3962.00,0.0040
3961.00,0.0040
3960.00,0.0041
3959.00,0.0041
3958.00,0.0040
3957.00,0.0040
3956.00,0.0040
3955.00,0.0040
3954.00,0.0040
3953.00,0.0040
3952.00,0.0040
3951.00,0.0041
3950.00,0.0041
3949.00,0.0041
3948.00,0.0041
3947.00,0.0041
3946.00,0.0041
3945.00,0.0041
3944.00,0.0041
3943.00,0.0041
3942.00,0.0041
3941.00,0.0041
3940.00,0.0041
3939.00,0.0041
3938.00,0.0041
3937.00,0.0041
3936.00,0.0041
3935.00,0.0040
3934.00,0.0040
3933.00,0.0041
3932.00,0.0041
3931.00,0.0041
3930.00,0.0042
3929.00,0.0042
3928.00,0.0042
3927.00,0.0042
3926.00,0.0041
3925.00,0.0041
3924.00,0.0041
3923.00,0.0041
3922.00,0.0041
3921.00,0.0041
3920.00,0.0041
3919.00,0.0041
3918.00,0.0041
3917.00,0.0041
3916.00,0.0041
3915.00,0.0041
3914.00,0.0041
3913.00,0.0041
3912.00,0.0040
3911.00,0.0040
3910.00,0.0040
3909.00,0.0040
3908.00,0.0041
3907.00,0.0041
3906.00,0.0041
3905.00,0.0042
3904.00,0.0042
3903.00,0.0042
3902.00,0.0043
3901.00,0.0043
3900.00,0.0043
3899.00,0.0043
3898.00,0.0042
3897.00,0.0042
3896.00,0.0041
3895.00,0.0041
3894.00,0.0041
3893.00,0.0041
3892.00,0.0041
3891.00,0.0041
3890.00,0.0041
3889.00,0.0041
3888.00,0.0041
3887.00,0.0042
3886.00,0.0042
3885.00,0.0042
3884.00,0.0042
3883.00,0.0043
3882.00,0.0042
3881.00,0.0042
3880.00,0.0041
3879.00,0.0041
3878.00,0.0041
3877.00,0.0042
3876.00,0.0042
3875.00,0.0041
3874.00,0.0041
3873.00,0.0042
3872.00,0.0042
3871.00,0.0042
3870.00,0.0042
3869.00,0.0042
3868.00,0.0042
3867.00,0.0042
3866.00,0.0042
3865.00,0.0042
3864.00,0.0041
3863.00,0.0042
3862.00,0.0042
3861.00,0.0042
3860.00,0.0042
3859.00,0.0042
3858.00,0.0041
3857.00,0.0042
3856.00,0.0042
3855.00,0.0042
3854.00,0.0042
3853.00,0.0043
3852.00,0.0043
3851.00,0.0043
3850.00,0.0043
3849.00,0.0042
3848.00,0.0042
3847.00,0.0042
3846.00,0.0041
3845.00,0.0041
3844.00,0.0041
3843.00,0.0041
3842.00,0.0042
3841.00,0.0042
3840.00,0.0043
3839.00,0.0043
3838.00,0.0043
3837.00,0.0043
3836.00,0.0043
3835.00,0.0042
3834.00,0.0042
3833.00,0.0042
3832.00,0.0041
3831.00,0.0041
3830.00,0.0041
3829.00,0.0041
3828.00,0.0041
3827.00,0.0041
3826.00,0.0041
3825.00,0.0041
3824.00,0.0041
3823.00,0.0042
3822.00,0.0042
3821.00,0.0042
3820.00,0.0042
3819.00,0.0043
3818.00,0.0043
3817.00,0.0043
3816.00,0.0042
3815.00,0.0042
3814.00,0.0042
3813.00,0.0041
3812.00,0.0041
3811.00,0.0041
3810.00,0.0041
3809.00,0.0041
3808.00,0.0040
3807.00,0.0040
3806.00,0.0041
3805.00,0.0041
3804.00,0.0042
3803.00,0.0042
3802.00,0.0042
3801.00,0.0042
3800.00,0.0042
3799.00,0.0042
3798.00,0.0042
3797.00,0.0042
3796.00,0.0041
3795.00,0.0040
3794.00,0.0040
3793.00,0.0040
3792.00,0.0040
3791.00,0.0040
3790.00,0.0039
3789.00,0.0039
3788.00,0.0039
3787.00,0.0040
3786.00,0.0040
3785.00,0.0040
3784.00,0.0040
3783.00,0.0040
3782.00,0.0040
3781.00,0.0040
3780.00,0.0040
3779.00,0.0040
3778.00,0.0040
3777.00,0.0040
3776.00,0.0040
3775.00,0.0039
3774.00,0.0039
3773.00,0.0040
3772.00,0.0040
3771.00,0.0040
3770.00,0.0041
3769.00,0.0041
3768.00,0.0041
3767.00,0.0041
3766.00,0.0041
3765.00,0.0040
3764.00,0.0040
3763.00,0.0040
3762.00,0.0040
3761.00,0.0040
3760.00,0.0040
3759.00,0.0040
3758.00,0.0040
3757.00,0.0040
3756.00,0.0041
3755.00,0.0041
3754.00,0.0041
3753.00,0.0042
3752.00,0.0042
3751.00,0.0042
3750.00,0.0042
3749.00,0.0043
3748.00,0.0043
3747.00,0.0043
3746.00,0.0043
3745.00,0.0043
3744.00,0.0042
3743.00,0.0042
3742.00,0.0042
3741.00,0.0042
3740.00,0.0041
3739.00,0.0041
3738.00,0.0041
3737.00,0.0041
3736.00,0.0042
3735.00,0.0042
3734.00,0.0042
3733.00,0.0042
3732.00,0.0042
3731.00,0.0041
3730.00,0.0040
3729.00,0.0040
3728.00,0.0040
3727.00,0.0040
3726.00,0.0040
3725.00,0.0040
3724.00,0.0041
3723.00,0.0041
3722.00,0.0040
3721.00,0.0040
3720.00,0.0040
3719.00,0.0039
3718.00,0.0039
3717.00,0.0040
3716.00,0.0040
3715.00,0.0040
3714.00,0.0041
3713.00,0.0040
3712.00,0.0040
3711.00,0.0040
3710.00,0.0040
3709.00,0.0040
3708.00,0.0040
3707.00,0.0040
3706.00,0.0040
3705.00,0.0040
3704.00,0.0040
3703.00,0.0040
3702.00,0.0040
3701.00,0.0040
3700.00,0.0040
3699.00,0.0040
3698.00,0.0040
3697.00,0.0040
3696.00,0.0040
3695.00,0.0040
3694.00,0.0040
3693.00,0.0040
3692.00,0.0041
3691.00,0.0041
3690.00,0.0041
3689.00,0.0041
3688.00,0.0041
3687.00,0.0041
3686.00,0.0041
3685.00,0.0041
3684.00,0.0040
3683.00,0.0040
3682.00,0.0040
3681.00,0.0040
3680.00,0.0040
3679.00,0.0040
3678.00,0.0041
3677.00,0.0042
3676.00,0.0042
3675.00,0.0042
3674.00,0.0043
3673.00,0.0043
3672.00,0.0043
3671.00,0.0043
3670.00,0.0042
3669.00,0.0042
3668.00,0.0042
3667.00,0.0042
3666.00,0.0041
3665.00,0.0041
3664.00,0.0040
3663.00,0.0040
3662.00,0.0039
3661.00,0.0039
3660.00,0.0040
3659.00,0.0040
3658.00,0.0040
3657.00,0.0041
3656.00,0.0041
3655.00,0.0041
3654.00,0.0042
3653.00,0.0042
3652.00,0.0043
3651.00,0.0043
3650.00,0.0043
3649.00,0.0043
3648.00,0.0043
3647.00,0.0043
3646.00,0.0043
3645.00,0.0042
3644.00,0.0042
3643.00,0.0042
3642.00,0.0042
3641.00,0.0041
3640.00,0.0041
3639.00,0.0041
3638.00,0.0041
3637.00,0.0041
3636.00,0.0041
3635.00,0.0041
3634.00,0.0041
3633.00,0.0041
3632.00,0.0042
3631.00,0.0042
3630.00,0.0043
3629.00,0.0043
3628.00,0.0043
3627.00,0.0043
3626.00,0.0043
3625.00,0.0043
3624.00,0.0042
3623.00,0.0042
3622.00,0.0042
3621.00,0.0042
3620.00,0.0042
3619.00,0.0042
3618.00,0.0042
3617.00,0.0042
3616.00,0.0043
3615.00,0.0043
3614.00,0.0043
3613.00,0.0044
3612.00,0.0044
3611.00,0.0044
3610.00,0.0044
3609.00,0.0044
3608.00,0.0044
3607.00,0.0044
3606.00,0.0043
3605.00,0.0043
3604.00,0.0043
3603.00,0.0043
3602.00,0.0043
3601.00,0.0043
3600.00,0.0043
3599.00,0.0043
3598.00,0.0043
3597.00,0.0043
3596.00,0.0043
3595.00,0.0043
3594.00,0.0043
3593.00,0.0043
3592.00,0.0043
3591.00,0.0043
3590.00,0.0043
3589.00,0.0044
3588.00,0.0044
3587.00,0.0044
3586.00,0.0044
3585.00,0.0044
3584.00,0.0044
3583.00,0.0044
3582.00,0.0044
3581.00,0.0044
3580.00,0.0044
3579.00,0.0044
3578.00,0.0044
3577.00,0.0044
3576.00,0.0044
3575.00,0.0044
3574.00,0.0045
3573.00,0.0045
3572.00,0.0045
3571.00,0.0046
3570.00,0.0046
3569.00,0.0047
3568.00,0.0047
3567.00,0.0047
3566.00,0.0047
3565.00,0.0047
3564.00,0.0047
3563.00,0.0046
3562.00,0.0046
3561.00,0.0046
3560.00,0.0047
3559.00,0.0047
3558.00,0.0047
3557.00,0.0047
3556.00,0.0047
3555.00,0.0047
3554.00,0.0047
3553.00,0.0047
3552.00,0.0047
3551.00,0.0047
3550.00,0.0048
3549.00,0.0048
3548.00,0.0048
3547.00,0.0049
3546.00,0.0049
3545.00,0.0049
3544.00,0.0049
3543.00,0.0049
3542.00,0.0049
3541.00,0.0049
3540.00,0.0049
3539.00,0.0049
3538.00,0.0049
3537.00,0.0049
3536.00,0.0050
3535.00,0.0050
3534.00,0.0050
3533.00,0.0050
3532.00,0.0050
3531.00,0.0050
3530.00,0.0050
3529.00,0.0050
3528.00,0.0050
3527.00,0.0050
3526.00,0.0051
3525.00,0.0051
3524.00,0.0052
3523.00,0.0052
3522.00,0.0052
3521.00,0.0052
3520.00,0.0052
3519.00,0.0053
3518.00,0.0053
3517.00,0.0053
3516.00,0.0053
3515.00,0.0053
3514.00,0.0053
3513.00,0.0054
3512.00,0.0054
3511.00,0.0054
3510.00,0.0055
3509.00,0.0055
3508.00,0.0055
3507.00,0.0056
3506.00,0.0056
3505.00,0.0057
3504.00,0.0057
3503.00,0.0058
3502.00,0.0058
3501.00,0.0058
3500.00,0.0059
3499.00,0.0059
3498.00,0.0059
3497.00,0.0059
3496.00,0.0059
3495.00,0.0059
3494.00,0.0060
3493.00,0.0060
3492.00,0.0060
3491.00,0.0061
3490.00,0.0061
3489.00,0.0062
3488.00,0.0062
3487.00,0.0063
3486.00,0.0063
3485.00,0.0064
3484.00,0.0064
3483.00,0.0065
3482.00,0.0065
3481.00,0.0065
3480.00,0.0066
3479.00,0.0066
3478.00,0.0067
3477.00,0.0067
3476.00,0.0068
3475.00,0.0068
3474.00,0.0069
3473.00,0.0069
3472.00,0.0070
3471.00,0.0070
3470.00,0.0071
3469.00,0.0071
3468.00,0.0072
3467.00,0.0072
3466.00,0.0072
3465.00,0.0073
3464.00,0.0073
3463.00,0.0074
3462.00,0.0074
3461.00,0.0074
3460.00,0.0075
3459.00,0.0075
3458.00,0.0075
3457.00,0.0076
3456.00,0.0076
3455.00,0.0076
3454.00,0.0076
3453.00,0.0077
3452.00,0.0077
3451.00,0.0078
3450.00,0.0079
3449.00,0.0079
3448.00,0.0080
3447.00,0.0080
3446.00,0.0080
3445.00,0.0081
3444.00,0.0081
3443.00,0.0081
3442.00,0.0081
3441.00,0.0081
3440.00,0.0081
3439.00,0.0081
3438.00,0.0081
3437.00,0.0082
3436.00,0.0082
3435.00,0.0083
3434.00,0.0083
3433.00,0.0083
3432.00,0.0083
3431.00,0.0083
3430.00,0.0083
3429.00,0.0083
3428.00,0.0084
3427.00,0.0084
3426.00,0.0084
3425.00,0.0084
3424.00,0.0085
3423.00,0.0085
3422.00,0.0085
3421.00,0.0085
3420.00,0.0085
3419.00,0.0086
3418.00,0.0086
3417.00,0.0086
3416.00,0.0086
3415.00,0.0086
3414.00,0.0087
3413.00,0.0087
3412.00,0.0087
3411.00,0.0087
3410.00,0.0088
3409.00,0.0088
3408.00,0.0088
3407.00,0.0089
3406.00,0.0088
3405.00,0.0088
3404.00,0.0089
3403.00,0.0089
3402.00,0.0089
3401.00,0.0090
3400.00,0.0090
3399.00,0.0090
3398.00,0.0090
3397.00,0.0090
3396.00,0.0091
3395.00,0.0091
3394.00,0.0091
3393.00,0.0091
3392.00,0.0092
3391.00,0.0092
3390.00,0.0092
3389.00,0.0093
3388.00,0.0093
3387.00,0.0093
3386.00,0.0093
3385.00,0.0094
3384.00,0.0094
3383.00,0.0094
3382.00,0.0094
3381.00,0.0094
3380.00,0.0095
3379.00,0.0095
3378.00,0.0096
3377.00,0.0096
3376.00,0.0096
3375.00,0.0096
3374.00,0.0097
3373.00,0.0097
3372.00,0.0097
3371.00,0.0097
3370.00,0.0097
3369.00,0.0098
3368.00,0.0098
3367.00,0.0098
3366.00,0.0099
3365.00,0.0099
3364.00,0.0099
3363.00,0.0100
3362.00,0.0100
3361.00,0.0100
3360.00,0.0100
3359.00,0.0101
3358.00,0.0101
3357.00,0.0102
3356.00,0.0102
3355.00,0.0103
3354.00,0.0103
3353.00,0.0103
3352.00,0.0103
3351.00,0.0103
3350.00,0.0103
3349.00,0.0104
3348.00,0.0104
3347.00,0.0105
3346.00,0.0105
3345.00,0.0105
3344.00,0.0105
3343.00,0.0105
3342.00,0.0105
3341.00,0.0105
3340.00,0.0105
3339.00,0.0105
3338.00,0.0106
3337.00,0.0106
3336.00,0.0107
3335.00,0.0107
3334.00,0.0108
3333.00,0.0108
3332.00,0.0108
3331.00,0.0108
3330.00,0.0109
3329.00,0.0109
3328.00,0.0109
3327.00,0.0109
3326.00,0.0109
3325.00,0.0109
3324.00,0.0110
3323.00,0.0110
3322.00,0.0111
3321.00,0.0111
3320.00,0.0112
3319.00,0.0112
3318.00,0.0112
3317.00,0.0112
3316.00,0.0112
3315.00,0.0112
3314.00,0.0112
3313.00,0.0112
3312.00,0.0112
3311.00,0.0112
3310.00,0.0112
3309.00,0.0112
3308.00,0.0111
3307.00,0.0111
3306.00,0.0111
3305.00,0.0112
3304.00,0.0112
3303.00,0.0113
3302.00,0.0114
3301.00,0.0114
3300.00,0.0114
3299.00,0.0114
3298.00,0.0114
3297.00,0.0114
3296.00,0.0114
3295.00,0.0114
3294.00,0.0114
3293.00,0.0114
3292.00,0.0114
3291.00,0.0115
3290.00,0.0115
3289.00,0.0115
3288.00,0.0116
3287.00,0.0116
3286.00,0.0116
3285.00,0.0116
3284.00,0.0116
3283.00,0.0117
3282.00,0.0116
3281.00,0.0116
3280.00,0.0116
3279.00,0.0116
3278.00,0.0116
3277.00,0.0116
3276.00,0.0116
3275.00,0.0115
3274.00,0.0115
3273.00,0.0116
3272.00,0.0116
3271.00,0.0116
3270.00,0.0116
3269.00,0.0116
3268.00,0.0116
3267.00,0.0116
3266.00,0.0116
3265.00,0.0116
3264.00,0.0116
3263.00,0.0116
3262.00,0.0116
3261.00,0.0116
3260.00,0.0116
3259.00,0.0116
3258.00,0.0117
3257.00,0.0116
3256.00,0.0116
3255.00,0.0116
3254.00,0.0116
3253.00,0.0117
3252.00,0.0117
3251.00,0.0117
3250.00,0.0117
3249.00,0.0117
3248.00,0.0116
3247.00,0.0116
3246.00,0.0116
3245.00,0.0116
3244.00,0.0116
3243.00,0.0116
3242.00,0.0116
3241.00,0.0116
3240.00,0.0116
3239.00,0.0116
3238.00,0.0116
3237.00,0.0116
3236.00,0.0116
3235.00,0.0116
3234.00,0.0116
3233.00,0.0116
3232.00,0.0116
3231.00,0.0116
3230.00,0.0116
3229.00,0.0116
3228.00,0.0116
3227.00,0.0115
3226.00,0.0115
3225.00,0.0115
3224.00,0.0115
3223.00,0.0115
3222.00,0.0115
3221.00,0.0115
3220.00,0.0115
3219.00,0.0115
3218.00,0.0115
3217.00,0.0115
3216.00,0.0115
3215.00,0.0115
3214.00,0.0115
3213.00,0.0115
3212.00,0.0115
3211.00,0.0115
3210.00,0.0115
3209.00,0.0115
3208.00,0.0115
3207.00,0.0114
3206.00,0.0114
3205.00,0.0114
3204.00,0.0114
3203.00,0.0114
3202.00,0.0114
3201.00,0.0114
3200.00,0.0114
3199.00,0.0114
3198.00,0.0114
3197.00,0.0114
3196.00,0.0114
3195.00,0.0113
3194.00,0.0113
3193.00,0.0113
3192.00,0.0113
3191.00,0.0113
3190.00,0.0113
3189.00,0.0112
3188.00,0.0112
3187.00,0.0112
3186.00,0.0112
3185.00,0.0112
3184.00,0.0112
3183.00,0.0111
3182.00,0.0111
3181.00,0.0111
3180.00,0.0111
3179.00,0.0110
3178.00,0.0110
3177.00,0.0110
3176.00,0.0110
3175.00,0.0110
3174.00,0.0109
3173.00,0.0109
3172.00,0.0109
3171.00,0.0108
3170.00,0.0108
3169.00,0.0108
3168.00,0.0107
3167.00,0.0107
3166.00,0.0107
3165.00,0.0107
3164.00,0.0106
3163.00,0.0106
3162.00,0.0105
3161.00,0.0105
3160.00,0.0104
3159.00,0.0104
3158.00,0.0104
3157.00,0.0104
3156.00,0.0104
3155.00,0.0103
3154.00,0.0103
3153.00,0.0103
3152.00,0.0103
3151.00,0.0102
3150.00,0.0102
3149.00,0.0101
3148.00,0.0101
3147.00,0.0100
3146.00,0.0100
3145.00,0.0100
3144.00,0.0099
3143.00,0.0099
3142.00,0.0099
3141.00,0.0099
3140.00,0.0099
3139.00,0.0099
3138.00,0.0099
3137.00,0.0099
3136.00,0.0098
3135.00,0.0098
3134.00,0.0098
3133.00,0.0097
3132.00,0.0097
3131.00,0.0097
3130.00,0.0096
3129.00,0.0096
3128.00,0.0096
3127.00,0.0095
3126.00,0.0095
3125.00,0.0095
3124.00,0.0095
3123.00,0.0094
3122.00,0.0094
3121.00,0.0094
3120.00,0.0094
3119.00,0.0093
3118.00,0.0093
3117.00,0.0092
3116.00,0.0092
3115.00,0.0092
3114.00,0.0092
3113.00,0.0091
3112.00,0.0091
3111.00,0.0091
3110.00,0.0090
3109.00,0.0090
3108.00,0.0090
3107.00,0.0089
3106.00,0.0089
3105.00,0.0089
3104.00,0.0089
3103.00,0.0088
3102.00,0.0088
3101.00,0.0088
3100.00,0.0088
3099.00,0.0087
3098.00,0.0087
3097.00,0.0087
3096.00,0.0087
3095.00,0.0086
3094.00,0.0086
3093.00,0.0086
3092.00,0.0086
3091.00,0.0086
3090.00,0.0086
3089.00,0.0086
3088.00,0.0085
3087.00,0.0085
3086.00,0.0085
3085.00,0.0085
3084.00,0.0085
3083.00,0.0085
3082.00,0.0085
3081.00,0.0085
3080.00,0.0085
3079.00,0.0085
3078.00,0.0086
3077.00,0.0086
3076.00,0.0086
3075.00,0.0086
3074.00,0.0086
3073.00,0.0086
3072.00,0.0086
3071.00,0.0086
3070.00,0.0086
3069.00,0.0085
3068.00,0.0085
3067.00,0.0084
3066.00,0.0084
3065.00,0.0083
3064.00,0.0083
3063.00,0.0082
3062.00,0.0081
3061.00,0.0080
3060.00,0.0080
3059.00,0.0079
3058.00,0.0078
3057.00,0.0078
3056.00,0.0077
3055.00,0.0077
3054.00,0.0077
3053.00,0.0077
3052.00,0.0076
3051.00,0.0076
3050.00,0.0076
3049.00,0.0076
3048.00,0.0075
3047.00,0.0075
3046.00,0.0075
3045.00,0.0074
3044.00,0.0074
3043.00,0.0074
3042.00,0.0074
3041.00,0.0074
3040.00,0.0074
3039.00,0.0074
3038.00,0.0074
3037.00,0.0074
3036.00,0.0073
3035.00,0.0073
3034.00,0.0073
3033.00,0.0073
3032.00,0.0073
3031.00,0.0072
3030.00,0.0072
3029.00,0.0072
3028.00,0.0072
3027.00,0.0072
3026.00,0.0072
3025.00,0.0071
3024.00,0.0071
3023.00,0.0071
3022.00,0.0071
3021.00,0.0071
3020.00,0.0071
3019.00,0.0071
3018.00,0.0071
3017.00,0.0071
3016.00,0.0071
3015.00,0.0072
3014.00,0.0072
3013.00,0.0072
3012.00,0.0073
3011.00,0.0073
3010.00,0.0073
3009.00,0.0074
3008.00,0.0074
3007.00,0.0074
3006.00,0.0075
3005.00,0.0075
3004.00,0.0076
3003.00,0.0077
3002.00,0.0077
3001.00,0.0078
3000.00,0.0078
2999.00,0.0079
2998.00,0.0079
2997.00,0.0081
2996.00,0.0082
2995.00,0.0083
2994.00,0.0084
2993.00,0.0085
2992.00,0.0086
2991.00,0.0087
2990.00,0.0089
2989.00,0.0090
2988.00,0.0091
2987.00,0.0093
2986.00,0.0094
2985.00,0.0095
2984.00,0.0097
2983.00,0.0098
2982.00,0.0100
2981.00,0.0101
2980.00,0.0102
2979.00,0.0103
2978.00,0.0105
2977.00,0.0106
2976.00,0.0108
2975.00,0.0110
2974.00,0.0112
2973.00,0.0115
2972.00,0.0117
2971.00,0.0120
2970.00,0.0122
2969.00,0.0125
2968.00,0.0129
2967.00,0.0132
2966.00,0.0135
2965.00,0.0139
2964.00,0.0142
2963.00,0.0146
2962.00,0.0149
2961.00,0.0152
2960.00,0.0155
2959.00,0.0157
2958.00,0.0159
2957.00,0.0161
2956.00,0.0162
2955.00,0.0162
2954.00,0.0163
2953.00,0.0162
2952.00,0.0162
2951.00,0.0161
2950.00,0.0160
2949.00,0.0159
2948.00,0.0158
2947.00,0.0157
2946.00,0.0157
2945.00,0.0156
2944.00,0.0157
2943.00,0.0158
2942.00,0.0160
2941.00,0.0161
2940.00,0.0164
2939.00,0.0167
2938.00,0.0170
2937.00,0.0174
2936.00,0.0178
2935.00,0.0182
2934.00,0.0186
2933.00,0.0190
2932.00,0.0194
2931.00,0.0198
2930.00,0.0202
2929.00,0.0205
2928.00,0.0208
2927.00,0.0211
2926.00,0.0213
2925.00,0.0214
2924.00,0.0215
2923.00,0.0216
2922.00,0.0216
2921.00,0.0215
2920.00,0.0214
2919.00,0.0213
2918.00,0.0211
2917.00,0.0209
2916.00,0.0206
2915.00,0.0204
2914.00,0.0201
2913.00,0.0198
2912.00,0.0195
2911.00,0.0192
2910.00,0.0189
2909.00,0.0186
2908.00,0.0183
2907.00,0.0180
2906.00,0.0178
2905.00,0.0175
2904.00,0.0173
2903.00,0.0170
2902.00,0.0168
2901.00,0.0166
2900.00,0.0165
2899.00,0.0163
2898.00,0.0162
2897.00,0.0160
2896.00,0.0159
2895.00,0.0158
2894.00,0.0156
2893.00,0.0155
2892.00,0.0154
2891.00,0.0152
2890.00,0.0151
2889.00,0.0150
2888.00,0.0149
2887.00,0.0148
2886.00,0.0147
2885.00,0.0147
2884.00,0.0146
2883.00,0.0146
2882.00,0.0145
2881.00,0.0145
2880.00,0.0145
2879.00,0.0145
2878.00,0.0145
2877.00,0.0145
2876.00,0.0145
2875.00,0.0146
2874.00,0.0147
2873.00,0.0148
2872.00,0.0148
2871.00,0.0149
2870.00,0.0149
2869.00,0.0149
2868.00,0.0149
2867.00,0.0148
2866.00,0.0148
2865.00,0.0148
2864.00,0.0149
2863.00,0.0150
2862.00,0.0151
2861.00,0.0153
2860.00,0.0155
2859.00,0.0157
2858.00,0.0159
2857.00,0.0161
2856.00,0.0162
2855.00,0.0162
2854.00,0.0161
2853.00,0.0159
2852.00,0.0157
2851.00,0.0154
2850.00,0.0150
2849.00,0.0146
2848.00,0.0141
2847.00,0.0137
2846.00,0.0132
2845.00,0.0128
2844.00,0.0124
2843.00,0.0120
2842.00,0.0116
2841.00,0.0113
2840.00,0.0110
2839.00,0.0108
2838.00,0.0106
2837.00,0.0105
2836.00,0.0105
2835.00,0.0105
2834.00,0.0104
2833.00,0.0104
2832.00,0.0104
2831.00,0.0104
2830.00,0.0104
2829.00,0.0103
2828.00,0.0101
2827.00,0.0100
2826.00,0.0098
2825.00,0.0096
2824.00,0.0093
2823.00,0.0091
2822.00,0.0089
2821.00,0.0087
2820.00,0.0085
2819.00,0.0083
2818.00,0.0082
2817.00,0.0080
2816.00,0.0079
2815.00,0.0078
2814.00,0.0077
2813.00,0.0076
2812.00,0.0075
2811.00,0.0074
2810.00,0.0074
2809.00,0.0073
2808.00,0.0072
2807.00,0.0072
2806.00,0.0071
2805.00,0.0071
2804.00,0.0070
2803.00,0.0070
2802.00,0.0069
2801.00,0.0069
2800.00,0.0069
2799.00,0.0068
2798.00,0.0068
2797.00,0.0068
2796.00,0.0067
2795.00,0.0067
2794.00,0.0066
2793.00,0.0066
2792.00,0.0066
2791.00,0.0066
2790.00,0.0065
2789.00,0.0065
2788.00,0.0065
2787.00,0.0065
2786.00,0.0065
2785.00,0.0064
2784.00,0.0064
2783.00,0.0064
2782.00,0.0064
2781.00,0.0063
2780.00,0.0063
2779.00,0.0063
2778.00,0.0063
2777.00,0.0063
2776.00,0.0063
2775.00,0.0062
2774.00,0.0063
2773.00,0.0063
2772.00,0.0063
2771.00,0.0062
2770.00,0.0062
2769.00,0.0062
2768.00,0.0062
2767.00,0.0062
2766.00,0.0062
2765.00,0.0061
2764.00,0.0061
2763.00,0.0061
2762.00,0.0061
2761.00,0.0061
2760.00,0.0061
2759.00,0.0061
2758.00,0.0061
2757.00,0.0061
2756.00,0.0061
2755.00,0.0061
2754.00,0.0061
2753.00,0.0061
2752.00,0.0061
2751.00,0.0061
2750.00,0.0061
2749.00,0.0061
2748.00,0.0060
2747.00,0.0061
2746.00,0.0061
2745.00,0.0061
2744.00,0.0061
2743.00,0.0061
2742.00,0.0061
2741.00,0.0061
2740.00,0.0061
2739.00,0.0061
2738.00,0.0061
2737.00,0.0061
2736.00,0.0061
2735.00,0.0061
2734.00,0.0061
2733.00,0.0061
2732.00,0.0061
2731.00,0.0062
2730.00,0.0062
2729.00,0.0062
2728.00,0.0062
2727.00,0.0062
2726.00,0.0062
2725.00,0.0062
2724.00,0.0062
2723.00,0.0062
2722.00,0.0062
2721.00,0.0062
2720.00,0.0062
2719.00,0.0062
2718.00,0.0061
2717.00,0.0061
2716.00,0.0061
2715.00,0.0061
2714.00,0.0060
2713.00,0.0060
2712.00,0.0060
2711.00,0.0060
2710.00,0.0060
2709.00,0.0060
2708.00,0.0059
2707.00,0.0059
2706.00,0.0059
2705.00,0.0059
2704.00,0.0059
2703.00,0.0059
2702.00,0.0059
2701.00,0.0059
2700.00,0.0059
2699.00,0.0059
2698.00,0.0059
2697.00,0.0059
2696.00,0.0059
2695.00,0.0059
2694.00,0.0059
2693.00,0.0059
2692.00,0.0059
2691.00,0.0059
2690.00,0.0059
2689.00,0.0059
2688.00,0.0059
2687.00,0.0059
2686.00,0.0059
2685.00,0.0059
2684.00,0.0059
2683.00,0.0059
2682.00,0.0059
2681.00,0.0059
2680.00,0.0059
2679.00,0.0059
2678.00,0.0059
2677.00,0.0059
2676.00,0.0059
2675.00,0.0058
2674.00,0.0058
2673.00,0.0058
2672.00,0.0058
2671.00,0.0058
2670.00,0.0058
2669.00,0.0058
2668.00,0.0058
2667.00,0.0058
2666.00,0.0058
2665.00,0.0058
2664.00,0.0058
2663.00,0.0058
2662.00,0.0058
2661.00,0.0057
2660.00,0.0057
2659.00,0.0057
2658.00,0.0057
2657.00,0.0057
2656.00,0.0057
2655.00,0.0057
2654.00,0.0056
2653.00,0.0056
2652.00,0.0056
2651.00,0.0056
2650.00,0.0056
2649.00,0.0056
2648.00,0.0056
2647.00,0.0056
2646.00,0.0055
2645.00,0.0055
2644.00,0.0055
2643.00,0.0055
2642.00,0.0055
2641.00,0.0055
2640.00,0.0055
2639.00,0.0054
2638.00,0.0054
2637.00,0.0054
2636.00,0.0054
2635.00,0.0054
2634.00,0.0054
2633.00,0.0054
2632.00,0.0054
2631.00,0.0054
2630.00,0.0054
2629.00,0.0054
2628.00,0.0053
2627.00,0.0053
2626.00,0.0053
2625.00,0.0053
2624.00,0.0054
2623.00,0.0053
2622.00,0.0053
2621.00,0.0053
2620.00,0.0053
2619.00,0.0053
2618.00,0.0053
2617.00,0.0053
2616.00,0.0053
2615.00,0.0053
2614.00,0.0053
2613.00,0.0053
2612.00,0.0053
2611.00,0.0053
2610.00,0.0053
2609.00,0.0052
2608.00,0.0052
2607.00,0.0052
2606.00,0.0052
2605.00,0.0052
2604.00,0.0052
2603.00,0.0052
2602.00,0.0052
2601.00,0.0052
2600.00,0.0052
2599.00,0.0052
2598.00,0.0052
2597.00,0.0052
2596.00,0.0052
2595.00,0.0052
2594.00,0.0052
2593.00,0.0052
2592.00,0.0052
2591.00,0.0051
2590.00,0.0051
2589.00,0.0051
2588.00,0.0051
2587.00,0.0051
2586.00,0.0052
2585.00,0.0052
2584.00,0.0052
2583.00,0.0052
2582.00,0.0052
2581.00,0.0052
2580.00,0.0051
2579.00,0.0051
2578.00,0.0051
2577.00,0.0052
2576.00,0.0052
2575.00,0.0052
2574.00,0.0051
2573.00,0.0051
2572.00,0.0051
2571.00,0.0050
2570.00,0.0050
2569.00,0.0050
2568.00,0.0050
2567.00,0.0050
2566.00,0.0050
2565.00,0.0050
2564.00,0.0050
2563.00,0.0050
2562.00,0.0050
2561.00,0.0050
2560.00,0.0050
2559.00,0.0050
2558.00,0.0050
2557.00,0.0050
2556.00,0.0049
2555.00,0.0049
2554.00,0.0050
2553.00,0.0050
2552.00,0.0050
2551.00,0.0050
2550.00,0.0050
2549.00,0.0050
2548.00,0.0050
2547.00,0.0050
2546.00,0.0050
2545.00,0.0050
2544.00,0.0050
2543.00,0.0050
2542.00,0.0049
2541.00,0.0049
2540.00,0.0049
2539.00,0.0049
2538.00,0.0049
2537.00,0.0049
2536.00,0.0049
2535.00,0.0049
2534.00,0.0049
2533.00,0.0049
2532.00,0.0049
2531.00,0.0049
2530.00,0.0049
2529.00,0.0049
2528.00,0.0049
2527.00,0.0048
2526.00,0.0048
2525.00,0.0048
2524.00,0.0048
2523.00,0.0048
2522.00,0.0048
2521.00,0.0048
2520.00,0.0048
2519.00,0.0048
2518.00,0.0047
2517.00,0.0047
2516.00,0.0047
2515.00,0.0047
2514.00,0.0048
2513.00,0.0048
2512.00,0.0048
2511.00,0.0048
2510.00,0.0047
2509.00,0.0047
2508.00,0.0047
2507.00,0.0047
2506.00,0.0047
2505.00,0.0047
2504.00,0.0046
2503.00,0.0046
2502.00,0.0046
2501.00,0.0046
2500.00,0.0046
2499.00,0.0046
2498.00,0.0046
2497.00,0.0046
2496.00,0.0047
2495.00,0.0047
2494.00,0.0047
2493.00,0.0047
2492.00,0.0047
2491.00,0.0046
2490.00,0.0046
2489.00,0.0046
2488.00,0.0046
2487.00,0.0046
2486.00,0.0046
2485.00,0.0046
2484.00,0.0046
2483.00,0.0046
2482.00,0.0046
2481.00,0.0046
2480.00,0.0046
2479.00,0.0046
2478.00,0.0046
2477.00,0.0045
2476.00,0.0045
2475.00,0.0045
2474.00,0.0045
2473.00,0.0045
2472.00,0.0045
2471.00,0.0045
2470.00,0.0045
2469.00,0.0045
2468.00,0.0045
2467.00,0.0045
2466.00,0.0045
2465.00,0.0045
2464.00,0.0045
2463.00,0.0045
2462.00,0.0045
2461.00,0.0045
2460.00,0.0045
2459.00,0.0044
2458.00,0.0044
2457.00,0.0044
2456.00,0.0044
2455.00,0.0044
2454.00,0.0045
2453.00,0.0045
2452.00,0.0044
2451.00,0.0044
2450.00,0.0044
2449.00,0.0044
2448.00,0.0044
2447.00,0.0044
2446.00,0.0044
2445.00,0.0044
2444.00,0.0044
2443.00,0.0044
2442.00,0.0044
2441.00,0.0044
2440.00,0.0044
2439.00,0.0043
2438.00,0.0043
2437.00,0.0043
2436.00,0.0043
2435.00,0.0043
2434.00,0.0043
2433.00,0.0043
2432.00,0.0044
2431.00,0.0044
2430.00,0.0044
2429.00,0.0044
2428.00,0.0044
2427.00,0.0043
2426.00,0.0043
2425.00,0.0043
2424.00,0.0043
2423.00,0.0043
2422.00,0.0043
2421.00,0.0043
2420.00,0.0043
2419.00,0.0043
2418.00,0.0043
2417.00,0.0042
2416.00,0.0043
2415.00,0.0043
2414.00,0.0043
2413.00,0.0043
2412.00,0.0043
2411.00,0.0043
2410.00,0.0043
2409.00,0.0043
2408.00,0.0043
2407.00,0.0043
2406.00,0.0043
2405.00,0.0043
2404.00,0.0043
2403.00,0.0043
2402.00,0.0043
2401.00,0.0043
2400.00,0.0043
2399.00,0.0043
2398.00,0.0043
2397.00,0.0043
2396.00,0.0043
2395.00,0.0043
2394.00,0.0043
2393.00,0.0043
2392.00,0.0043
2391.00,0.0043
2390.00,0.0043
2389.00,0.0043
2388.00,0.0042
2387.00,0.0042
2386.00,0.0042
2385.00,0.0042
2384.00,0.0043
2383.00,0.0043
2382.00,0.0043
2381.00,0.0042
2380.00,0.0042
2379.00,0.0042
2378.00,0.0042
2377.00,0.0042
2376.00,0.0043
2375.00,0.0043
2374.00,0.0043
2373.00,0.0042
2372.00,0.0042
2371.00,0.0042
2370.00,0.0042
2369.00,0.0042
2368.00,0.0043
2367.00,0.0042
2366.00,0.0042
2365.00,0.0042
2364.00,0.0042
2363.00,0.0042
2362.00,0.0042
2361.00,0.0042
2360.00,0.0043
2359.00,0.0043
2358.00,0.0043
2357.00,0.0043
2356.00,0.0043
2355.00,0.0044
2354.00,0.0044
2353.00,0.0043
2352.00,0.0043
2351.00,0.0042
2350.00,0.0042
2349.00,0.0042
2348.00,0.0042
2347.00,0.0042
2346.00,0.0041
2345.00,0.0041
2344.00,0.0041
2343.00,0.0041
2342.00,0.0041
2341.00,0.0041
2340.00,0.0042
2339.00,0.0042
2338.00,0.0042
2337.00,0.0042
2336.00,0.0042
2335.00,0.0042
2334.00,0.0042
2333.00,0.0042
2332.00,0.0042
2331.00,0.0042
2330.00,0.0042
2329.00,0.0042
2328.00,0.0041
2327.00,0.0041
2326.00,0.0041
2325.00,0.0040
2324.00,0.0040
2323.00,0.0040
2322.00,0.0040
2321.00,0.0040
2320.00,0.0041
2319.00,0.0041
2318.00,0.0041
2317.00,0.0041
2316.00,0.0041
2315.00,0.0041
2314.00,0.0041
2313.00,0.0041
2312.00,0.0041
2311.00,0.0040
2310.00,0.0040
2309.00,0.0040
2308.00,0.0040
2307.00,0.0040
2306.00,0.0040
2305.00,0.0040
2304.00,0.0040
2303.00,0.0040
2302.00,0.0040
2301.00,0.0039
2300.00,0.0039
2299.00,0.0039
2298.00,0.0039
2297.00,0.0039
2296.00,0.0040
2295.00,0.0040
2294.00,0.0039
2293.00,0.0039
2292.00,0.0039
2291.00,0.0038
2290.00,0.0038
2289.00,0.0038
2288.00,0.0038
2287.00,0.0038
2286.00,0.0038
2285.00,0.0038
2284.00,0.0038
2283.00,0.0039
2282.00,0.0039
2281.00,0.0039
2280.00,0.0040
2279.00,0.0039
2278.00,0.0039
2277.00,0.0039
2276.00,0.0039
2275.00,0.0039
2274.00,0.0038
2273.00,0.0038
2272.00,0.0037
2271.00,0.0037
2270.00,0.0037
2269.00,0.0037
2268.00,0.0037
2267.00,0.0038
2266.00,0.0038
2265.00,0.0038
2264.00,0.0039
2263.00,0.0039
2262.00,0.0038
2261.00,0.0038
2260.00,0.0037
2259.00,0.0037
2258.00,0.0037
2257.00,0.0038
2256.00,0.0038
2255.00,0.0037
2254.00,0.0037
2253.00,0.0037
2252.00,0.0038
2251.00,0.0038
2250.00,0.0037
2249.00,0.0037
2248.00,0.0037
2247.00,0.0037
2246.00,0.0038
2245.00,0.0038
2244.00,0.0039
2243.00,0.0038
2242.00,0.0038
2241.00,0.0038
2240.00,0.0038
2239.00,0.0039
2238.00,0.0039
2237.00,0.0038
2236.00,0.0037
2235.00,0.0036
2234.00,0.0035
2233.00,0.0035
2232.00,0.0036
2231.00,0.0037
2230.00,0.0037
2229.00,0.0038
2228.00,0.0038
2227.00,0.0038
2226.00,0.0038
2225.00,0.0037
2224.00,0.0037
2223.00,0.0037
2222.00,0.0037
2221.00,0.0038
2220.00,0.0038
2219.00,0.0038
2218.00,0.0037
2217.00,0.0037
2216.00,0.0037
2215.00,0.0037
2214.00,0.0037
2213.00,0.0037
2212.00,0.0037
2211.00,0.0037
2210.00,0.0037
2209.00,0.0037
2208.00,0.0038
2207.00,0.0039
2206.00,0.0039
2205.00,0.0040
2204.00,0.0039
2203.00,0.0038
2202.00,0.0037
2201.00,0.0035
2200.00,0.0034
2199.00,0.0034
2198.00,0.0035
2197.00,0.0036
2196.00,0.0038
2195.00,0.0040
2194.00,0.0040
2193.00,0.0040
2192.00,0.0038
2191.00,0.0036
2190.00,0.0035
2189.00,0.0035
2188.00,0.0036
2187.00,0.0037
2186.00,0.0037
2185.00,0.0036
2184.00,0.0035
2183.00,0.0035
2182.00,0.0036
2181.00,0.0038
2180.00,0.0040
2179.00,0.0039
2178.00,0.0037
2177.00,0.0035
2176.00,0.0034
2175.00,0.0034
2174.00,0.0035
2173.00,0.0036
2172.00,0.0036
2171.00,0.0037
2170.00,0.0037
2169.00,0.0038
2168.00,0.0038
2167.00,0.0038
2166.00,0.0038
2165.00,0.0037
2164.00,0.0036
2163.00,0.0035
2162.00,0.0035
2161.00,0.0035
2160.00,0.0036
2159.00,0.0037
2158.00,0.0037
2157.00,0.0036
2156.00,0.0036
2155.00,0.0036
2154.00,0.0036
2153.00,0.0035
2152.00,0.0036
2151.00,0.0037
2150.00,0.0038
2149.00,0.0038
2148.00,0.0038
2147.00,0.0037
2146.00,0.0038
2145.00,0.0039
2144.00,0.0039
2143.00,0.0039
2142.00,0.0038
2141.00,0.0038
2140.00,0.0037
2139.00,0.0037
2138.00,0.0036
2137.00,0.0036
2136.00,0.0036
2135.00,0.0036
2134.00,0.0036
2133.00,0.0035
2132.00,0.0036
2131.00,0.0037
2130.00,0.0038
2129.00,0.0038
2128.00,0.0038
2127.00,0.0038
2126.00,0.0038
2125.00,0.0038
2124.00,0.0038
2123.00,0.0038
2122.00,0.0039
2121.00,0.0039
2120.00,0.0038
2119.00,0.0037
2118.00,0.0036
2117.00,0.0035
2116.00,0.0035
2115.00,0.0035
2114.00,0.0035
2113.00,0.0036
2112.00,0.0036
2111.00,0.0036
2110.00,0.0036
2109.00,0.0036
2108.00,0.0036
2107.00,0.0036
2106.00,0.0036
2105.00,0.0036
2104.00,0.0036
2103.00,0.0036
2102.00,0.0035
2101.00,0.0035
2100.00,0.0035
2099.00,0.0035
2098.00,0.0035
2097.00,0.0035
2096.00,0.0035
2095.00,0.0035
2094.00,0.0035
2093.00,0.0035
2092.00,0.0035
2091.00,0.0035
2090.00,0.0036
2089.00,0.0036
2088.00,0.0036
2087.00,0.0036
2086.00,0.0035
2085.00,0.0035
2084.00,0.0035
2083.00,0.0035
2082.00,0.0035
2081.00,0.0035
2080.00,0.0036
2079.00,0.0036
2078.00,0.0036
2077.00,0.0037
2076.00,0.0037
2075.00,0.0038
2074.00,0.0038
2073.00,0.0038
2072.00,0.0037
2071.00,0.0037
2070.00,0.0035
2069.00,0.0034
2068.00,0.0034
2067.00,0.0035
2066.00,0.0035
2065.00,0.0035
2064.00,0.0035
2063.00,0.0034
2062.00,0.0033
2061.00,0.0032
2060.00,0.0031
2059.00,0.0031
2058.00,0.0031
2057.00,0.0031
2056.00,0.0031
2055.00,0.0031
2054.00,0.0031
2053.00,0.0031
2052.00,0.0032
2051.00,0.0032
2050.00,0.0031
2049.00,0.0032
2048.00,0.0032
2047.00,0.0033
2046.00,0.0033
2045.00,0.0034
2044.00,0.0035
2043.00,0.0035
2042.00,0.0034
2041.00,0.0034
2040.00,0.0034
2039.00,0.0034
2038.00,0.0034
2037.00,0.0033
2036.00,0.0033
2035.00,0.0033
2034.00,0.0032
2033.00,0.0031
2032.00,0.0030
2031.00,0.0030
2030.00,0.0031
2029.00,0.0032
2028.00,0.0033
2027.00,0.0034
2026.00,0.0034
2025.00,0.0035
2024.00,0.0036
2023.00,0.0036
2022.00,0.0035
2021.00,0.0034
2020.00,0.0033
2019.00,0.0033
2018.00,0.0033
2017.00,0.0032
2016.00,0.0031
2015.00,0.0031
2014.00,0.0031
2013.00,0.0032
2012.00,0.0033
2011.00,0.0034
2010.00,0.0035
2009.00,0.0034
2008.00,0.0033
2007.00,0.0032
2006.00,0.0032
2005.00,0.0032
2004.00,0.0034
2003.00,0.0034
2002.00,0.0034
2001.00,0.0033
2000.00,0.0032
1999.00,0.0032
1998.00,0.0033
1997.00,0.0033
1996.00,0.0033
1995.00,0.0033
1994.00,0.0033
1993.00,0.0033
1992.00,0.0032
1991.00,0.0032
1990.00,0.0031
1989.00,0.0030
1988.00,0.0031
1987.00,0.0032
1986.00,0.0033
1985.00,0.0034
1984.00,0.0034
1983.00,0.0033
1982.00,0.0031
1981.00,0.0030
1980.00,0.0029
1979.00,0.0030
1978.00,0.0031
1977.00,0.0033
1976.00,0.0034
1975.00,0.0035
1974.00,0.0035
1973.00,0.0034
1972.00,0.0033
1971.00,0.0033
1970.00,0.0033
1969.00,0.0032
1968.00,0.0032
1967.00,0.0032
1966.00,0.0032
1965.00,0.0032
1964.00,0.0033
1963.00,0.0034
1962.00,0.0034
1961.00,0.0034
1960.00,0.0034
1959.00,0.0034
1958.00,0.0033
1957.00,0.0033
1956.00,0.0032
1955.00,0.0032
1954.00,0.0032
1953.00,0.0032
1952.00,0.0032
1951.00,0.0032
1950.00,0.0032
1949.00,0.0032
1948.00,0.0032
1947.00,0.0032
1946.00,0.0032
1945.00,0.0033
1944.00,0.0034
1943.00,0.0035
1942.00,0.0035
1941.00,0.0035
1940.00,0.0035
1939.00,0.0036
1938.00,0.0036
1937.00,0.0037
1936.00,0.0037
1935.00,0.0037
1934.00,0.0037
1933.00,0.0036
1932.00,0.0036
1931.00,0.0035
1930.00,0.0034
1929.00,0.0034
1928.00,0.0034
1927.00,0.0035
1926.00,0.0035
1925.00,0.0035
1924.00,0.0035
1923.00,0.0035
1922.00,0.0035
1921.00,0.0035
1920.00,0.0035
1919.00,0.0035
1918.00,0.0035
1917.00,0.0035
1916.00,0.0035
1915.00,0.0035
1914.00,0.0034
1913.00,0.0034
1912.00,0.0034
1911.00,0.0035
1910.00,0.0035
1909.00,0.0036
1908.00,0.0036
1907.00,0.0035
1906.00,0.0035
1905.00,0.0034
1904.00,0.0034
1903.00,0.0034
1902.00,0.0034
1901.00,0.0034
1900.00,0.0034
1899.00,0.0034
1898.00,0.0034
1897.00,0.0034
1896.00,0.0034
1895.00,0.0034
1894.00,0.0035
1893.00,0.0035
1892.00,0.0034
1891.00,0.0034
1890.00,0.0034
1889.00,0.0033
1888.00,0.0034
1887.00,0.0034
1886.00,0.0034
1885.00,0.0034
1884.00,0.0034
1883.00,0.0034
1882.00,0.0034
1881.00,0.0034
1880.00,0.0034
1879.00,0.0034
1878.00,0.0033
1877.00,0.0033
1876.00,0.0033
1875.00,0.0033
1874.00,0.0033
1873.00,0.0033
1872.00,0.0034
1871.00,0.0034
1870.00,0.0034
1869.00,0.0033
1868.00,0.0033
1867.00,0.0033
1866.00,0.0033
1865.00,0.0034
1864.00,0.0034
1863.00,0.0034
1862.00,0.0034
1861.00,0.0034
1860.00,0.0034
1859.00,0.0034
1858.00,0.0034
1857.00,0.0034
1856.00,0.0034
1855.00,0.0033
1854.00,0.0033
1853.00,0.0033
1852.00,0.0034
1851.00,0.0034
1850.00,0.0034
1849.00,0.0034
1848.00,0.0034
1847.00,0.0035
1846.00,0.0035
1845.00,0.0034
1844.00,0.0035
1843.00,0.0035
1842.00,0.0035
1841.00,0.0035
1840.00,0.0035
1839.00,0.0034
1838.00,0.0034
1837.00,0.0034
1836.00,0.0034
1835.00,0.0034
1834.00,0.0034
1833.00,0.0034
1832.00,0.0034
1831.00,0.0034
1830.00,0.0034
1829.00,0.0034
1828.00,0.0034
1827.00,0.0034
1826.00,0.0034
1825.00,0.0034
1824.00,0.0034
1823.00,0.0034
1822.00,0.0034
1821.00,0.0034
1820.00,0.0034
1819.00,0.0034
1818.00,0.0034
1817.00,0.0034
1816.00,0.0033
1815.00,0.0033
1814.00,0.0033
1813.00,0.0033
1812.00,0.0033
1811.00,0.0033
1810.00,0.0033
1809.00,0.0033
1808.00,0.0033
1807.00,0.0033
1806.00,0.0032
1805.00,0.0032
1804.00,0.0032
1803.00,0.0032
1802.00,0.0032
1801.00,0.0033
1800.00,0.0033
1799.00,0.0033
1798.00,0.0032
1797.00,0.0032
1796.00,0.0032
1795.00,0.0032
1794.00,0.0032
1793.00,0.0032
1792.00,0.0032
1791.00,0.0033
1790.00,0.0033
1789.00,0.0033
1788.00,0.0033
1787.00,0.0033
1786.00,0.0033
1785.00,0.0033
1784.00,0.0033
1783.00,0.0033
1782.00,0.0033
1781.00,0.0034
1780.00,0.0034
1779.00,0.0034
1778.00,0.0034
1777.00,0.0033
1776.00,0.0033
1775.00,0.0033
1774.00,0.0033
1773.00,0.0033
1772.00,0.0033
1771.00,0.0033
1770.00,0.0033
1769.00,0.0034
1768.00,0.0034
1767.00,0.0034
1766.00,0.0033
1765.00,0.0033
1764.00,0.0033
1763.00,0.0033
1762.00,0.0033
1761.00,0.0033
1760.00,0.0033
1759.00,0.0033
1758.00,0.0033
1757.00,0.0033
1756.00,0.0033
1755.00,0.0033
1754.00,0.0033
1753.00,0.0033
1752.00,0.0033
1751.00,0.0033
1750.00,0.0034
1749.00,0.0034
1748.00,0.0034
1747.00,0.0034
1746.00,0.0034
1745.00,0.0034
1744.00,0.0034
1743.00,0.0034
1742.00,0.0034
1741.00,0.0033
1740.00,0.0034
1739.00,0.0034
1738.00,0.0034
1737.00,0.0034
1736.00,0.0034
1735.00,0.0035
1734.00,0.0035
1733.00,0.0035
1732.00,0.0036
1731.00,0.0037
1730.00,0.0037
1729.00,0.0037
1728.00,0.0037
1727.00,0.0037
1726.00,0.0038
1725.00,0.0038
1724.00,0.0039
1723.00,0.0039
1722.00,0.0039
1721.00,0.0039
1720.00,0.0040
1719.00,0.0041
1718.00,0.0042
1717.00,0.0043
1716.00,0.0045
1715.00,0.0046
1714.00,0.0046
1713.00,0.0048
1712.00,0.0049
1711.00,0.0051
1710.00,0.0052
1709.00,0.0054
1708.00,0.0057
1707.00,0.0060
1706.00,0.0064
1705.00,0.0068
1704.00,0.0073
1703.00,0.0078
1702.00,0.0084
1701.00,0.0092
1700.00,0.0103
1699.00,0.0114
1698.00,0.0124
1697.00,0.0136
1696.00,0.0150
1695.00,0.0164
1694.00,0.0178
1693.00,0.0192
1692.00,0.0207
1691.00,0.0222
1690.00,0.0237
1689.00,0.0252
1688.00,0.0266
1687.00,0.0280
1686.00,0.0292
1685.00,0.0303
1684.00,0.0309
1683.00,0.0314
1682.00,0.0320
1681.00,0.0326
1680.00,0.0333
1679.00,0.0338
1678.00,0.0344
1677.00,0.0350
1676.00,0.0355
1675.00,0.0360
1674.00,0.0367
1673.00,0.0377
1672.00,0.0389
1671.00,0.0403
1670.00,0.0416
1669.00,0.0429
1668.00,0.0443
1667.00,0.0458
1666.00,0.0474
1665.00,0.0490
1664.00,0.0505
1663.00,0.0518
1662.00,0.0527
1661.00,0.0536
1660.00,0.0545
1659.00,0.0553
1658.00,0.0561
1657.00,0.0569
1656.00,0.0578
1655.00,0.0586
1654.00,0.0579
1653.00,0.0554
1652.00,0.0530
1651.00,0.0521
1650.00,0.0521
1649.00,0.0520
1648.00,0.0511
1647.00,0.0491
1646.00,0.0464
1645.00,0.0443
1644.00,0.0428
1643.00,0.0415
1642.00,0.0401
1641.00,0.0386
1640.00,0.0370
1639.00,0.0355
1638.00,0.0340
1637.00,0.0324
1636.00,0.0303
1635.00,0.0282
1634.00,0.0269
1633.00,0.0262
1632.00,0.0260
1631.00,0.0258
1630.00,0.0257
1629.00,0.0257
1628.00,0.0257
1627.00,0.0257
1626.00,0.0258
1625.00,0.0258
1624.00,0.0257
1623.00,0.0255
1622.00,0.0252
1621.00,0.0251
1620.00,0.0250
1619.00,0.0250
1618.00,0.0247
1617.00,0.0239
1616.00,0.0229
1615.00,0.0220
1614.00,0.0213
1613.00,0.0206
1612.00,0.0197
1611.00,0.0189
1610.00,0.0180
1609.00,0.0172
1608.00,0.0164
1607.00,0.0158
1606.00,0.0154
1605.00,0.0151
1604.00,0.0149
1603.00,0.0149
1602.00,0.0151
1601.00,0.0154
1600.00,0.0158
1599.00,0.0164
1598.00,0.0171
1597.00,0.0179
1596.00,0.0187
1595.00,0.0194
1594.00,0.0201
1593.00,0.0207
1592.00,0.0212
1591.00,0.0216
1590.00,0.0219
1589.00,0.0222
1588.00,0.0224
1587.00,0.0225
1586.00,0.0225
1585.00,0.0224
1584.00,0.0220
1583.00,0.0216
1582.00,0.0209
1581.00,0.0202
1580.00,0.0194
1579.00,0.0188
1578.00,0.0180
1577.00,0.0171
1576.00,0.0160
1575.00,0.0150
1574.00,0.0143
1573.00,0.0139
1572.00,0.0134
1571.00,0.0129
1570.00,0.0124
1569.00,0.0118
1568.00,0.0114
1567.00,0.0111
1566.00,0.0108
1565.00,0.0105
1564.00,0.0102
1563.00,0.0100
1562.00,0.0099
1561.00,0.0097
1560.00,0.0094
1559.00,0.0091
1558.00,0.0089
1557.00,0.0089
1556.00,0.0089
1555.00,0.0088
1554.00,0.0087
1553.00,0.0086
1552.00,0.0085
1551.00,0.0085
1550.00,0.0084
1549.00,0.0083
1548.00,0.0083
1547.00,0.0082
1546.00,0.0082
1545.00,0.0082
1544.00,0.0082
1543.00,0.0082
1542.00,0.0082
1541.00,0.0082
1540.00,0.0082
1539.00,0.0082
1538.00,0.0082
1537.00,0.0082
1536.00,0.0082
1535.00,0.0082
1534.00,0.0082
1533.00,0.0082
1532.00,0.0082
1531.00,0.0083
1530.00,0.0083
1529.00,0.0083
1528.00,0.0084
1527.00,0.0084
1526.00,0.0085
1525.00,0.0086
1524.00,0.0086
1523.00,0.0087
1522.00,0.0088
1521.00,0.0089
1520.00,0.0089
1519.00,0.0089
1518.00,0.0089
1517.00,0.0089
1516.00,0.0088
1515.00,0.0088
1514.00,0.0087
1513.00,0.0086
1512.00,0.0086
1511.00,0.0085
1510.00,0.0085
1509.00,0.0086
1508.00,0.0086
1507.00,0.0086
1506.00,0.0086
1505.00,0.0087
1504.00,0.0090
1503.00,0.0092
1502.00,0.0096
1501.00,0.0099
1500.00,0.0104
1499.00,0.0110
1498.00,0.0116
1497.00,0.0121
1496.00,0.0126
1495.00,0.0130
1494.00,0.0132
1493.00,0.0133
1492.00,0.0133
1491.00,0.0130
1490.00,0.0125
1489.00,0.0118
1488.00,0.0112
1487.00,0.0106
1486.00,0.0100
1485.00,0.0096
1484.00,0.0092
1483.00,0.0089
1482.00,0.0086
1481.00,0.0084
1480.00,0.0083
1479.00,0.0083
1478.00,0.0083
1477.00,0.0084
1476.00,0.0086
1475.00,0.0090
1474.00,0.0094
1473.00,0.0101
1472.00,0.0111
1471.00,0.0121
1470.00,0.0133
1469.00,0.0147
1468.00,0.0161
1467.00,0.0176
1466.00,0.0193
1465.00,0.0210
1464.00,0.0225
1463.00,0.0237
1462.00,0.0246
1461.00,0.0253
1460.00,0.0257
1459.00,0.0257
1458.00,0.0253
1457.00,0.0245
1456.00,0.0237
1455.00,0.0234
1454.00,0.0234
1453.00,0.0237
1452.00,0.0241
1451.00,0.0247
1450.00,0.0255
1449.00,0.0265
1448.00,0.0277
1447.00,0.0290
1446.00,0.0303
1445.00,0.0316
1444.00,0.0330
1443.00,0.0342
1442.00,0.0354
1441.00,0.0364
1440.00,0.0374
1439.00,0.0382
1438.00,0.0388
1437.00,0.0392
1436.00,0.0393
1435.00,0.0396
1434.00,0.0402
1433.00,0.0411
1432.00,0.0422
1431.00,0.0433
1430.00,0.0444
1429.00,0.0454
1428.00,0.0462
1427.00,0.0467
1426.00,0.0470
1425.00,0.0470
1424.00,0.0467
1423.00,0.0460
1422.00,0.0454
1421.00,0.0444
1420.00,0.0426
1419.00,0.0399
1418.00,0.0368
1417.00,0.0340
1416.00,0.0317
1415.00,0.0295
1414.00,0.0275
1413.00,0.0257
1412.00,0.0241
1411.00,0.0226
1410.00,0.0215
1409.00,0.0206
1408.00,0.0199
1407.00,0.0193
1406.00,0.0188
1405.00,0.0184
1404.00,0.0180
1403.00,0.0178
1402.00,0.0177
1401.00,0.0176
1400.00,0.0176
1399.00,0.0175
1398.00,0.0176
1397.00,0.0176
1396.00,0.0176
1395.00,0.0176
1394.00,0.0176
1393.00,0.0176
1392.00,0.0177
1391.00,0.0178
1390.00,0.0180
1389.00,0.0182
1388.00,0.0184
1387.00,0.0186
1386.00,0.0189
1385.00,0.0192
1384.00,0.0197
1383.00,0.0202
1382.00,0.0209
1381.00,0.0217
1380.00,0.0225
1379.00,0.0234
1378.00,0.0243
1377.00,0.0250
1376.00,0.0255
1375.00,0.0257
1374.00,0.0255
1373.00,0.0252
1372.00,0.0247
1371.00,0.0242
1370.00,0.0236
1369.00,0.0231
1368.00,0.0225
1367.00,0.0220
1366.00,0.0215
1365.00,0.0211
1364.00,0.0206
1363.00,0.0200
1362.00,0.0195
1361.00,0.0190
1360.00,0.0186
1359.00,0.0183
1358.00,0.0181
1357.00,0.0180
1356.00,0.0178
1355.00,0.0177
1354.00,0.0175
1353.00,0.0174
1352.00,0.0173
1351.00,0.0172
1350.00,0.0171
1349.00,0.0169
1348.00,0.0168
1347.00,0.0167
1346.00,0.0166
1345.00,0.0165
1344.00,0.0164
1343.00,0.0163
1342.00,0.0163
1341.00,0.0162
1340.00,0.0162
1339.00,0.0162
1338.00,0.0162
1337.00,0.0163
1336.00,0.0163
1335.00,0.0163
1334.00,0.0164
1333.00,0.0164
1332.00,0.0165
1331.00,0.0165
1330.00,0.0166
1329.00,0.0167
1328.00,0.0169
1327.00,0.0171
1326.00,0.0175
1325.00,0.0179
1324.00,0.0184
1323.00,0.0189
1322.00,0.0194
1321.00,0.0199
1320.00,0.0203
1319.00,0.0206
1318.00,0.0209
1317.00,0.0210
1316.00,0.0209
1315.00,0.0208
1314.00,0.0206
1313.00,0.0203
1312.00,0.0200
1311.00,0.0196
1310.00,0.0194
1309.00,0.0191
1308.00,0.0189
1307.00,0.0188
1306.00,0.0187
1305.00,0.0187
1304.00,0.0188
1303.00,0.0190
1302.00,0.0195
1301.00,0.0201
1300.00,0.0210
1299.00,0.0223
1298.00,0.0240
1297.00,0.0260
1296.00,0.0283
1295.00,0.0308
1294.00,0.0333
1293.00,0.0357
1292.00,0.0378
1291.00,0.0395
1290.00,0.0406
1289.00,0.0413
1288.00,0.0415
1287.00,0.0413
1286.00,0.0407
1285.00,0.0399
1284.00,0.0389
1283.00,0.0378
1282.00,0.0368
1281.00,0.0358
1280.00,0.0350
1279.00,0.0345
1278.00,0.0343
1277.00,0.0342
1276.00,0.0343
1275.00,0.0344
1274.00,0.0345
1273.00,0.0345
1272.00,0.0342
1271.00,0.0337
1270.00,0.0331
1269.00,0.0323
1268.00,0.0313
1267.00,0.0302
1266.00,0.0291
1265.00,0.0281
1264.00,0.0271
1263.00,0.0263
1262.00,0.0257
1261.00,0.0252
1260.00,0.0250
1259.00,0.0250
1258.00,0.0253
1257.00,0.0257
1256.00,0.0262
1255.00,0.0268
1254.00,0.0275
1253.00,0.0281
1252.00,0.0287
1251.00,0.0291
1250.00,0.0294
1249.00,0.0297
1248.00,0.0298
1247.00,0.0299
1246.00,0.0300
1245.00,0.0299
1244.00,0.0298
1243.00,0.0296
1242.00,0.0293
1241.00,0.0289
1240.00,0.0284
1239.00,0.0278
1238.00,0.0273
1237.00,0.0267
1236.00,0.0261
1235.00,0.0256
1234.00,0.0252
1233.00,0.0249
1232.00,0.0246
1231.00,0.0243
1230.00,0.0242
1229.00,0.0241
1228.00,0.0240
1227.00,0.0240
1226.00,0.0240
1225.00,0.0240
1224.00,0.0240
1223.00,0.0238
1222.00,0.0237
1221.00,0.0234
1220.00,0.0232
1219.00,0.0229
1218.00,0.0226
1217.00,0.0223
1216.00,0.0220
1215.00,0.0217
1214.00,0.0214
1213.00,0.0210
1212.00,0.0207
1211.00,0.0203
1210.00,0.0200
1209.00,0.0198
1208.00,0.0196
1207.00,0.0195
1206.00,0.0196
1205.00,0.0196
1204.00,0.0197
1203.00,0.0198
1202.00,0.0198
1201.00,0.0197
1200.00,0.0194
1199.00,0.0190
1198.00,0.0186
1197.00,0.0182
1196.00,0.0177
1195.00,0.0174
1194.00,0.0171
1193.00,0.0169
1192.00,0.0167
1191.00,0.0166
1190.00,0.0165
1189.00,0.0164
1188.00,0.0163
1187.00,0.0162
1186.00,0.0160
1185.00,0.0159
1184.00,0.0157
1183.00,0.0155
1182.00,0.0154
1181.00,0.0154
1180.00,0.0155
1179.00,0.0158
1178.00,0.0161
1177.00,0.0166
1176.00,0.0171
1175.00,0.0176
1174.00,0.0181
1173.00,0.0185
1172.00,0.0187
1171.00,0.0187
1170.00,0.0186
1169.00,0.0182
1168.00,0.0177
1167.00,0.0171
1166.00,0.0165
1165.00,0.0159
1164.00,0.0154
1163.00,0.0149
1162.00,0.0145
1161.00,0.0143
1160.00,0.0142
1159.00,0.0143
1158.00,0.0147
1157.00,0.0153
1156.00,0.0160
1155.00,0.0168
1154.00,0.0176
1153.00,0.0182
1152.00,0.0185
1151.00,0.0185
1150.00,0.0183
1149.00,0.0178
1148.00,0.0171
1147.00,0.0161
1146.00,0.0151
1145.00,0.0141
1144.00,0.0132
1143.00,0.0125
1142.00,0.0119
1141.00,0.0115
1140.00,0.0112
1139.00,0.0110
1138.00,0.0109
1137.00,0.0108
1136.00,0.0107
1135.00,0.0106
1134.00,0.0106
1133.00,0.0104
1132.00,0.0103
1131.00,0.0101
1130.00,0.0100
1129.00,0.0099
1128.00,0.0097
1127.00,0.0096
1126.00,0.0095
1125.00,0.0095
1124.00,0.0094
1123.00,0.0094
1122.00,0.0094
1121.00,0.0094
1120.00,0.0094
1119.00,0.0094
1118.00,0.0094
1117.00,0.0095
1116.00,0.0096
1115.00,0.0097
1114.00,0.0098
1113.00,0.0099
1112.00,0.0099
1111.00,0.0100
1110.00,0.0100
1109.00,0.0100
1108.00,0.0100
1107.00,0.0100
1106.00,0.0100
1105.00,0.0101
1104.00,0.0101
1103.00,0.0102
1102.00,0.0103
1101.00,0.0104
1100.00,0.0106
1099.00,0.0107
1098.00,0.0109
1097.00,0.0111
1096.00,0.0111
1095.00,0.0111
1094.00,0.0111
1093.00,0.0109
1092.00,0.0107
1091.00,0.0105
1090.00,0.0103
1089.00,0.0101
1088.00,0.0100
1087.00,0.0099
1086.00,0.0099
1085.00,0.0100
1084.00,0.0100
1083.00,0.0101
1082.00,0.0103
1081.00,0.0106
1080.00,0.0108
1079.00,0.0110
1078.00,0.0112
1077.00,0.0113
1076.00,0.0113
1075.00,0.0113
1074.00,0.0113
1073.00,0.0112
1072.00,0.0110
1071.00,0.0108
1070.00,0.0106
1069.00,0.0105
1068.00,0.0104
1067.00,0.0103
1066.00,0.0104
1065.00,0.0105
1064.00,0.0108
1063.00,0.0112
1062.00,0.0118
1061.00,0.0127
1060.00,0.0139
1059.00,0.0155
1058.00,0.0172
1057.00,0.0190
1056.00,0.0205
1055.00,0.0216
1054.00,0.0219
1053.00,0.0216
1052.00,0.0206
1051.00,0.0192
1050.00,0.0177
1049.00,0.0163
1048.00,0.0151
1047.00,0.0143
1046.00,0.0138
1045.00,0.0136
1044.00,0.0136
1043.00,0.0138
1042.00,0.0143
1041.00,0.0150
1040.00,0.0159
1039.00,0.0171
1038.00,0.0186
1037.00,0.0203
1036.00,0.0222
1035.00,0.0243
1034.00,0.0264
1033.00,0.0284
1032.00,0.0301
1031.00,0.0314
1030.00,0.0322
1029.00,0.0325
1028.00,0.0322
1027.00,0.0313
1026.00,0.0301
1025.00,0.0286
1024.00,0.0271
1023.00,0.0257
1022.00,0.0246
1021.00,0.0237
1020.00,0.0229
1019.00,0.0222
1018.00,0.0216
1017.00,0.0210
1016.00,0.0202
1015.00,0.0194
1014.00,0.0186
1013.00,0.0178
1012.00,0.0170
1011.00,0.0164
1010.00,0.0160
1009.00,0.0156
1008.00,0.0153
1007.00,0.0151
1006.00,0.0150
1005.00,0.0149
1004.00,0.0148
1003.00,0.0147
1002.00,0.0146
1001.00,0.0145
1000.00,0.0143
999.00,0.0141
998.00,0.0138
997.00,0.0136
996.00,0.0133
995.00,0.0130
994.00,0.0128
993.00,0.0127
992.00,0.0126
991.00,0.0126
990.00,0.0126
989.00,0.0127
988.00,0.0127
987.00,0.0127
986.00,0.0126
985.00,0.0125
984.00,0.0122
983.00,0.0119
982.00,0.0116
981.00,0.0113
980.00,0.0111
979.00,0.0108
978.00,0.0107
977.00,0.0106
976.00,0.0105
975.00,0.0105
974.00,0.0104
973.00,0.0104
972.00,0.0104
971.00,0.0103
970.00,0.0103
969.00,0.0103
968.00,0.0103
967.00,0.0104
966.00,0.0105
965.00,0.0106
964.00,0.0107
963.00,0.0106
962.00,0.0106
961.00,0.0104
960.00,0.0102
959.00,0.0100
958.00,0.0097
957.00,0.0094
956.00,0.0091
955.00,0.0088
954.00,0.0085
953.00,0.0082
952.00,0.0079
951.00,0.0076
950.00,0.0074
949.00,0.0073
948.00,0.0071
947.00,0.0070
946.00,0.0070
945.00,0.0069
944.00,0.0069
943.00,0.0068
942.00,0.0069
941.00,0.0069
940.00,0.0070
939.00,0.0071
938.00,0.0073
937.00,0.0075
936.00,0.0078
935.00,0.0080
934.00,0.0083
933.00,0.0085
932.00,0.0086
931.00,0.0086
930.00,0.0085
929.00,0.0084
928.00,0.0082
927.00,0.0080
926.00,0.0078
925.00,0.0077
924.00,0.0076
923.00,0.0076
922.00,0.0076
921.00,0.0076
920.00,0.0076
919.00,0.0076
918.00,0.0077
917.00,0.0079
916.00,0.0080
915.00,0.0081
914.00,0.0082
913.00,0.0083
912.00,0.0083
911.00,0.0084
910.00,0.0085
909.00,0.0087
908.00,0.0089
907.00,0.0093
906.00,0.0099
905.00,0.0104
904.00,0.0110
903.00,0.0115
902.00,0.0119
901.00,0.0123
900.00,0.0127
899.00,0.0131
898.00,0.0136
897.00,0.0140
896.00,0.0143
895.00,0.0147
894.00,0.0151
893.00,0.0154
892.00,0.0158
891.00,0.0162
890.00,0.0167
889.00,0.0171
888.00,0.0175
887.00,0.0179
886.00,0.0183
885.00,0.0186
884.00,0.0187
883.00,0.0187
882.00,0.0186
881.00,0.0184
880.00,0.0180
879.00,0.0176
878.00,0.0171
877.00,0.0165
876.00,0.0159
875.00,0.0154
874.00,0.0149
873.00,0.0145
872.00,0.0140
871.00,0.0137
870.00,0.0134
869.00,0.0133
868.00,0.0131
867.00,0.0132
866.00,0.0133
865.00,0.0135
864.00,0.0137
863.00,0.0138
862.00,0.0140
861.00,0.0142
860.00,0.0144
859.00,0.0147
858.00,0.0150
857.00,0.0154
856.00,0.0157
855.00,0.0161
854.00,0.0166
853.00,0.0170
852.00,0.0174
851.00,0.0176
850.00,0.0179
849.00,0.0181
848.00,0.0183
847.00,0.0184
846.00,0.0186
845.00,0.0187
844.00,0.0188
843.00,0.0188
842.00,0.0189
841.00,0.0190
840.00,0.0190
839.00,0.0190
838.00,0.0191
837.00,0.0193
836.00,0.0195
835.00,0.0197
834.00,0.0200
833.00,0.0203
832.00,0.0206
831.00,0.0208
830.00,0.0209
829.00,0.0208
828.00,0.0206
827.00,0.0203
826.00,0.0200
825.00,0.0196
824.00,0.0191
823.00,0.0185
822.00,0.0179
821.00,0.0173
820.00,0.0166
819.00,0.0160
818.00,0.0155
817.00,0.0150
816.00,0.0145
815.00,0.0141
814.00,0.0137
813.00,0.0135
812.00,0.0134
811.00,0.0134
810.00,0.0135
809.00,0.0136
808.00,0.0138
807.00,0.0140
806.00,0.0143
805.00,0.0145
804.00,0.0146
803.00,0.0144
802.00,0.0142
801.00,0.0138
800.00,0.0134
799.00,0.0131
798.00,0.0130
797.00,0.0131
796.00,0.0131
795.00,0.0132
794.00,0.0133
793.00,0.0134
792.00,0.0133
791.00,0.0132
790.00,0.0131
789.00,0.0130
788.00,0.0128
787.00,0.0127
786.00,0.0126
785.00,0.0125
784.00,0.0123
783.00,0.0121
782.00,0.0120
781.00,0.0119
780.00,0.0120
779.00,0.0122
778.00,0.0125
777.00,0.0128
776.00,0.0130
775.00,0.0132
774.00,0.0135
773.00,0.0137
772.00,0.0137
771.00,0.0137
770.00,0.0137
769.00,0.0138
768.00,0.0138
767.00,0.0138
766.00,0.0139
765.00,0.0140
764.00,0.0141
763.00,0.0143
762.00,0.0145
761.00,0.0148
760.00,0.0151
759.00,0.0154
758.00,0.0158
757.00,0.0161
756.00,0.0164
755.00,0.0166
754.00,0.0168
753.00,0.0168
752.00,0.0166
751.00,0.0163
750.00,0.0161
749.00,0.0159
748.00,0.0157
747.00,0.0156
746.00,0.0157
745.00,0.0159
744.00,0.0160
743.00,0.0161
742.00,0.0164
741.00,0.0167
740.00,0.0169
739.00,0.0171
738.00,0.0173
737.00,0.0175
736.00,0.0177
735.00,0.0178
734.00,0.0180
733.00,0.0181
732.00,0.0181
731.00,0.0181
730.00,0.0181
729.00,0.0179
728.00,0.0176
727.00,0.0172
726.00,0.0170
725.00,0.0168
724.00,0.0164
723.00,0.0162
722.00,0.0160
721.00,0.0159
720.00,0.0157
719.00,0.0155
718.00,0.0153
717.00,0.0150
716.00,0.0148
715.00,0.0147
714.00,0.0147
713.00,0.0148
712.00,0.0148
711.00,0.0148
710.00,0.0149
709.00,0.0149
708.00,0.0148
707.00,0.0148
706.00,0.0148
705.00,0.0149
704.00,0.0149
703.00,0.0149
702.00,0.0149
701.00,0.0150
700.00,0.0150
699.00,0.0151
698.00,0.0153
697.00,0.0153
696.00,0.0153
695.00,0.0153
694.00,0.0153
693.00,0.0154
692.00,0.0156
691.00,0.0157
690.00,0.0161
689.00,0.0164
688.00,0.0165
687.00,0.0167
686.00,0.0168
685.00,0.0170
684.00,0.0172
683.00,0.0175
682.00,0.0178
681.00,0.0180
680.00,0.0181
679.00,0.0182
678.00,0.0185
677.00,0.0187
676.00,0.0188
675.00,0.0189
674.00,0.0192
673.00,0.0193
672.00,0.0194
671.00,0.0195
670.00,0.0196
669.00,0.0199
668.00,0.0202
667.00,0.0204
666.00,0.0206
665.00,0.0207
664.00,0.0207
663.00,0.0208
662.00,0.0209
661.00,0.0211
660.00,0.0214
659.00,0.0217
658.00,0.0222
657.00,0.0227
656.00,0.0231
655.00,0.0235
654.00,0.0238
653.00,0.0242
652.00,0.0245
651.00,0.0248
650.00,0.0251
649.00,0.0253
648.00,0.0253
647.00,0.0251
646.00,0.0249
645.00,0.0246
644.00,0.0241
643.00,0.0237
642.00,0.0234
641.00,0.0230
640.00,0.0224
639.00,0.0217
638.00,0.0212
637.00,0.0207
636.00,0.0202
635.00,0.0198
634.00,0.0196
633.00,0.0193
632.00,0.0189
631.00,0.0185
630.00,0.0182
629.00,0.0178
628.00,0.0174
627.00,0.0172
626.00,0.0172
625.00,0.0172
624.00,0.0170
623.00,0.0168
622.00,0.0167
621.00,0.0167
620.00,0.0166
619.00,0.0166
618.00,0.0167
617.00,0.0169
616.00,0.0169
615.00,0.0168
614.00,0.0169
613.00,0.0170
612.00,0.0171
611.00,0.0172
610.00,0.0173
609.00,0.0174
608.00,0.0174
607.00,0.0173
606.00,0.0173
605.00,0.0172
604.00,0.0171
603.00,0.0172
602.00,0.0175
601.00,0.0178
600.00,0.0178
599.00,0.0178
598.00,0.0179
597.00,0.0179
596.00,0.0178
595.00,0.0178
594.00,0.0178
593.00,0.0179
592.00,0.0179
591.00,0.0179
590.00,0.0181
589.00,0.0184
588.00,0.0186
587.00,0.0187
586.00,0.0190
585.00,0.0194
584.00,0.0197
583.00,0.0200
582.00,0.0205
581.00,0.0210
580.00,0.0215
579.00,0.0220
578.00,0.0225
577.00,0.0227
576.00,0.0226
575.00,0.0223
574.00,0.0220
573.00,0.0216
572.00,0.0212
571.00,0.0209
570.00,0.0208
569.00,0.0206
568.00,0.0202
567.00,0.0198
566.00,0.0196
565.00,0.0193
564.00,0.0189
563.00,0.0185
562.00,0.0185
561.00,0.0185
560.00,0.0186
559.00,0.0187
558.00,0.0190
557.00,0.0193
556.00,0.0194
555.00,0.0197
554.00,0.0201
553.00,0.0204
552.00,0.0204
551.00,0.0204
550.00,0.0203
549.00,0.0201
548.00,0.0197
547.00,0.0194
546.00,0.0193
545.00,0.0192
544.00,0.0189
543.00,0.0185
542.00,0.0183
541.00,0.0181
540.00,0.0179
539.00,0.0179
538.00,0.0181
537.00,0.0184
536.00,0.0185
535.00,0.0186
534.00,0.0188
533.00,0.0188
532.00,0.0185
531.00,0.0183
530.00,0.0185
529.00,0.0187
528.00,0.0188
527.00,0.0189
526.00,0.0193
525.00,0.0196
524.00,0.0197
523.00,0.0198
522.00,0.0199
521.00,0.0196
520.00,0.0189
519.00,0.0180
518.00,0.0174
517.00,0.0169
516.00,0.0162
515.00,0.0157
514.00,0.0155
513.00,0.0154
512.00,0.0152
511.00,0.0151
510.00,0.0154
509.00,0.0155
508.00,0.0153
507.00,0.0150
506.00,0.0151
505.00,0.0151
504.00,0.0151
503.00,0.0150
502.00,0.0151
501.00,0.0150
500.00,0.0146
499.00,0.0145
498.00,0.0150
497.00,0.0155
496.00,0.0156
495.00,0.0156
494.00,0.0158
493.00,0.0160
492.00,0.0160
491.00,0.0162
490.00,0.0166
489.00,0.0169
488.00,0.0168
487.00,0.0168
486.00,0.0172
485.00,0.0176
484.00,0.0176
483.00,0.0176
482.00,0.0179
481.00,0.0181
480.00,0.0179
479.00,0.0176
478.00,0.0174
477.00,0.0171
476.00,0.0167
475.00,0.0166
474.00,0.0170
473.00,0.0174
472.00,0.0175
471.00,0.0176
470.00,0.0179
469.00,0.0179
468.00,0.0175
467.00,0.0172
466.00,0.0176
465.00,0.0178
464.00,0.0175
463.00,0.0170
462.00,0.0169
461.00,0.0168
460.00,0.0164
459.00,0.0162
458.00,0.0165
457.00,0.0166
456.00,0.0161
455.00,0.0155
454.00,0.0153
453.00,0.0152
452.00,0.0149
451.00,0.0148
450.00,0.0151
449.00,0.0153
448.00,0.0149
447.00,0.0146
446.00,0.0148
445.00,0.0150
444.00,0.0148
443.00,0.0146
442.00,0.0148
441.00,0.0150
440.00,0.0148
439.00,0.0149
438.00,0.0155
437.00,0.0159
436.00,0.0156
435.00,0.0155
434.00,0.0160
433.00,0.0164
432.00,0.0163
431.00,0.0163
430.00,0.0167
429.00,0.0170
428.00,0.0166
427.00,0.0165
426.00,0.0171
425.00,0.0178
424.00,0.0176
423.00,0.0171
422.00,0.0171
421.00,0.0172
420.00,0.0169
419.00,0.0168
418.00,0.0176
417.00,0.0179
416.00,0.0173
415.00,0.0169
414.00,0.0173
413.00,0.0176
412.00,0.0169
411.00,0.0161
410.00,0.0162
409.00,0.0162
408.00,0.0151
407.00,0.0141
406.00,0.0145
405.00,0.0154
404.00,0.0157
403.00,0.0161
402.00,0.0177
401.00,0.0187
400.00,0.0177
