Created as New Dataset,Sample 354 By YargerLab Date Tuesday, November 11 2025
cm-1,A
4000.00,0.0059
3999.00,0.0059
3998.00,0.0059
3997.00,0.0059
3996.00,0.0058
3995.00,0.0058
3994.00,0.0058
3993.00,0.0059
3992.00,0.0059
3991.00,0.0059
3990.00,0.0059
3989.00,0.0059
3988.00,0.0059
3987.00,0.0059
3986.00,0.0059
3985.00,0.0059
3984.00,0.0059
3983.00,0.0059
3982.00,0.0059
3981.00,0.0059
3980.00,0.0059
3979.00,0.0059
3978.00,0.0059
3977.00,0.0059
3976.00,0.0059
3975.00,0.0059
3974.00,0.0059
3973.00,0.0059
3972.00,0.0059
3971.00,0.0059
3970.00,0.0059
3969.00,0.0059
3968.00,0.0059
3967.00,0.0058
3966.00,0.0058
3965.00,0.0058
3964.00,0.0058
3963.00,0.0058
3962.00,0.0058
3961.00,0.0058
3960.00,0.0059
3959.00,0.0059
3958.00,0.0059
3957.00,0.0059
3956.00,0.0059
3955.00,0.0059
3954.00,0.0059
3953.00,0.0059
3952.00,0.0059
3951.00,0.0059
3950.00,0.0059
3949.00,0.0059
3948.00,0.0059
3947.00,0.0059
3946.00,0.0059
3945.00,0.0059
3944.00,0.0058
3943.00,0.0058
3942.00,0.0058
3941.00,0.0059
3940.00,0.0059
3939.00,0.0059
3938.00,0.0059
3937.00,0.0058
3936.00,0.0058
3935.00,0.0059
3934.00,0.0059
3933.00,0.0059
3932.00,0.0059
3931.00,0.0059
3930.00,0.0059
3929.00,0.0058
3928.00,0.0059
3927.00,0.0059
3926.00,0.0059
3925.00,0.0059
3924.00,0.0058
3923.00,0.0058
3922.00,0.0058
3921.00,0.0058
3920.00,0.0058
3919.00,0.0058
3918.00,0.0058
3917.00,0.0058
3916.00,0.0058
3915.00,0.0058
3914.00,0.0058
3913.00,0.0058
3912.00,0.0058
3911.00,0.0058
3910.00,0.0058
3909.00,0.0058
3908.00,0.0058
3907.00,0.0058
3906.00,0.0058
3905.00,0.0058
3904.00,0.0058
3903.00,0.0058
3902.00,0.0058
3901.00,0.0058
3900.00,0.0058
3899.00,0.0059
3898.00,0.0059
3897.00,0.0059
3896.00,0.0059
3895.00,0.0058
3894.00,0.0058
3893.00,0.0058
3892.00,0.0058
3891.00,0.0058
3890.00,0.0058
3889.00,0.0058
3888.00,0.0058
3887.00,0.0058
3886.00,0.0058
3885.00,0.0058
3884.00,0.0058
3883.00,0.0058
3882.00,0.0058
3881.00,0.0058
3880.00,0.0058
3879.00,0.0058
3878.00,0.0058
3877.00,0.0058
3876.00,0.0059
3875.00,0.0059
3874.00,0.0059
3873.00,0.0058
3872.00,0.0058
3871.00,0.0058
3870.00,0.0058
3869.00,0.0057
3868.00,0.0057
3867.00,0.0057
3866.00,0.0057
3865.00,0.0057
3864.00,0.0058
3863.00,0.0058
3862.00,0.0058
3861.00,0.0058
3860.00,0.0058
3859.00,0.0058
3858.00,0.0057
3857.00,0.0057
3856.00,0.0056
3855.00,0.0057
3854.00,0.0057
3853.00,0.0057
3852.00,0.0057
3851.00,0.0058
3850.00,0.0058
3849.00,0.0058
3848.00,0.0058
3847.00,0.0058
3846.00,0.0059
3845.00,0.0058
3844.00,0.0058
3843.00,0.0058
3842.00,0.0058
3841.00,0.0058
3840.00,0.0058
3839.00,0.0057
3838.00,0.0057
3837.00,0.0057
3836.00,0.0057
3835.00,0.0057
3834.00,0.0058
3833.00,0.0058
3832.00,0.0058
3831.00,0.0058
3830.00,0.0058
3829.00,0.0059
3828.00,0.0059
3827.00,0.0059
3826.00,0.0059
3825.00,0.0059
3824.00,0.0058
3823.00,0.0058
3822.00,0.0058
3821.00,0.0058
3820.00,0.0058
3819.00,0.0058
3818.00,0.0058
3817.00,0.0058
3816.00,0.0058
3815.00,0.0058
3814.00,0.0058
3813.00,0.0058
3812.00,0.0058
3811.00,0.0058
3810.00,0.0058
3809.00,0.0058
3808.00,0.0058
3807.00,0.0057
3806.00,0.0057
3805.00,0.0057
3804.00,0.0057
3803.00,0.0057
3802.00,0.0057
3801.00,0.0057
3800.00,0.0057
3799.00,0.0057
3798.00,0.0058
3797.00,0.0058
3796.00,0.0058
3795.00,0.0058
3794.00,0.0058
3793.00,0.0058
3792.00,0.0058
3791.00,0.0058
3790.00,0.0058
3789.00,0.0058
3788.00,0.0058
3787.00,0.0058
3786.00,0.0058
3785.00,0.0058
3784.00,0.0058
3783.00,0.0058
3782.00,0.0058
3781.00,0.0058
3780.00,0.0058
3779.00,0.0058
3778.00,0.0058
3777.00,0.0058
3776.00,0.0058
3775.00,0.0058
3774.00,0.0058
3773.00,0.0058
3772.00,0.0058
3771.00,0.0058
3770.00,0.0058
3769.00,0.0058
3768.00,0.0058
3767.00,0.0058
3766.00,0.0058
3765.00,0.0058
3764.00,0.0058
3763.00,0.0058
3762.00,0.0058
3761.00,0.0058
3760.00,0.0058
3759.00,0.0058
3758.00,0.0058
3757.00,0.0058
3756.00,0.0057
3755.00,0.0057
3754.00,0.0057
3753.00,0.0057
3752.00,0.0057
3751.00,0.0056
3750.00,0.0056
3749.00,0.0056
3748.00,0.0056
3747.00,0.0056
3746.00,0.0056
3745.00,0.0057
3744.00,0.0057
3743.00,0.0057
3742.00,0.0057
3741.00,0.0058
3740.00,0.0058
3739.00,0.0058
3738.00,0.0058
3737.00,0.0058
3736.00,0.0058
3735.00,0.0057
3734.00,0.0057
3733.00,0.0056
3732.00,0.0057
3731.00,0.0057
3730.00,0.0057
3729.00,0.0057
3728.00,0.0058
3727.00,0.0058
3726.00,0.0058
3725.00,0.0058
3724.00,0.0058
3723.00,0.0058
3722.00,0.0058
3721.00,0.0057
3720.00,0.0057
3719.00,0.0058
3718.00,0.0058
3717.00,0.0057
3716.00,0.0057
3715.00,0.0057
3714.00,0.0057
3713.00,0.0057
3712.00,0.0057
3711.00,0.0057
3710.00,0.0056
3709.00,0.0056
3708.00,0.0057
3707.00,0.0057
3706.00,0.0057
3705.00,0.0057
3704.00,0.0057
3703.00,0.0057
3702.00,0.0057
3701.00,0.0057
3700.00,0.0057
3699.00,0.0057
3698.00,0.0057
3697.00,0.0058
3696.00,0.0057
3695.00,0.0057
3694.00,0.0057
3693.00,0.0057
3692.00,0.0057
3691.00,0.0057
3690.00,0.0057
3689.00,0.0057
3688.00,0.0057
3687.00,0.0057
3686.00,0.0058
3685.00,0.0058
3684.00,0.0058
3683.00,0.0059
3682.00,0.0059
3681.00,0.0059
3680.00,0.0058
3679.00,0.0058
3678.00,0.0058
3677.00,0.0058
3676.00,0.0057
3675.00,0.0057
3674.00,0.0057
3673.00,0.0058
3672.00,0.0058
3671.00,0.0058
3670.00,0.0058
3669.00,0.0059
3668.00,0.0059
3667.00,0.0059
3666.00,0.0059
3665.00,0.0059
3664.00,0.0059
3663.00,0.0059
3662.00,0.0060
3661.00,0.0060
3660.00,0.0060
3659.00,0.0060
3658.00,0.0060
3657.00,0.0060
3656.00,0.0060
3655.00,0.0059
3654.00,0.0059
3653.00,0.0059
3652.00,0.0059
3651.00,0.0060
3650.00,0.0061
3649.00,0.0061
3648.00,0.0061
3647.00,0.0062
3646.00,0.0062
3645.00,0.0062
3644.00,0.0062
3643.00,0.0062
3642.00,0.0063
3641.00,0.0063
3640.00,0.0063
3639.00,0.0063
3638.00,0.0063
3637.00,0.0063
3636.00,0.0063
3635.00,0.0063
3634.00,0.0063
3633.00,0.0063
3632.00,0.0063
3631.00,0.0063
3630.00,0.0064
3629.00,0.0064
3628.00,0.0064
3627.00,0.0064
3626.00,0.0065
3625.00,0.0065
3624.00,0.0065
3623.00,0.0065
3622.00,0.0066
3621.00,0.0066
3620.00,0.0066
3619.00,0.0067
3618.00,0.0067
3617.00,0.0067
3616.00,0.0068
3615.00,0.0069
3614.00,0.0069
3613.00,0.0069
3612.00,0.0070
3611.00,0.0070
3610.00,0.0070
3609.00,0.0070
3608.00,0.0071
3607.00,0.0071
3606.00,0.0071
3605.00,0.0071
3604.00,0.0072
3603.00,0.0072
3602.00,0.0073
3601.00,0.0073
3600.00,0.0073
3599.00,0.0073
3598.00,0.0074
3597.00,0.0074
3596.00,0.0074
3595.00,0.0074
3594.00,0.0075
3593.00,0.0075
3592.00,0.0075
3591.00,0.0075
3590.00,0.0075
3589.00,0.0076
3588.00,0.0077
3587.00,0.0078
3586.00,0.0078
3585.00,0.0079
3584.00,0.0079
3583.00,0.0079
3582.00,0.0079
3581.00,0.0080
3580.00,0.0080
3579.00,0.0080
3578.00,0.0081
3577.00,0.0081
3576.00,0.0082
3575.00,0.0082
3574.00,0.0083
3573.00,0.0083
3572.00,0.0083
3571.00,0.0084
3570.00,0.0085
3569.00,0.0085
3568.00,0.0086
3567.00,0.0087
3566.00,0.0088
3565.00,0.0088
3564.00,0.0088
3563.00,0.0088
3562.00,0.0088
3561.00,0.0088
3560.00,0.0088
3559.00,0.0089
3558.00,0.0089
3557.00,0.0089
3556.00,0.0090
3555.00,0.0090
3554.00,0.0091
3553.00,0.0091
3552.00,0.0092
3551.00,0.0092
3550.00,0.0092
3549.00,0.0093
3548.00,0.0093
3547.00,0.0094
3546.00,0.0094
3545.00,0.0095
3544.00,0.0095
3543.00,0.0095
3542.00,0.0096
3541.00,0.0096
3540.00,0.0096
3539.00,0.0096
3538.00,0.0097
3537.00,0.0097
3536.00,0.0097
3535.00,0.0098
3534.00,0.0098
3533.00,0.0099
3532.00,0.0099
3531.00,0.0100
3530.00,0.0100
3529.00,0.0101
3528.00,0.0101
3527.00,0.0102
3526.00,0.0102
3525.00,0.0102
3524.00,0.0103
3523.00,0.0103
3522.00,0.0103
3521.00,0.0103
3520.00,0.0103
3519.00,0.0104
3518.00,0.0104
3517.00,0.0105
3516.00,0.0105
3515.00,0.0106
3514.00,0.0106
3513.00,0.0107
3512.00,0.0107
3511.00,0.0108
3510.00,0.0108
3509.00,0.0109
3508.00,0.0109
3507.00,0.0110
3506.00,0.0110
3505.00,0.0110
3504.00,0.0111
3503.00,0.0111
3502.00,0.0111
3501.00,0.0112
3500.00,0.0112
3499.00,0.0112
3498.00,0.0113
3497.00,0.0113
3496.00,0.0114
3495.00,0.0114
3494.00,0.0115
3493.00,0.0115
3492.00,0.0116
3491.00,0.0116
3490.00,0.0117
3489.00,0.0117
3488.00,0.0118
3487.00,0.0119
3486.00,0.0119
3485.00,0.0120
3484.00,0.0120
3483.00,0.0120
3482.00,0.0121
3481.00,0.0121
3480.00,0.0121
3479.00,0.0122
3478.00,0.0122
3477.00,0.0123
3476.00,0.0124
3475.00,0.0124
3474.00,0.0124
3473.00,0.0125
3472.00,0.0125
3471.00,0.0125
3470.00,0.0126
3469.00,0.0127
3468.00,0.0128
3467.00,0.0128
3466.00,0.0129
3465.00,0.0129
3464.00,0.0130
3463.00,0.0130
3462.00,0.0131
3461.00,0.0131
3460.00,0.0131
3459.00,0.0132
3458.00,0.0132
3457.00,0.0133
3456.00,0.0133
3455.00,0.0134
3454.00,0.0134
3453.00,0.0134
3452.00,0.0134
3451.00,0.0135
3450.00,0.0135
3449.00,0.0135
3448.00,0.0136
3447.00,0.0136
3446.00,0.0137
3445.00,0.0138
3444.00,0.0139
3443.00,0.0139
3442.00,0.0140
3441.00,0.0140
3440.00,0.0140
3439.00,0.0141
3438.00,0.0141
3437.00,0.0141
3436.00,0.0142
3435.00,0.0142
3434.00,0.0143
3433.00,0.0144
3432.00,0.0144
3431.00,0.0145
3430.00,0.0145
3429.00,0.0145
3428.00,0.0146
3427.00,0.0147
3426.00,0.0147
3425.00,0.0148
3424.00,0.0148
3423.00,0.0149
3422.00,0.0149
3421.00,0.0150
3420.00,0.0151
3419.00,0.0151
3418.00,0.0152
3417.00,0.0152
3416.00,0.0153
3415.00,0.0153
3414.00,0.0154
3413.00,0.0154
3412.00,0.0155
3411.00,0.0156
3410.00,0.0157
3409.00,0.0157
3408.00,0.0158
3407.00,0.0159
3406.00,0.0159
3405.00,0.0160
3404.00,0.0160
3403.00,0.0161
3402.00,0.0161
3401.00,0.0162
3400.00,0.0163
3399.00,0.0164
3398.00,0.0165
3397.00,0.0166
3396.00,0.0167
3395.00,0.0167
3394.00,0.0168
3393.00,0.0168
3392.00,0.0169
3391.00,0.0170
3390.00,0.0171
3389.00,0.0172
3388.00,0.0173
3387.00,0.0175
3386.00,0.0176
3385.00,0.0177
3384.00,0.0177
3383.00,0.0178
3382.00,0.0179
3381.00,0.0180
3380.00,0.0181
3379.00,0.0181
3378.00,0.0182
3377.00,0.0183
3376.00,0.0184
3375.00,0.0185
3374.00,0.0185
3373.00,0.0185
3372.00,0.0185
3371.00,0.0185
3370.00,0.0186
3369.00,0.0186
3368.00,0.0188
3367.00,0.0189
3366.00,0.0191
3365.00,0.0193
3364.00,0.0194
3363.00,0.0195
3362.00,0.0196
3361.00,0.0197
3360.00,0.0198
3359.00,0.0199
3358.00,0.0199
3357.00,0.0200
3356.00,0.0201
3355.00,0.0201
3354.00,0.0201
3353.00,0.0202
3352.00,0.0202
3351.00,0.0203
3350.00,0.0204
3349.00,0.0205
3348.00,0.0206
3347.00,0.0207
3346.00,0.0208
3345.00,0.0208
3344.00,0.0208
3343.00,0.0209
3342.00,0.0209
3341.00,0.0210
3340.00,0.0210
3339.00,0.0210
3338.00,0.0211
3337.00,0.0213
3336.00,0.0214
3335.00,0.0216
3334.00,0.0217
3333.00,0.0217
3332.00,0.0218
3331.00,0.0219
3330.00,0.0219
3329.00,0.0219
3328.00,0.0218
3327.00,0.0218
3326.00,0.0219
3325.00,0.0220
3324.00,0.0221
3323.00,0.0222
3322.00,0.0223
3321.00,0.0224
3320.00,0.0225
3319.00,0.0225
3318.00,0.0226
3317.00,0.0226
3316.00,0.0227
3315.00,0.0227
3314.00,0.0228
3313.00,0.0228
3312.00,0.0228
3311.00,0.0227
3310.00,0.0227
3309.00,0.0226
3308.00,0.0226
3307.00,0.0226
3306.00,0.0226
3305.00,0.0227
3304.00,0.0229
3303.00,0.0231
3302.00,0.0232
3301.00,0.0233
3300.00,0.0234
3299.00,0.0234
3298.00,0.0233
3297.00,0.0233
3296.00,0.0232
3295.00,0.0232
3294.00,0.0232
3293.00,0.0233
3292.00,0.0233
3291.00,0.0234
3290.00,0.0235
3289.00,0.0236
3288.00,0.0237
3287.00,0.0238
3286.00,0.0238
3285.00,0.0238
3284.00,0.0238
3283.00,0.0238
3282.00,0.0238
3281.00,0.0238
3280.00,0.0238
3279.00,0.0238
3278.00,0.0238
3277.00,0.0238
3276.00,0.0238
3275.00,0.0238
3274.00,0.0237
3273.00,0.0236
3272.00,0.0236
3271.00,0.0236
3270.00,0.0237
3269.00,0.0238
3268.00,0.0238
3267.00,0.0239
3266.00,0.0239
3265.00,0.0239
3264.00,0.0239
3263.00,0.0240
3262.00,0.0240
3261.00,0.0240
3260.00,0.0240
3259.00,0.0239
3258.00,0.0239
3257.00,0.0239
3256.00,0.0239
3255.00,0.0240
3254.00,0.0240
3253.00,0.0240
3252.00,0.0240
3251.00,0.0240
3250.00,0.0240
3249.00,0.0239
3248.00,0.0239
3247.00,0.0240
3246.00,0.0240
3245.00,0.0240
3244.00,0.0241
3243.00,0.0241
3242.00,0.0241
3241.00,0.0241
3240.00,0.0240
3239.00,0.0240
3238.00,0.0240
3237.00,0.0240
3236.00,0.0239
3235.00,0.0239
3234.00,0.0238
3233.00,0.0238
3232.00,0.0239
3231.00,0.0239
3230.00,0.0239
3229.00,0.0239
3228.00,0.0239
3227.00,0.0238
3226.00,0.0238
3225.00,0.0238
3224.00,0.0238
3223.00,0.0238
3222.00,0.0238
3221.00,0.0238
3220.00,0.0238
3219.00,0.0238
3218.00,0.0238
3217.00,0.0238
3216.00,0.0238
3215.00,0.0237
3214.00,0.0237
3213.00,0.0237
3212.00,0.0237
3211.00,0.0237
3210.00,0.0238
3209.00,0.0238
3208.00,0.0238
3207.00,0.0238
3206.00,0.0238
3205.00,0.0238
3204.00,0.0237
3203.00,0.0237
3202.00,0.0237
3201.00,0.0237
3200.00,0.0237
3199.00,0.0237
3198.00,0.0237
3197.00,0.0237
3196.00,0.0236
3195.00,0.0236
3194.00,0.0235
3193.00,0.0235
3192.00,0.0234
3191.00,0.0234
3190.00,0.0233
3189.00,0.0233
3188.00,0.0233
3187.00,0.0233
3186.00,0.0233
3185.00,0.0232
3184.00,0.0232
3183.00,0.0231
3182.00,0.0231
3181.00,0.0230
3180.00,0.0230
3179.00,0.0229
3178.00,0.0229
3177.00,0.0229
3176.00,0.0228
3175.00,0.0227
3174.00,0.0227
3173.00,0.0226
3172.00,0.0225
3171.00,0.0225
3170.00,0.0224
3169.00,0.0224
3168.00,0.0223
3167.00,0.0222
3166.00,0.0222
3165.00,0.0221
3164.00,0.0220
3163.00,0.0220
3162.00,0.0219
3161.00,0.0219
3160.00,0.0218
3159.00,0.0217
3158.00,0.0216
3157.00,0.0215
3156.00,0.0214
3155.00,0.0214
3154.00,0.0213
3153.00,0.0213
3152.00,0.0212
3151.00,0.0212
3150.00,0.0211
3149.00,0.0211
3148.00,0.0210
3147.00,0.0210
3146.00,0.0209
3145.00,0.0208
3144.00,0.0208
3143.00,0.0207
3142.00,0.0206
3141.00,0.0206
3140.00,0.0205
3139.00,0.0205
3138.00,0.0205
3137.00,0.0205
3136.00,0.0204
3135.00,0.0204
3134.00,0.0203
3133.00,0.0203
3132.00,0.0202
3131.00,0.0201
3130.00,0.0201
3129.00,0.0200
3128.00,0.0200
3127.00,0.0199
3126.00,0.0199
3125.00,0.0198
3124.00,0.0197
3123.00,0.0197
3122.00,0.0196
3121.00,0.0195
3120.00,0.0195
3119.00,0.0194
3118.00,0.0193
3117.00,0.0193
3116.00,0.0192
3115.00,0.0191
3114.00,0.0191
3113.00,0.0190
3112.00,0.0189
3111.00,0.0189
3110.00,0.0188
3109.00,0.0187
3108.00,0.0186
3107.00,0.0185
3106.00,0.0185
3105.00,0.0184
3104.00,0.0183
3103.00,0.0182
3102.00,0.0181
3101.00,0.0181
3100.00,0.0180
3099.00,0.0179
3098.00,0.0179
3097.00,0.0178
3096.00,0.0177
3095.00,0.0177
3094.00,0.0176
3093.00,0.0175
3092.00,0.0174
3091.00,0.0173
3090.00,0.0173
3089.00,0.0172
3088.00,0.0171
3087.00,0.0170
3086.00,0.0170
3085.00,0.0169
3084.00,0.0169
3083.00,0.0168
3082.00,0.0167
3081.00,0.0166
3080.00,0.0165
3079.00,0.0164
3078.00,0.0164
3077.00,0.0164
3076.00,0.0163
3075.00,0.0163
3074.00,0.0162
3073.00,0.0162
3072.00,0.0161
3071.00,0.0160
3070.00,0.0160
3069.00,0.0159
3068.00,0.0159
3067.00,0.0159
3066.00,0.0158
3065.00,0.0158
3064.00,0.0158
3063.00,0.0157
3062.00,0.0157
3061.00,0.0157
3060.00,0.0157
3059.00,0.0157
3058.00,0.0156
3057.00,0.0156
3056.00,0.0156
3055.00,0.0155
3054.00,0.0155
3053.00,0.0154
3052.00,0.0154
3051.00,0.0153
3050.00,0.0152
3049.00,0.0152
3048.00,0.0152
3047.00,0.0151
3046.00,0.0151
3045.00,0.0151
3044.00,0.0150
3043.00,0.0150
3042.00,0.0149
3041.00,0.0149
3040.00,0.0149
3039.00,0.0148
3038.00,0.0148
3037.00,0.0148
3036.00,0.0148
3035.00,0.0148
3034.00,0.0148
3033.00,0.0148
3032.00,0.0148
3031.00,0.0148
3030.00,0.0148
3029.00,0.0148
3028.00,0.0148
3027.00,0.0148
3026.00,0.0148
3025.00,0.0147
3024.00,0.0147
3023.00,0.0147
3022.00,0.0147
3021.00,0.0147
3020.00,0.0146
3019.00,0.0147
3018.00,0.0147
3017.00,0.0148
3016.00,0.0149
3015.00,0.0149
3014.00,0.0149
3013.00,0.0149
3012.00,0.0150
3011.00,0.0151
3010.00,0.0152
3009.00,0.0153
3008.00,0.0155
3007.00,0.0156
3006.00,0.0158
3005.00,0.0160
3004.00,0.0162
3003.00,0.0164
3002.00,0.0166
3001.00,0.0169
3000.00,0.0172
2999.00,0.0175
2998.00,0.0179
2997.00,0.0183
2996.00,0.0187
2995.00,0.0191
2994.00,0.0195
2993.00,0.0200
2992.00,0.0204
2991.00,0.0209
2990.00,0.0214
2989.00,0.0219
2988.00,0.0224
2987.00,0.0229
2986.00,0.0233
2985.00,0.0237
2984.00,0.0241
2983.00,0.0244
2982.00,0.0248
2981.00,0.0251
2980.00,0.0255
2979.00,0.0259
2978.00,0.0263
2977.00,0.0267
2976.00,0.0270
2975.00,0.0274
2974.00,0.0277
2973.00,0.0281
2972.00,0.0285
2971.00,0.0290
2970.00,0.0295
2969.00,0.0299
2968.00,0.0305
2967.00,0.0310
2966.00,0.0315
2965.00,0.0320
2964.00,0.0325
2963.00,0.0331
2962.00,0.0336
2961.00,0.0340
2960.00,0.0345
2959.00,0.0349
2958.00,0.0352
2957.00,0.0355
2956.00,0.0357
2955.00,0.0358
2954.00,0.0359
2953.00,0.0359
2952.00,0.0358
2951.00,0.0357
2950.00,0.0356
2949.00,0.0354
2948.00,0.0352
2947.00,0.0351
2946.00,0.0350
2945.00,0.0349
2944.00,0.0350
2943.00,0.0351
2942.00,0.0353
2941.00,0.0356
2940.00,0.0360
2939.00,0.0364
2938.00,0.0369
2937.00,0.0375
2936.00,0.0381
2935.00,0.0387
2934.00,0.0393
2933.00,0.0399
2932.00,0.0405
2931.00,0.0410
2930.00,0.0416
2929.00,0.0421
2928.00,0.0425
2927.00,0.0429
2926.00,0.0432
2925.00,0.0435
2924.00,0.0437
2923.00,0.0438
2922.00,0.0438
2921.00,0.0438
2920.00,0.0437
2919.00,0.0436
2918.00,0.0434
2917.00,0.0431
2916.00,0.0428
2915.00,0.0424
2914.00,0.0419
2913.00,0.0415
2912.00,0.0409
2911.00,0.0404
2910.00,0.0398
2909.00,0.0391
2908.00,0.0385
2907.00,0.0379
2906.00,0.0374
2905.00,0.0369
2904.00,0.0364
2903.00,0.0360
2902.00,0.0356
2901.00,0.0352
2900.00,0.0349
2899.00,0.0346
2898.00,0.0344
2897.00,0.0342
2896.00,0.0340
2895.00,0.0338
2894.00,0.0337
2893.00,0.0335
2892.00,0.0333
2891.00,0.0332
2890.00,0.0330
2889.00,0.0328
2888.00,0.0327
2887.00,0.0325
2886.00,0.0324
2885.00,0.0322
2884.00,0.0321
2883.00,0.0320
2882.00,0.0319
2881.00,0.0319
2880.00,0.0319
2879.00,0.0319
2878.00,0.0320
2877.00,0.0320
2876.00,0.0321
2875.00,0.0321
2874.00,0.0322
2873.00,0.0322
2872.00,0.0323
2871.00,0.0324
2870.00,0.0323
2869.00,0.0323
2868.00,0.0322
2867.00,0.0322
2866.00,0.0321
2865.00,0.0322
2864.00,0.0323
2863.00,0.0324
2862.00,0.0326
2861.00,0.0328
2860.00,0.0331
2859.00,0.0333
2858.00,0.0334
2857.00,0.0335
2856.00,0.0334
2855.00,0.0332
2854.00,0.0329
2853.00,0.0325
2852.00,0.0320
2851.00,0.0314
2850.00,0.0307
2849.00,0.0300
2848.00,0.0293
2847.00,0.0286
2846.00,0.0279
2845.00,0.0273
2844.00,0.0266
2843.00,0.0259
2842.00,0.0252
2841.00,0.0246
2840.00,0.0240
2839.00,0.0234
2838.00,0.0229
2837.00,0.0225
2836.00,0.0221
2835.00,0.0216
2834.00,0.0212
2833.00,0.0208
2832.00,0.0205
2831.00,0.0201
2830.00,0.0197
2829.00,0.0194
2828.00,0.0191
2827.00,0.0187
2826.00,0.0184
2825.00,0.0180
2824.00,0.0177
2823.00,0.0173
2822.00,0.0170
2821.00,0.0167
2820.00,0.0164
2819.00,0.0162
2818.00,0.0159
2817.00,0.0157
2816.00,0.0155
2815.00,0.0153
2814.00,0.0151
2813.00,0.0149
2812.00,0.0147
2811.00,0.0145
2810.00,0.0144
2809.00,0.0143
2808.00,0.0142
2807.00,0.0140
2806.00,0.0139
2805.00,0.0138
2804.00,0.0137
2803.00,0.0136
2802.00,0.0136
2801.00,0.0135
2800.00,0.0134
2799.00,0.0133
2798.00,0.0132
2797.00,0.0131
2796.00,0.0130
2795.00,0.0130
2794.00,0.0129
2793.00,0.0129
2792.00,0.0128
2791.00,0.0128
2790.00,0.0127
2789.00,0.0127
2788.00,0.0127
2787.00,0.0126
2786.00,0.0125
2785.00,0.0125
2784.00,0.0125
2783.00,0.0124
2782.00,0.0124
2781.00,0.0123
2780.00,0.0123
2779.00,0.0123
2778.00,0.0123
2777.00,0.0122
2776.00,0.0122
2775.00,0.0122
2774.00,0.0121
2773.00,0.0121
2772.00,0.0121
2771.00,0.0120
2770.00,0.0120
2769.00,0.0119
2768.00,0.0119
2767.00,0.0119
2766.00,0.0119
2765.00,0.0118
2764.00,0.0118
2763.00,0.0118
2762.00,0.0118
2761.00,0.0118
2760.00,0.0118
2759.00,0.0118
2758.00,0.0118
2757.00,0.0118
2756.00,0.0118
2755.00,0.0118
2754.00,0.0118
2753.00,0.0118
2752.00,0.0118
2751.00,0.0118
2750.00,0.0118
2749.00,0.0118
2748.00,0.0118
2747.00,0.0118
2746.00,0.0118
2745.00,0.0118
2744.00,0.0118
2743.00,0.0118
2742.00,0.0118
2741.00,0.0118
2740.00,0.0119
2739.00,0.0119
2738.00,0.0119
2737.00,0.0119
2736.00,0.0119
2735.00,0.0120
2734.00,0.0120
2733.00,0.0120
2732.00,0.0120
2731.00,0.0120
2730.00,0.0120
2729.00,0.0120
2728.00,0.0120
2727.00,0.0120
2726.00,0.0120
2725.00,0.0120
2724.00,0.0119
2723.00,0.0119
2722.00,0.0119
2721.00,0.0119
2720.00,0.0119
2719.00,0.0119
2718.00,0.0119
2717.00,0.0119
2716.00,0.0119
2715.00,0.0119
2714.00,0.0118
2713.00,0.0118
2712.00,0.0118
2711.00,0.0118
2710.00,0.0117
2709.00,0.0117
2708.00,0.0117
2707.00,0.0117
2706.00,0.0117
2705.00,0.0116
2704.00,0.0116
2703.00,0.0116
2702.00,0.0116
2701.00,0.0116
2700.00,0.0116
2699.00,0.0116
2698.00,0.0116
2697.00,0.0116
2696.00,0.0115
2695.00,0.0115
2694.00,0.0115
2693.00,0.0115
2692.00,0.0115
2691.00,0.0115
2690.00,0.0114
2689.00,0.0114
2688.00,0.0114
2687.00,0.0114
2686.00,0.0114
2685.00,0.0114
2684.00,0.0114
2683.00,0.0114
2682.00,0.0113
2681.00,0.0113
2680.00,0.0113
2679.00,0.0113
2678.00,0.0113
2677.00,0.0113
2676.00,0.0113
2675.00,0.0113
2674.00,0.0112
2673.00,0.0112
2672.00,0.0112
2671.00,0.0112
2670.00,0.0112
2669.00,0.0112
2668.00,0.0112
2667.00,0.0113
2666.00,0.0113
2665.00,0.0113
2664.00,0.0113
2663.00,0.0113
2662.00,0.0113
2661.00,0.0113
2660.00,0.0113
2659.00,0.0113
2658.00,0.0113
2657.00,0.0113
2656.00,0.0112
2655.00,0.0112
2654.00,0.0112
2653.00,0.0111
2652.00,0.0111
2651.00,0.0111
2650.00,0.0111
2649.00,0.0111
2648.00,0.0111
2647.00,0.0111
2646.00,0.0110
2645.00,0.0110
2644.00,0.0110
2643.00,0.0110
2642.00,0.0109
2641.00,0.0109
2640.00,0.0109
2639.00,0.0108
2638.00,0.0108
2637.00,0.0108
2636.00,0.0108
2635.00,0.0107
2634.00,0.0107
2633.00,0.0107
2632.00,0.0107
2631.00,0.0107
2630.00,0.0106
2629.00,0.0106
2628.00,0.0106
2627.00,0.0105
2626.00,0.0105
2625.00,0.0104
2624.00,0.0104
2623.00,0.0104
2622.00,0.0103
2621.00,0.0103
2620.00,0.0103
2619.00,0.0103
2618.00,0.0102
2617.00,0.0102
2616.00,0.0102
2615.00,0.0102
2614.00,0.0101
2613.00,0.0101
2612.00,0.0101
2611.00,0.0101
2610.00,0.0101
2609.00,0.0101
2608.00,0.0101
2607.00,0.0101
2606.00,0.0101
2605.00,0.0101
2604.00,0.0101
2603.00,0.0100
2602.00,0.0100
2601.00,0.0100
2600.00,0.0100
2599.00,0.0100
2598.00,0.0100
2597.00,0.0100
2596.00,0.0100
2595.00,0.0100
2594.00,0.0101
2593.00,0.0101
2592.00,0.0101
2591.00,0.0101
2590.00,0.0101
2589.00,0.0101
2588.00,0.0101
2587.00,0.0101
2586.00,0.0100
2585.00,0.0100
2584.00,0.0100
2583.00,0.0100
2582.00,0.0100
2581.00,0.0100
2580.00,0.0100
2579.00,0.0100
2578.00,0.0099
2577.00,0.0099
2576.00,0.0099
2575.00,0.0099
2574.00,0.0099
2573.00,0.0099
2572.00,0.0099
2571.00,0.0098
2570.00,0.0098
2569.00,0.0098
2568.00,0.0098
2567.00,0.0098
2566.00,0.0097
2565.00,0.0097
2564.00,0.0097
2563.00,0.0096
2562.00,0.0096
2561.00,0.0096
2560.00,0.0096
2559.00,0.0096
2558.00,0.0096
2557.00,0.0095
2556.00,0.0095
2555.00,0.0094
2554.00,0.0094
2553.00,0.0094
2552.00,0.0094
2551.00,0.0094
2550.00,0.0094
2549.00,0.0094
2548.00,0.0093
2547.00,0.0093
2546.00,0.0093
2545.00,0.0093
2544.00,0.0093
2543.00,0.0093
2542.00,0.0093
2541.00,0.0093
2540.00,0.0093
2539.00,0.0093
2538.00,0.0093
2537.00,0.0093
2536.00,0.0093
2535.00,0.0093
2534.00,0.0093
2533.00,0.0092
2532.00,0.0092
2531.00,0.0092
2530.00,0.0092
2529.00,0.0092
2528.00,0.0092
2527.00,0.0092
2526.00,0.0092
2525.00,0.0092
2524.00,0.0092
2523.00,0.0092
2522.00,0.0092
2521.00,0.0091
2520.00,0.0091
2519.00,0.0091
2518.00,0.0091
2517.00,0.0091
2516.00,0.0092
2515.00,0.0092
2514.00,0.0092
2513.00,0.0091
2512.00,0.0091
2511.00,0.0090
2510.00,0.0090
2509.00,0.0090
2508.00,0.0090
2507.00,0.0090
2506.00,0.0089
2505.00,0.0089
2504.00,0.0089
2503.00,0.0088
2502.00,0.0088
2501.00,0.0088
2500.00,0.0088
2499.00,0.0088
2498.00,0.0088
2497.00,0.0088
2496.00,0.0088
2495.00,0.0088
2494.00,0.0088
2493.00,0.0088
2492.00,0.0088
2491.00,0.0088
2490.00,0.0088
2489.00,0.0088
2488.00,0.0087
2487.00,0.0087
2486.00,0.0087
2485.00,0.0087
2484.00,0.0087
2483.00,0.0087
2482.00,0.0086
2481.00,0.0086
2480.00,0.0086
2479.00,0.0086
2478.00,0.0086
2477.00,0.0086
2476.00,0.0086
2475.00,0.0086
2474.00,0.0086
2473.00,0.0086
2472.00,0.0087
2471.00,0.0087
2470.00,0.0086
2469.00,0.0086
2468.00,0.0086
2467.00,0.0086
2466.00,0.0086
2465.00,0.0085
2464.00,0.0085
2463.00,0.0085
2462.00,0.0085
2461.00,0.0085
2460.00,0.0085
2459.00,0.0085
2458.00,0.0086
2457.00,0.0086
2456.00,0.0086
2455.00,0.0086
2454.00,0.0085
2453.00,0.0085
2452.00,0.0085
2451.00,0.0085
2450.00,0.0085
2449.00,0.0084
2448.00,0.0084
2447.00,0.0084
2446.00,0.0084
2445.00,0.0084
2444.00,0.0084
2443.00,0.0084
2442.00,0.0084
2441.00,0.0085
2440.00,0.0085
2439.00,0.0085
2438.00,0.0085
2437.00,0.0085
2436.00,0.0084
2435.00,0.0084
2434.00,0.0084
2433.00,0.0083
2432.00,0.0083
2431.00,0.0083
2430.00,0.0083
2429.00,0.0083
2428.00,0.0083
2427.00,0.0083
2426.00,0.0083
2425.00,0.0083
2424.00,0.0083
2423.00,0.0083
2422.00,0.0082
2421.00,0.0082
2420.00,0.0082
2419.00,0.0082
2418.00,0.0082
2417.00,0.0082
2416.00,0.0083
2415.00,0.0083
2414.00,0.0083
2413.00,0.0083
2412.00,0.0083
2411.00,0.0083
2410.00,0.0083
2409.00,0.0083
2408.00,0.0082
2407.00,0.0082
2406.00,0.0082
2405.00,0.0082
2404.00,0.0082
2403.00,0.0082
2402.00,0.0082
2401.00,0.0082
2400.00,0.0082
2399.00,0.0082
2398.00,0.0083
2397.00,0.0083
2396.00,0.0083
2395.00,0.0083
2394.00,0.0083
2393.00,0.0082
2392.00,0.0082
2391.00,0.0082
2390.00,0.0082
2389.00,0.0081
2388.00,0.0081
2387.00,0.0081
2386.00,0.0081
2385.00,0.0081
2384.00,0.0081
2383.00,0.0080
2382.00,0.0080
2381.00,0.0080
2380.00,0.0080
2379.00,0.0080
2378.00,0.0080
2377.00,0.0080
2376.00,0.0080
2375.00,0.0080
2374.00,0.0079
2373.00,0.0079
2372.00,0.0079
2371.00,0.0078
2370.00,0.0078
2369.00,0.0078
2368.00,0.0078
2367.00,0.0078
2366.00,0.0078
2365.00,0.0079
2364.00,0.0079
2363.00,0.0079
2362.00,0.0079
2361.00,0.0079
2360.00,0.0079
2359.00,0.0079
2358.00,0.0079
2357.00,0.0079
2356.00,0.0079
2355.00,0.0079
2354.00,0.0078
2353.00,0.0078
2352.00,0.0079
2351.00,0.0080
2350.00,0.0080
2349.00,0.0081
2348.00,0.0081
2347.00,0.0081
2346.00,0.0081
2345.00,0.0081
2344.00,0.0081
2343.00,0.0081
2342.00,0.0081
2341.00,0.0082
2340.00,0.0082
2339.00,0.0082
2338.00,0.0082
2337.00,0.0082
2336.00,0.0081
2335.00,0.0081
2334.00,0.0080
2333.00,0.0081
2332.00,0.0081
2331.00,0.0082
2330.00,0.0083
2329.00,0.0084
2328.00,0.0086
2327.00,0.0089
2326.00,0.0090
2325.00,0.0091
2324.00,0.0090
2323.00,0.0089
2322.00,0.0088
2321.00,0.0087
2320.00,0.0086
2319.00,0.0086
2318.00,0.0086
2317.00,0.0085
2316.00,0.0085
2315.00,0.0085
2314.00,0.0084
2313.00,0.0084
2312.00,0.0084
2311.00,0.0084
2310.00,0.0084
2309.00,0.0084
2308.00,0.0084
2307.00,0.0083
2306.00,0.0083
2305.00,0.0084
2304.00,0.0084
2303.00,0.0084
2302.00,0.0084
2301.00,0.0084
2300.00,0.0084
2299.00,0.0084
2298.00,0.0084
2297.00,0.0084
2296.00,0.0085
2295.00,0.0085
2294.00,0.0086
2293.00,0.0086
2292.00,0.0087
2291.00,0.0087
2290.00,0.0087
2289.00,0.0087
2288.00,0.0087
2287.00,0.0087
2286.00,0.0087
2285.00,0.0087
2284.00,0.0087
2283.00,0.0086
2282.00,0.0086
2281.00,0.0086
2280.00,0.0085
2279.00,0.0085
2278.00,0.0084
2277.00,0.0083
2276.00,0.0083
2275.00,0.0083
2274.00,0.0083
2273.00,0.0083
2272.00,0.0083
2271.00,0.0083
2270.00,0.0083
2269.00,0.0083
2268.00,0.0083
2267.00,0.0083
2266.00,0.0082
2265.00,0.0082
2264.00,0.0081
2263.00,0.0081
2262.00,0.0081
2261.00,0.0081
2260.00,0.0081
2259.00,0.0081
2258.00,0.0080
2257.00,0.0080
2256.00,0.0080
2255.00,0.0080
2254.00,0.0079
2253.00,0.0079
2252.00,0.0079
2251.00,0.0079
2250.00,0.0079
2249.00,0.0080
2248.00,0.0081
2247.00,0.0082
2246.00,0.0082
2245.00,0.0082
2244.00,0.0083
2243.00,0.0083
2242.00,0.0082
2241.00,0.0082
2240.00,0.0082
2239.00,0.0081
2238.00,0.0080
2237.00,0.0080
2236.00,0.0080
2235.00,0.0080
2234.00,0.0081
2233.00,0.0081
2232.00,0.0080
2231.00,0.0080
2230.00,0.0079
2229.00,0.0079
2228.00,0.0079
2227.00,0.0079
2226.00,0.0079
2225.00,0.0079
2224.00,0.0080
2223.00,0.0080
2222.00,0.0080
2221.00,0.0080
2220.00,0.0080
2219.00,0.0081
2218.00,0.0081
2217.00,0.0081
2216.00,0.0081
2215.00,0.0081
2214.00,0.0081
2213.00,0.0082
2212.00,0.0082
2211.00,0.0083
2210.00,0.0082
2209.00,0.0081
2208.00,0.0080
2207.00,0.0079
2206.00,0.0078
2205.00,0.0078
2204.00,0.0079
2203.00,0.0079
2202.00,0.0079
2201.00,0.0079
2200.00,0.0080
2199.00,0.0080
2198.00,0.0080
2197.00,0.0080
2196.00,0.0080
2195.00,0.0080
2194.00,0.0081
2193.00,0.0082
2192.00,0.0083
2191.00,0.0083
2190.00,0.0082
2189.00,0.0082
2188.00,0.0082
2187.00,0.0082
2186.00,0.0081
2185.00,0.0080
2184.00,0.0079
2183.00,0.0078
2182.00,0.0075
2181.00,0.0074
2180.00,0.0073
2179.00,0.0073
2178.00,0.0072
2177.00,0.0071
2176.00,0.0071
2175.00,0.0072
2174.00,0.0074
2173.00,0.0076
2172.00,0.0079
2171.00,0.0081
2170.00,0.0084
2169.00,0.0086
2168.00,0.0087
2167.00,0.0087
2166.00,0.0087
2165.00,0.0087
2164.00,0.0089
2163.00,0.0089
2162.00,0.0086
2161.00,0.0080
2160.00,0.0071
2159.00,0.0063
2158.00,0.0058
2157.00,0.0056
2156.00,0.0058
2155.00,0.0059
2154.00,0.0061
2153.00,0.0062
2152.00,0.0064
2151.00,0.0066
2150.00,0.0067
2149.00,0.0068
2148.00,0.0067
2147.00,0.0066
2146.00,0.0064
2145.00,0.0064
2144.00,0.0064
2143.00,0.0065
2142.00,0.0064
2141.00,0.0065
2140.00,0.0065
2139.00,0.0064
2138.00,0.0063
2137.00,0.0061
2136.00,0.0060
2135.00,0.0059
2134.00,0.0060
2133.00,0.0062
2132.00,0.0064
2131.00,0.0066
2130.00,0.0067
2129.00,0.0067
2128.00,0.0068
2127.00,0.0068
2126.00,0.0069
2125.00,0.0070
2124.00,0.0072
2123.00,0.0073
2122.00,0.0073
2121.00,0.0073
2120.00,0.0073
2119.00,0.0073
2118.00,0.0074
2117.00,0.0075
2116.00,0.0076
2115.00,0.0076
2114.00,0.0076
2113.00,0.0076
2112.00,0.0076
2111.00,0.0075
2110.00,0.0074
2109.00,0.0074
2108.00,0.0074
2107.00,0.0074
2106.00,0.0075
2105.00,0.0075
2104.00,0.0075
2103.00,0.0074
2102.00,0.0073
2101.00,0.0073
2100.00,0.0073
2099.00,0.0074
2098.00,0.0074
2097.00,0.0073
2096.00,0.0072
2095.00,0.0071
2094.00,0.0069
2093.00,0.0069
2092.00,0.0069
2091.00,0.0070
2090.00,0.0071
2089.00,0.0072
2088.00,0.0073
2087.00,0.0074
2086.00,0.0074
2085.00,0.0074
2084.00,0.0074
2083.00,0.0074
2082.00,0.0075
2081.00,0.0075
2080.00,0.0075
2079.00,0.0075
2078.00,0.0074
2077.00,0.0073
2076.00,0.0074
2075.00,0.0074
2074.00,0.0075
2073.00,0.0075
2072.00,0.0075
2071.00,0.0075
2070.00,0.0074
2069.00,0.0074
2068.00,0.0074
2067.00,0.0074
2066.00,0.0073
2065.00,0.0073
2064.00,0.0073
2063.00,0.0073
2062.00,0.0073
2061.00,0.0073
2060.00,0.0073
2059.00,0.0074
2058.00,0.0073
2057.00,0.0072
2056.00,0.0071
2055.00,0.0072
2054.00,0.0074
2053.00,0.0077
2052.00,0.0079
2051.00,0.0079
2050.00,0.0078
2049.00,0.0076
2048.00,0.0075
2047.00,0.0074
2046.00,0.0072
2045.00,0.0071
2044.00,0.0071
2043.00,0.0071
2042.00,0.0071
2041.00,0.0070
2040.00,0.0070
2039.00,0.0069
2038.00,0.0068
2037.00,0.0068
2036.00,0.0068
2035.00,0.0068
2034.00,0.0068
2033.00,0.0068
2032.00,0.0069
2031.00,0.0070
2030.00,0.0069
2029.00,0.0068
2028.00,0.0067
2027.00,0.0067
2026.00,0.0067
2025.00,0.0067
2024.00,0.0068
2023.00,0.0068
2022.00,0.0067
2021.00,0.0066
2020.00,0.0067
2019.00,0.0068
2018.00,0.0069
2017.00,0.0069
2016.00,0.0068
2015.00,0.0066
2014.00,0.0065
2013.00,0.0066
2012.00,0.0070
2011.00,0.0072
2010.00,0.0070
2009.00,0.0067
2008.00,0.0063
2007.00,0.0060
2006.00,0.0060
2005.00,0.0061
2004.00,0.0063
2003.00,0.0065
2002.00,0.0067
2001.00,0.0070
2000.00,0.0072
1999.00,0.0073
1998.00,0.0072
1997.00,0.0072
1996.00,0.0072
1995.00,0.0072
1994.00,0.0071
1993.00,0.0070
1992.00,0.0070
1991.00,0.0070
1990.00,0.0071
1989.00,0.0071
1988.00,0.0071
1987.00,0.0070
1986.00,0.0070
1985.00,0.0071
1984.00,0.0074
1983.00,0.0078
1982.00,0.0080
1981.00,0.0081
1980.00,0.0080
1979.00,0.0075
1978.00,0.0069
1977.00,0.0065
1976.00,0.0063
1975.00,0.0063
1974.00,0.0063
1973.00,0.0065
1972.00,0.0067
1971.00,0.0067
1970.00,0.0066
1969.00,0.0065
1968.00,0.0065
1967.00,0.0065
1966.00,0.0064
1965.00,0.0064
1964.00,0.0065
1963.00,0.0065
1962.00,0.0063
1961.00,0.0062
1960.00,0.0061
1959.00,0.0061
1958.00,0.0061
1957.00,0.0062
1956.00,0.0063
1955.00,0.0063
1954.00,0.0062
1953.00,0.0061
1952.00,0.0061
1951.00,0.0061
1950.00,0.0062
1949.00,0.0063
1948.00,0.0064
1947.00,0.0065
1946.00,0.0065
1945.00,0.0065
1944.00,0.0065
1943.00,0.0065
1942.00,0.0065
1941.00,0.0065
1940.00,0.0066
1939.00,0.0067
1938.00,0.0066
1937.00,0.0066
1936.00,0.0066
1935.00,0.0066
1934.00,0.0065
1933.00,0.0065
1932.00,0.0066
1931.00,0.0067
1930.00,0.0068
1929.00,0.0068
1928.00,0.0068
1927.00,0.0068
1926.00,0.0067
1925.00,0.0067
1924.00,0.0067
1923.00,0.0067
1922.00,0.0067
1921.00,0.0067
1920.00,0.0067
1919.00,0.0067
1918.00,0.0067
1917.00,0.0067
1916.00,0.0068
1915.00,0.0068
1914.00,0.0068
1913.00,0.0068
1912.00,0.0068
1911.00,0.0069
1910.00,0.0069
1909.00,0.0068
1908.00,0.0068
1907.00,0.0068
1906.00,0.0067
1905.00,0.0067
1904.00,0.0068
1903.00,0.0068
1902.00,0.0069
1901.00,0.0069
1900.00,0.0068
1899.00,0.0068
1898.00,0.0068
1897.00,0.0068
1896.00,0.0068
1895.00,0.0068
1894.00,0.0068
1893.00,0.0068
1892.00,0.0069
1891.00,0.0069
1890.00,0.0069
1889.00,0.0068
1888.00,0.0068
1887.00,0.0068
1886.00,0.0068
1885.00,0.0068
1884.00,0.0069
1883.00,0.0068
1882.00,0.0068
1881.00,0.0068
1880.00,0.0069
1879.00,0.0069
1878.00,0.0069
1877.00,0.0068
1876.00,0.0069
1875.00,0.0069
1874.00,0.0068
1873.00,0.0068
1872.00,0.0069
1871.00,0.0069
1870.00,0.0068
1869.00,0.0068
1868.00,0.0068
1867.00,0.0068
1866.00,0.0069
1865.00,0.0069
1864.00,0.0070
1863.00,0.0070
1862.00,0.0069
1861.00,0.0069
1860.00,0.0069
1859.00,0.0069
1858.00,0.0068
1857.00,0.0068
1856.00,0.0069
1855.00,0.0069
1854.00,0.0069
1853.00,0.0069
1852.00,0.0069
1851.00,0.0069
1850.00,0.0069
1849.00,0.0069
1848.00,0.0069
1847.00,0.0069
1846.00,0.0069
1845.00,0.0068
1844.00,0.0068
1843.00,0.0068
1842.00,0.0068
1841.00,0.0068
1840.00,0.0069
1839.00,0.0069
1838.00,0.0069
1837.00,0.0068
1836.00,0.0068
1835.00,0.0068
1834.00,0.0068
1833.00,0.0068
1832.00,0.0068
1831.00,0.0068
1830.00,0.0067
1829.00,0.0067
1828.00,0.0067
1827.00,0.0068
1826.00,0.0068
1825.00,0.0068
1824.00,0.0068
1823.00,0.0068
1822.00,0.0068
1821.00,0.0067
1820.00,0.0067
1819.00,0.0067
1818.00,0.0066
1817.00,0.0066
1816.00,0.0066
1815.00,0.0067
1814.00,0.0067
1813.00,0.0067
1812.00,0.0068
1811.00,0.0068
1810.00,0.0068
1809.00,0.0067
1808.00,0.0067
1807.00,0.0067
1806.00,0.0067
1805.00,0.0067
1804.00,0.0068
1803.00,0.0068
1802.00,0.0068
1801.00,0.0068
1800.00,0.0068
1799.00,0.0068
1798.00,0.0068
1797.00,0.0068
1796.00,0.0068
1795.00,0.0068
1794.00,0.0068
1793.00,0.0068
1792.00,0.0068
1791.00,0.0068
1790.00,0.0067
1789.00,0.0067
1788.00,0.0068
1787.00,0.0068
1786.00,0.0068
1785.00,0.0068
1784.00,0.0068
1783.00,0.0068
1782.00,0.0068
1781.00,0.0068
1780.00,0.0068
1779.00,0.0068
1778.00,0.0068
1777.00,0.0068
1776.00,0.0069
1775.00,0.0070
1774.00,0.0069
1773.00,0.0069
1772.00,0.0069
1771.00,0.0068
1770.00,0.0069
1769.00,0.0069
1768.00,0.0070
1767.00,0.0070
1766.00,0.0070
1765.00,0.0070
1764.00,0.0071
1763.00,0.0071
1762.00,0.0070
1761.00,0.0071
1760.00,0.0072
1759.00,0.0072
1758.00,0.0072
1757.00,0.0072
1756.00,0.0073
1755.00,0.0073
1754.00,0.0074
1753.00,0.0074
1752.00,0.0075
1751.00,0.0075
1750.00,0.0074
1749.00,0.0075
1748.00,0.0076
1747.00,0.0076
1746.00,0.0076
1745.00,0.0077
1744.00,0.0077
1743.00,0.0077
1742.00,0.0077
1741.00,0.0077
1740.00,0.0077
1739.00,0.0078
1738.00,0.0079
1737.00,0.0080
1736.00,0.0082
1735.00,0.0083
1734.00,0.0083
1733.00,0.0083
1732.00,0.0085
1731.00,0.0086
1730.00,0.0087
1729.00,0.0089
1728.00,0.0091
1727.00,0.0092
1726.00,0.0094
1725.00,0.0095
1724.00,0.0098
1723.00,0.0100
1722.00,0.0101
1721.00,0.0103
1720.00,0.0106
1719.00,0.0109
1718.00,0.0111
1717.00,0.0114
1716.00,0.0118
1715.00,0.0123
1714.00,0.0127
1713.00,0.0132
1712.00,0.0139
1711.00,0.0146
1710.00,0.0153
1709.00,0.0161
1708.00,0.0171
1707.00,0.0183
1706.00,0.0196
1705.00,0.0212
1704.00,0.0228
1703.00,0.0244
1702.00,0.0263
1701.00,0.0292
1700.00,0.0333
1699.00,0.0371
1698.00,0.0403
1697.00,0.0440
1696.00,0.0489
1695.00,0.0545
1694.00,0.0593
1693.00,0.0636
1692.00,0.0679
1691.00,0.0726
1690.00,0.0776
1689.00,0.0826
1688.00,0.0869
1687.00,0.0906
1686.00,0.0942
1685.00,0.0989
1684.00,0.1048
1683.00,0.1097
1682.00,0.1126
1681.00,0.1145
1680.00,0.1161
1679.00,0.1175
1678.00,0.1184
1677.00,0.1193
1676.00,0.1206
1675.00,0.1222
1674.00,0.1237
1673.00,0.1246
1672.00,0.1253
1671.00,0.1265
1670.00,0.1285
1669.00,0.1312
1668.00,0.1339
1667.00,0.1361
1666.00,0.1377
1665.00,0.1395
1664.00,0.1419
1663.00,0.1451
1662.00,0.1485
1661.00,0.1513
1660.00,0.1535
1659.00,0.1551
1658.00,0.1563
1657.00,0.1569
1656.00,0.1568
1655.00,0.1566
1654.00,0.1573
1653.00,0.1589
1652.00,0.1596
1651.00,0.1581
1650.00,0.1551
1649.00,0.1514
1648.00,0.1472
1647.00,0.1427
1646.00,0.1379
1645.00,0.1328
1644.00,0.1274
1643.00,0.1218
1642.00,0.1160
1641.00,0.1102
1640.00,0.1046
1639.00,0.0994
1638.00,0.0943
1637.00,0.0893
1636.00,0.0844
1635.00,0.0801
1634.00,0.0765
1633.00,0.0734
1632.00,0.0705
1631.00,0.0679
1630.00,0.0655
1629.00,0.0634
1628.00,0.0617
1627.00,0.0603
1626.00,0.0593
1625.00,0.0584
1624.00,0.0577
1623.00,0.0573
1622.00,0.0569
1621.00,0.0565
1620.00,0.0558
1619.00,0.0551
1618.00,0.0542
1617.00,0.0533
1616.00,0.0523
1615.00,0.0512
1614.00,0.0500
1613.00,0.0487
1612.00,0.0473
1611.00,0.0462
1610.00,0.0453
1609.00,0.0447
1608.00,0.0444
1607.00,0.0446
1606.00,0.0452
1605.00,0.0462
1604.00,0.0475
1603.00,0.0491
1602.00,0.0507
1601.00,0.0522
1600.00,0.0534
1599.00,0.0542
1598.00,0.0544
1597.00,0.0541
1596.00,0.0534
1595.00,0.0522
1594.00,0.0508
1593.00,0.0493
1592.00,0.0477
1591.00,0.0462
1590.00,0.0448
1589.00,0.0435
1588.00,0.0424
1587.00,0.0412
1586.00,0.0401
1585.00,0.0389
1584.00,0.0377
1583.00,0.0365
1582.00,0.0353
1581.00,0.0341
1580.00,0.0329
1579.00,0.0319
1578.00,0.0309
1577.00,0.0299
1576.00,0.0289
1575.00,0.0281
1574.00,0.0274
1573.00,0.0268
1572.00,0.0262
1571.00,0.0256
1570.00,0.0250
1569.00,0.0245
1568.00,0.0240
1567.00,0.0237
1566.00,0.0233
1565.00,0.0229
1564.00,0.0226
1563.00,0.0222
1562.00,0.0219
1561.00,0.0216
1560.00,0.0212
1559.00,0.0209
1558.00,0.0208
1557.00,0.0208
1556.00,0.0207
1555.00,0.0206
1554.00,0.0205
1553.00,0.0204
1552.00,0.0203
1551.00,0.0203
1550.00,0.0202
1549.00,0.0201
1548.00,0.0201
1547.00,0.0201
1546.00,0.0201
1545.00,0.0201
1544.00,0.0201
1543.00,0.0200
1542.00,0.0200
1541.00,0.0201
1540.00,0.0201
1539.00,0.0201
1538.00,0.0201
1537.00,0.0200
1536.00,0.0199
1535.00,0.0198
1534.00,0.0197
1533.00,0.0196
1532.00,0.0195
1531.00,0.0194
1530.00,0.0193
1529.00,0.0193
1528.00,0.0192
1527.00,0.0191
1526.00,0.0191
1525.00,0.0191
1524.00,0.0191
1523.00,0.0192
1522.00,0.0192
1521.00,0.0193
1520.00,0.0194
1519.00,0.0194
1518.00,0.0195
1517.00,0.0195
1516.00,0.0195
1515.00,0.0195
1514.00,0.0195
1513.00,0.0196
1512.00,0.0196
1511.00,0.0197
1510.00,0.0198
1509.00,0.0200
1508.00,0.0203
1507.00,0.0207
1506.00,0.0215
1505.00,0.0224
1504.00,0.0233
1503.00,0.0242
1502.00,0.0253
1501.00,0.0266
1500.00,0.0281
1499.00,0.0297
1498.00,0.0316
1497.00,0.0335
1496.00,0.0352
1495.00,0.0365
1494.00,0.0372
1493.00,0.0374
1492.00,0.0371
1491.00,0.0364
1490.00,0.0352
1489.00,0.0338
1488.00,0.0321
1487.00,0.0304
1486.00,0.0288
1485.00,0.0274
1484.00,0.0262
1483.00,0.0251
1482.00,0.0242
1481.00,0.0236
1480.00,0.0233
1479.00,0.0231
1478.00,0.0231
1477.00,0.0234
1476.00,0.0239
1475.00,0.0246
1474.00,0.0258
1473.00,0.0277
1472.00,0.0302
1471.00,0.0330
1470.00,0.0359
1469.00,0.0390
1468.00,0.0424
1467.00,0.0461
1466.00,0.0504
1465.00,0.0552
1464.00,0.0598
1463.00,0.0634
1462.00,0.0657
1461.00,0.0671
1460.00,0.0675
1459.00,0.0671
1458.00,0.0659
1457.00,0.0640
1456.00,0.0620
1455.00,0.0601
1454.00,0.0584
1453.00,0.0572
1452.00,0.0565
1451.00,0.0563
1450.00,0.0569
1449.00,0.0582
1448.00,0.0603
1447.00,0.0628
1446.00,0.0657
1445.00,0.0687
1444.00,0.0719
1443.00,0.0753
1442.00,0.0786
1441.00,0.0818
1440.00,0.0847
1439.00,0.0873
1438.00,0.0902
1437.00,0.0938
1436.00,0.0978
1435.00,0.1014
1434.00,0.1043
1433.00,0.1072
1432.00,0.1103
1431.00,0.1135
1430.00,0.1165
1429.00,0.1191
1428.00,0.1211
1427.00,0.1223
1426.00,0.1232
1425.00,0.1241
1424.00,0.1248
1423.00,0.1249
1422.00,0.1241
1421.00,0.1221
1420.00,0.1187
1419.00,0.1137
1418.00,0.1077
1417.00,0.1012
1416.00,0.0946
1415.00,0.0879
1414.00,0.0815
1413.00,0.0757
1412.00,0.0706
1411.00,0.0661
1410.00,0.0623
1409.00,0.0592
1408.00,0.0566
1407.00,0.0545
1406.00,0.0527
1405.00,0.0512
1404.00,0.0499
1403.00,0.0489
1402.00,0.0481
1401.00,0.0475
1400.00,0.0470
1399.00,0.0466
1398.00,0.0464
1397.00,0.0462
1396.00,0.0461
1395.00,0.0461
1394.00,0.0463
1393.00,0.0466
1392.00,0.0468
1391.00,0.0471
1390.00,0.0475
1389.00,0.0481
1388.00,0.0490
1387.00,0.0500
1386.00,0.0513
1385.00,0.0525
1384.00,0.0536
1383.00,0.0548
1382.00,0.0560
1381.00,0.0571
1380.00,0.0581
1379.00,0.0590
1378.00,0.0599
1377.00,0.0604
1376.00,0.0607
1375.00,0.0606
1374.00,0.0602
1373.00,0.0595
1372.00,0.0585
1371.00,0.0574
1370.00,0.0562
1369.00,0.0551
1368.00,0.0539
1367.00,0.0527
1366.00,0.0514
1365.00,0.0502
1364.00,0.0490
1363.00,0.0478
1362.00,0.0467
1361.00,0.0457
1360.00,0.0448
1359.00,0.0441
1358.00,0.0435
1357.00,0.0430
1356.00,0.0426
1355.00,0.0423
1354.00,0.0420
1353.00,0.0417
1352.00,0.0414
1351.00,0.0410
1350.00,0.0405
1349.00,0.0399
1348.00,0.0393
1347.00,0.0387
1346.00,0.0381
1345.00,0.0376
1344.00,0.0371
1343.00,0.0367
1342.00,0.0364
1341.00,0.0362
1340.00,0.0360
1339.00,0.0360
1338.00,0.0359
1337.00,0.0359
1336.00,0.0360
1335.00,0.0361
1334.00,0.0363
1333.00,0.0366
1332.00,0.0370
1331.00,0.0375
1330.00,0.0382
1329.00,0.0390
1328.00,0.0399
1327.00,0.0410
1326.00,0.0422
1325.00,0.0435
1324.00,0.0448
1323.00,0.0461
1322.00,0.0474
1321.00,0.0486
1320.00,0.0496
1319.00,0.0503
1318.00,0.0508
1317.00,0.0510
1316.00,0.0508
1315.00,0.0504
1314.00,0.0498
1313.00,0.0489
1312.00,0.0480
1311.00,0.0471
1310.00,0.0462
1309.00,0.0454
1308.00,0.0448
1307.00,0.0445
1306.00,0.0444
1305.00,0.0446
1304.00,0.0451
1303.00,0.0461
1302.00,0.0477
1301.00,0.0498
1300.00,0.0526
1299.00,0.0563
1298.00,0.0608
1297.00,0.0661
1296.00,0.0723
1295.00,0.0790
1294.00,0.0860
1293.00,0.0930
1292.00,0.0996
1291.00,0.1055
1290.00,0.1106
1289.00,0.1147
1288.00,0.1178
1287.00,0.1196
1286.00,0.1201
1285.00,0.1195
1284.00,0.1179
1283.00,0.1154
1282.00,0.1124
1281.00,0.1095
1280.00,0.1069
1279.00,0.1049
1278.00,0.1038
1277.00,0.1034
1276.00,0.1037
1275.00,0.1045
1274.00,0.1053
1273.00,0.1060
1272.00,0.1063
1271.00,0.1060
1270.00,0.1049
1269.00,0.1030
1268.00,0.1005
1267.00,0.0974
1266.00,0.0939
1265.00,0.0902
1264.00,0.0864
1263.00,0.0827
1262.00,0.0791
1261.00,0.0758
1260.00,0.0726
1259.00,0.0697
1258.00,0.0671
1257.00,0.0646
1256.00,0.0623
1255.00,0.0602
1254.00,0.0582
1253.00,0.0564
1252.00,0.0547
1251.00,0.0532
1250.00,0.0518
1249.00,0.0506
1248.00,0.0494
1247.00,0.0485
1246.00,0.0477
1245.00,0.0471
1244.00,0.0466
1243.00,0.0464
1242.00,0.0463
1241.00,0.0464
1240.00,0.0467
1239.00,0.0473
1238.00,0.0482
1237.00,0.0493
1236.00,0.0506
1235.00,0.0522
1234.00,0.0539
1233.00,0.0557
1232.00,0.0575
1231.00,0.0591
1230.00,0.0605
1229.00,0.0616
1228.00,0.0623
1227.00,0.0628
1226.00,0.0630
1225.00,0.0630
1224.00,0.0628
1223.00,0.0625
1222.00,0.0621
1221.00,0.0615
1220.00,0.0609
1219.00,0.0601
1218.00,0.0592
1217.00,0.0581
1216.00,0.0570
1215.00,0.0557
1214.00,0.0544
1213.00,0.0531
1212.00,0.0519
1211.00,0.0507
1210.00,0.0496
1209.00,0.0486
1208.00,0.0478
1207.00,0.0470
1206.00,0.0464
1205.00,0.0457
1204.00,0.0452
1203.00,0.0446
1202.00,0.0441
1201.00,0.0436
1200.00,0.0430
1199.00,0.0425
1198.00,0.0419
1197.00,0.0413
1196.00,0.0407
1195.00,0.0402
1194.00,0.0398
1193.00,0.0394
1192.00,0.0390
1191.00,0.0387
1190.00,0.0385
1189.00,0.0383
1188.00,0.0381
1187.00,0.0380
1186.00,0.0379
1185.00,0.0378
1184.00,0.0378
1183.00,0.0379
1182.00,0.0380
1181.00,0.0383
1180.00,0.0387
1179.00,0.0391
1178.00,0.0398
1177.00,0.0406
1176.00,0.0415
1175.00,0.0426
1174.00,0.0439
1173.00,0.0453
1172.00,0.0468
1171.00,0.0483
1170.00,0.0498
1169.00,0.0512
1168.00,0.0525
1167.00,0.0536
1166.00,0.0543
1165.00,0.0547
1164.00,0.0547
1163.00,0.0544
1162.00,0.0537
1161.00,0.0528
1160.00,0.0517
1159.00,0.0505
1158.00,0.0493
1157.00,0.0481
1156.00,0.0468
1155.00,0.0456
1154.00,0.0444
1153.00,0.0432
1152.00,0.0421
1151.00,0.0409
1150.00,0.0397
1149.00,0.0385
1148.00,0.0374
1147.00,0.0363
1146.00,0.0352
1145.00,0.0342
1144.00,0.0333
1143.00,0.0325
1142.00,0.0319
1141.00,0.0313
1140.00,0.0308
1139.00,0.0303
1138.00,0.0298
1137.00,0.0294
1136.00,0.0289
1135.00,0.0285
1134.00,0.0281
1133.00,0.0277
1132.00,0.0273
1131.00,0.0270
1130.00,0.0268
1129.00,0.0266
1128.00,0.0264
1127.00,0.0263
1126.00,0.0262
1125.00,0.0262
1124.00,0.0261
1123.00,0.0262
1122.00,0.0262
1121.00,0.0263
1120.00,0.0263
1119.00,0.0265
1118.00,0.0266
1117.00,0.0269
1116.00,0.0272
1115.00,0.0276
1114.00,0.0281
1113.00,0.0286
1112.00,0.0290
1111.00,0.0294
1110.00,0.0298
1109.00,0.0301
1108.00,0.0303
1107.00,0.0304
1106.00,0.0304
1105.00,0.0303
1104.00,0.0302
1103.00,0.0301
1102.00,0.0301
1101.00,0.0303
1100.00,0.0305
1099.00,0.0307
1098.00,0.0311
1097.00,0.0314
1096.00,0.0318
1095.00,0.0321
1094.00,0.0323
1093.00,0.0324
1092.00,0.0325
1091.00,0.0326
1090.00,0.0328
1089.00,0.0332
1088.00,0.0336
1087.00,0.0341
1086.00,0.0347
1085.00,0.0354
1084.00,0.0358
1083.00,0.0361
1082.00,0.0362
1081.00,0.0362
1080.00,0.0359
1079.00,0.0356
1078.00,0.0352
1077.00,0.0348
1076.00,0.0343
1075.00,0.0338
1074.00,0.0333
1073.00,0.0327
1072.00,0.0321
1071.00,0.0315
1070.00,0.0309
1069.00,0.0304
1068.00,0.0300
1067.00,0.0297
1066.00,0.0294
1065.00,0.0293
1064.00,0.0293
1063.00,0.0295
1062.00,0.0300
1061.00,0.0307
1060.00,0.0318
1059.00,0.0333
1058.00,0.0353
1057.00,0.0378
1056.00,0.0409
1055.00,0.0447
1054.00,0.0489
1053.00,0.0535
1052.00,0.0579
1051.00,0.0619
1050.00,0.0649
1049.00,0.0667
1048.00,0.0672
1047.00,0.0667
1046.00,0.0652
1045.00,0.0633
1044.00,0.0612
1043.00,0.0591
1042.00,0.0573
1041.00,0.0558
1040.00,0.0545
1039.00,0.0535
1038.00,0.0525
1037.00,0.0517
1036.00,0.0509
1035.00,0.0501
1034.00,0.0492
1033.00,0.0484
1032.00,0.0476
1031.00,0.0469
1030.00,0.0462
1029.00,0.0456
1028.00,0.0451
1027.00,0.0446
1026.00,0.0443
1025.00,0.0440
1024.00,0.0438
1023.00,0.0436
1022.00,0.0434
1021.00,0.0433
1020.00,0.0432
1019.00,0.0429
1018.00,0.0425
1017.00,0.0419
1016.00,0.0410
1015.00,0.0398
1014.00,0.0385
1013.00,0.0371
1012.00,0.0358
1011.00,0.0347
1010.00,0.0338
1009.00,0.0331
1008.00,0.0327
1007.00,0.0326
1006.00,0.0329
1005.00,0.0333
1004.00,0.0338
1003.00,0.0342
1002.00,0.0343
1001.00,0.0342
1000.00,0.0339
999.00,0.0334
998.00,0.0327
997.00,0.0321
996.00,0.0314
995.00,0.0309
994.00,0.0305
993.00,0.0302
992.00,0.0300
991.00,0.0300
990.00,0.0301
989.00,0.0302
988.00,0.0303
987.00,0.0304
986.00,0.0304
985.00,0.0303
984.00,0.0300
983.00,0.0297
982.00,0.0293
981.00,0.0289
980.00,0.0285
979.00,0.0282
978.00,0.0279
977.00,0.0276
976.00,0.0273
975.00,0.0271
974.00,0.0268
973.00,0.0265
972.00,0.0261
971.00,0.0258
970.00,0.0254
969.00,0.0251
968.00,0.0248
967.00,0.0245
966.00,0.0241
965.00,0.0238
964.00,0.0235
963.00,0.0232
962.00,0.0230
961.00,0.0228
960.00,0.0226
959.00,0.0224
958.00,0.0222
957.00,0.0219
956.00,0.0217
955.00,0.0214
954.00,0.0212
953.00,0.0209
952.00,0.0206
951.00,0.0205
950.00,0.0203
949.00,0.0202
948.00,0.0201
947.00,0.0200
946.00,0.0199
945.00,0.0200
944.00,0.0200
943.00,0.0201
942.00,0.0203
941.00,0.0205
940.00,0.0208
939.00,0.0211
938.00,0.0216
937.00,0.0221
936.00,0.0227
935.00,0.0234
934.00,0.0239
933.00,0.0243
932.00,0.0244
931.00,0.0243
930.00,0.0240
929.00,0.0236
928.00,0.0232
927.00,0.0230
926.00,0.0229
925.00,0.0229
924.00,0.0229
923.00,0.0229
922.00,0.0230
921.00,0.0231
920.00,0.0233
919.00,0.0236
918.00,0.0238
917.00,0.0240
916.00,0.0242
915.00,0.0244
914.00,0.0247
913.00,0.0249
912.00,0.0252
911.00,0.0254
910.00,0.0257
909.00,0.0259
908.00,0.0260
907.00,0.0261
906.00,0.0262
905.00,0.0262
904.00,0.0262
903.00,0.0262
902.00,0.0262
901.00,0.0262
900.00,0.0263
899.00,0.0264
898.00,0.0265
897.00,0.0266
896.00,0.0267
895.00,0.0266
894.00,0.0265
893.00,0.0264
892.00,0.0261
891.00,0.0259
890.00,0.0256
889.00,0.0254
888.00,0.0252
887.00,0.0251
886.00,0.0250
885.00,0.0250
884.00,0.0250
883.00,0.0250
882.00,0.0250
881.00,0.0250
880.00,0.0251
879.00,0.0252
878.00,0.0253
877.00,0.0254
876.00,0.0255
875.00,0.0256
874.00,0.0258
873.00,0.0259
872.00,0.0261
871.00,0.0263
870.00,0.0265
869.00,0.0268
868.00,0.0271
867.00,0.0275
866.00,0.0279
865.00,0.0285
864.00,0.0290
863.00,0.0297
862.00,0.0305
861.00,0.0313
860.00,0.0322
859.00,0.0331
858.00,0.0341
857.00,0.0352
856.00,0.0363
855.00,0.0374
854.00,0.0386
853.00,0.0398
852.00,0.0409
851.00,0.0420
850.00,0.0431
849.00,0.0440
848.00,0.0449
847.00,0.0458
846.00,0.0466
845.00,0.0473
844.00,0.0478
843.00,0.0483
842.00,0.0487
841.00,0.0491
840.00,0.0494
839.00,0.0497
838.00,0.0500
837.00,0.0503
836.00,0.0506
835.00,0.0509
834.00,0.0511
833.00,0.0513
832.00,0.0515
831.00,0.0516
830.00,0.0516
829.00,0.0514
828.00,0.0511
827.00,0.0506
826.00,0.0499
825.00,0.0489
824.00,0.0477
823.00,0.0464
822.00,0.0450
821.00,0.0437
820.00,0.0424
819.00,0.0412
818.00,0.0401
817.00,0.0389
816.00,0.0378
815.00,0.0369
814.00,0.0360
813.00,0.0352
812.00,0.0345
811.00,0.0339
810.00,0.0334
809.00,0.0329
808.00,0.0326
807.00,0.0322
806.00,0.0319
805.00,0.0317
804.00,0.0315
803.00,0.0314
802.00,0.0313
801.00,0.0313
800.00,0.0314
799.00,0.0315
798.00,0.0318
797.00,0.0320
796.00,0.0323
795.00,0.0326
794.00,0.0328
793.00,0.0329
792.00,0.0330
791.00,0.0331
790.00,0.0332
789.00,0.0332
788.00,0.0332
787.00,0.0333
786.00,0.0334
785.00,0.0336
784.00,0.0338
783.00,0.0340
782.00,0.0343
781.00,0.0345
780.00,0.0347
779.00,0.0349
778.00,0.0351
777.00,0.0352
776.00,0.0353
775.00,0.0354
774.00,0.0355
773.00,0.0356
772.00,0.0356
771.00,0.0356
770.00,0.0356
769.00,0.0356
768.00,0.0356
767.00,0.0358
766.00,0.0360
765.00,0.0362
764.00,0.0365
763.00,0.0369
762.00,0.0373
761.00,0.0377
760.00,0.0383
759.00,0.0389
758.00,0.0395
757.00,0.0402
756.00,0.0409
755.00,0.0416
754.00,0.0423
753.00,0.0430
752.00,0.0438
751.00,0.0445
750.00,0.0452
749.00,0.0459
748.00,0.0466
747.00,0.0473
746.00,0.0479
745.00,0.0486
744.00,0.0493
743.00,0.0500
742.00,0.0506
741.00,0.0511
740.00,0.0516
739.00,0.0520
738.00,0.0524
737.00,0.0527
736.00,0.0529
735.00,0.0530
734.00,0.0530
733.00,0.0527
732.00,0.0522
731.00,0.0516
730.00,0.0507
729.00,0.0498
728.00,0.0487
727.00,0.0476
726.00,0.0465
725.00,0.0455
724.00,0.0445
723.00,0.0437
722.00,0.0429
721.00,0.0423
720.00,0.0417
719.00,0.0412
718.00,0.0408
717.00,0.0405
716.00,0.0403
715.00,0.0401
714.00,0.0400
713.00,0.0399
712.00,0.0398
711.00,0.0398
710.00,0.0398
709.00,0.0398
708.00,0.0399
707.00,0.0400
706.00,0.0402
705.00,0.0403
704.00,0.0403
703.00,0.0404
702.00,0.0405
701.00,0.0406
700.00,0.0408
699.00,0.0411
698.00,0.0413
697.00,0.0415
696.00,0.0417
695.00,0.0419
694.00,0.0421
693.00,0.0423
692.00,0.0426
691.00,0.0429
690.00,0.0433
689.00,0.0436
688.00,0.0440
687.00,0.0445
686.00,0.0450
685.00,0.0455
684.00,0.0461
683.00,0.0465
682.00,0.0470
681.00,0.0474
680.00,0.0478
679.00,0.0482
678.00,0.0486
677.00,0.0490
676.00,0.0494
675.00,0.0498
674.00,0.0503
673.00,0.0507
672.00,0.0511
671.00,0.0515
670.00,0.0519
669.00,0.0525
668.00,0.0536
667.00,0.0547
666.00,0.0556
665.00,0.0562
664.00,0.0569
663.00,0.0577
662.00,0.0586
661.00,0.0595
660.00,0.0605
659.00,0.0616
658.00,0.0627
657.00,0.0639
656.00,0.0650
655.00,0.0662
654.00,0.0673
653.00,0.0684
652.00,0.0694
651.00,0.0702
650.00,0.0707
649.00,0.0710
648.00,0.0711
647.00,0.0710
646.00,0.0706
645.00,0.0699
644.00,0.0690
643.00,0.0680
642.00,0.0667
641.00,0.0655
640.00,0.0642
639.00,0.0630
638.00,0.0618
637.00,0.0606
636.00,0.0595
635.00,0.0584
634.00,0.0575
633.00,0.0565
632.00,0.0556
631.00,0.0548
630.00,0.0539
629.00,0.0532
628.00,0.0524
627.00,0.0518
626.00,0.0511
625.00,0.0506
624.00,0.0500
623.00,0.0496
622.00,0.0492
621.00,0.0490
620.00,0.0488
619.00,0.0486
618.00,0.0484
617.00,0.0483
616.00,0.0483
615.00,0.0483
614.00,0.0483
613.00,0.0483
612.00,0.0483
611.00,0.0484
610.00,0.0485
609.00,0.0488
608.00,0.0490
607.00,0.0492
606.00,0.0495
605.00,0.0497
604.00,0.0501
603.00,0.0504
602.00,0.0507
601.00,0.0509
600.00,0.0512
599.00,0.0515
598.00,0.0519
597.00,0.0523
596.00,0.0527
595.00,0.0531
594.00,0.0535
593.00,0.0541
592.00,0.0547
591.00,0.0552
590.00,0.0557
589.00,0.0563
588.00,0.0570
587.00,0.0580
586.00,0.0591
585.00,0.0603
584.00,0.0616
583.00,0.0628
582.00,0.0640
581.00,0.0651
580.00,0.0662
579.00,0.0671
578.00,0.0678
577.00,0.0683
576.00,0.0687
575.00,0.0690
574.00,0.0691
573.00,0.0691
572.00,0.0689
571.00,0.0687
570.00,0.0683
569.00,0.0678
568.00,0.0673
567.00,0.0667
566.00,0.0661
565.00,0.0654
564.00,0.0645
563.00,0.0634
562.00,0.0622
561.00,0.0610
560.00,0.0599
559.00,0.0589
558.00,0.0580
557.00,0.0571
556.00,0.0564
555.00,0.0556
554.00,0.0548
553.00,0.0539
552.00,0.0531
551.00,0.0525
550.00,0.0521
549.00,0.0517
548.00,0.0512
547.00,0.0507
546.00,0.0502
545.00,0.0500
544.00,0.0499
543.00,0.0497
542.00,0.0495
541.00,0.0492
540.00,0.0490
539.00,0.0487
538.00,0.0485
537.00,0.0484
536.00,0.0483
535.00,0.0482
534.00,0.0481
533.00,0.0481
532.00,0.0481
531.00,0.0480
530.00,0.0478
529.00,0.0475
528.00,0.0472
527.00,0.0469
526.00,0.0468
525.00,0.0468
524.00,0.0469
523.00,0.0468
522.00,0.0467
521.00,0.0464
520.00,0.0461
519.00,0.0457
518.00,0.0455
517.00,0.0453
516.00,0.0452
515.00,0.0451
514.00,0.0450
513.00,0.0448
512.00,0.0447
511.00,0.0445
510.00,0.0444
509.00,0.0443
508.00,0.0442
507.00,0.0440
506.00,0.0438
505.00,0.0437
504.00,0.0436
503.00,0.0436
502.00,0.0436
501.00,0.0436
500.00,0.0436
499.00,0.0436
498.00,0.0438
497.00,0.0441
496.00,0.0443
495.00,0.0444
494.00,0.0445
493.00,0.0445
492.00,0.0446
491.00,0.0447
490.00,0.0449
489.00,0.0450
488.00,0.0451
487.00,0.0451
486.00,0.0451
485.00,0.0452
484.00,0.0453
483.00,0.0453
482.00,0.0453
481.00,0.0454
480.00,0.0455
479.00,0.0457
478.00,0.0459
477.00,0.0460
476.00,0.0461
475.00,0.0460
474.00,0.0459
473.00,0.0459
472.00,0.0461
471.00,0.0464
470.00,0.0465
469.00,0.0464
468.00,0.0462
467.00,0.0460
466.00,0.0460
465.00,0.0462
464.00,0.0464
463.00,0.0465
462.00,0.0463
461.00,0.0460
460.00,0.0460
459.00,0.0462
458.00,0.0467
457.00,0.0470
456.00,0.0469
455.00,0.0466
454.00,0.0464
453.00,0.0465
452.00,0.0469
451.00,0.0471
450.00,0.0471
449.00,0.0469
448.00,0.0467
447.00,0.0464
446.00,0.0461
445.00,0.0458
444.00,0.0453
443.00,0.0448
442.00,0.0445
441.00,0.0445
440.00,0.0447
439.00,0.0450
438.00,0.0450
437.00,0.0447
436.00,0.0441
435.00,0.0435
434.00,0.0431
433.00,0.0430
432.00,0.0431
431.00,0.0430
430.00,0.0430
429.00,0.0431
428.00,0.0435
427.00,0.0439
426.00,0.0438
425.00,0.0431
424.00,0.0423
423.00,0.0418
422.00,0.0417
421.00,0.0417
420.00,0.0418
419.00,0.0420
418.00,0.0423
417.00,0.0425
416.00,0.0426
415.00,0.0425
414.00,0.0423
413.00,0.0423
412.00,0.0426
411.00,0.0431
410.00,0.0435
409.00,0.0438
408.00,0.0440
407.00,0.0444
406.00,0.0450
405.00,0.0456
404.00,0.0456
403.00,0.0447
402.00,0.0430
401.00,0.0414
400.00,0.0403
