Created as New Dataset,Sample 414 By YargerLab Date Thursday, December 04 2025
cm-1,A
4000.00,0.0045
3999.00,0.0045
3998.00,0.0045
3997.00,0.0045
3996.00,0.0045
3995.00,0.0045
3994.00,0.0045
3993.00,0.0045
3992.00,0.0045
3991.00,0.0045
3990.00,0.0045
3989.00,0.0045
3988.00,0.0045
3987.00,0.0045
3986.00,0.0045
3985.00,0.0045
3984.00,0.0045
3983.00,0.0045
3982.00,0.0045
3981.00,0.0045
3980.00,0.0045
3979.00,0.0045
3978.00,0.0045
3977.00,0.0045
3976.00,0.0045
3975.00,0.0045
3974.00,0.0045
3973.00,0.0045
3972.00,0.0045
3971.00,0.0045
3970.00,0.0045
3969.00,0.0045
3968.00,0.0045
3967.00,0.0045
3966.00,0.0045
3965.00,0.0045
3964.00,0.0045
3963.00,0.0045
3962.00,0.0045
3961.00,0.0045
3960.00,0.0045
3959.00,0.0045
3958.00,0.0045
3957.00,0.0045
3956.00,0.0045
3955.00,0.0045
3954.00,0.0045
3953.00,0.0045
3952.00,0.0045
3951.00,0.0045
3950.00,0.0045
3949.00,0.0045
3948.00,0.0044
3947.00,0.0045
3946.00,0.0045
3945.00,0.0045
3944.00,0.0045
3943.00,0.0045
3942.00,0.0044
3941.00,0.0044
3940.00,0.0044
3939.00,0.0044
3938.00,0.0044
3937.00,0.0045
3936.00,0.0045
3935.00,0.0045
3934.00,0.0045
3933.00,0.0045
3932.00,0.0045
3931.00,0.0045
3930.00,0.0045
3929.00,0.0045
3928.00,0.0045
3927.00,0.0045
3926.00,0.0045
3925.00,0.0045
3924.00,0.0045
3923.00,0.0045
3922.00,0.0045
3921.00,0.0045
3920.00,0.0045
3919.00,0.0045
3918.00,0.0045
3917.00,0.0045
3916.00,0.0044
3915.00,0.0044
3914.00,0.0044
3913.00,0.0044
3912.00,0.0044
3911.00,0.0044
3910.00,0.0044
3909.00,0.0044
3908.00,0.0044
3907.00,0.0045
3906.00,0.0045
3905.00,0.0045
3904.00,0.0045
3903.00,0.0045
3902.00,0.0045
3901.00,0.0045
3900.00,0.0045
3899.00,0.0045
3898.00,0.0045
3897.00,0.0045
3896.00,0.0045
3895.00,0.0045
3894.00,0.0044
3893.00,0.0044
3892.00,0.0044
3891.00,0.0044
3890.00,0.0045
3889.00,0.0045
3888.00,0.0045
3887.00,0.0045
3886.00,0.0045
3885.00,0.0045
3884.00,0.0045
3883.00,0.0045
3882.00,0.0045
3881.00,0.0044
3880.00,0.0044
3879.00,0.0044
3878.00,0.0045
3877.00,0.0045
3876.00,0.0045
3875.00,0.0045
3874.00,0.0045
3873.00,0.0045
3872.00,0.0046
3871.00,0.0045
3870.00,0.0045
3869.00,0.0045
3868.00,0.0045
3867.00,0.0045
3866.00,0.0045
3865.00,0.0045
3864.00,0.0045
3863.00,0.0045
3862.00,0.0045
3861.00,0.0044
3860.00,0.0045
3859.00,0.0045
3858.00,0.0046
3857.00,0.0046
3856.00,0.0047
3855.00,0.0047
3854.00,0.0047
3853.00,0.0047
3852.00,0.0047
3851.00,0.0047
3850.00,0.0046
3849.00,0.0046
3848.00,0.0045
3847.00,0.0045
3846.00,0.0045
3845.00,0.0045
3844.00,0.0045
3843.00,0.0046
3842.00,0.0046
3841.00,0.0046
3840.00,0.0046
3839.00,0.0046
3838.00,0.0046
3837.00,0.0047
3836.00,0.0047
3835.00,0.0047
3834.00,0.0046
3833.00,0.0046
3832.00,0.0046
3831.00,0.0045
3830.00,0.0045
3829.00,0.0045
3828.00,0.0045
3827.00,0.0045
3826.00,0.0045
3825.00,0.0046
3824.00,0.0046
3823.00,0.0046
3822.00,0.0046
3821.00,0.0045
3820.00,0.0046
3819.00,0.0046
3818.00,0.0046
3817.00,0.0046
3816.00,0.0046
3815.00,0.0045
3814.00,0.0046
3813.00,0.0046
3812.00,0.0046
3811.00,0.0046
3810.00,0.0046
3809.00,0.0046
3808.00,0.0046
3807.00,0.0046
3806.00,0.0046
3805.00,0.0047
3804.00,0.0047
3803.00,0.0047
3802.00,0.0046
3801.00,0.0046
3800.00,0.0046
3799.00,0.0046
3798.00,0.0046
3797.00,0.0045
3796.00,0.0045
3795.00,0.0045
3794.00,0.0045
3793.00,0.0045
3792.00,0.0045
3791.00,0.0044
3790.00,0.0044
3789.00,0.0044
3788.00,0.0044
3787.00,0.0044
3786.00,0.0044
3785.00,0.0044
3784.00,0.0044
3783.00,0.0045
3782.00,0.0045
3781.00,0.0045
3780.00,0.0045
3779.00,0.0045
3778.00,0.0045
3777.00,0.0045
3776.00,0.0045
3775.00,0.0045
3774.00,0.0045
3773.00,0.0045
3772.00,0.0045
3771.00,0.0045
3770.00,0.0045
3769.00,0.0045
3768.00,0.0045
3767.00,0.0045
3766.00,0.0044
3765.00,0.0044
3764.00,0.0044
3763.00,0.0045
3762.00,0.0045
3761.00,0.0045
3760.00,0.0044
3759.00,0.0044
3758.00,0.0044
3757.00,0.0045
3756.00,0.0045
3755.00,0.0046
3754.00,0.0047
3753.00,0.0047
3752.00,0.0047
3751.00,0.0047
3750.00,0.0047
3749.00,0.0047
3748.00,0.0047
3747.00,0.0047
3746.00,0.0047
3745.00,0.0046
3744.00,0.0046
3743.00,0.0046
3742.00,0.0046
3741.00,0.0046
3740.00,0.0045
3739.00,0.0045
3738.00,0.0045
3737.00,0.0045
3736.00,0.0045
3735.00,0.0045
3734.00,0.0044
3733.00,0.0044
3732.00,0.0044
3731.00,0.0044
3730.00,0.0044
3729.00,0.0044
3728.00,0.0044
3727.00,0.0044
3726.00,0.0044
3725.00,0.0044
3724.00,0.0044
3723.00,0.0043
3722.00,0.0043
3721.00,0.0043
3720.00,0.0043
3719.00,0.0043
3718.00,0.0043
3717.00,0.0043
3716.00,0.0043
3715.00,0.0043
3714.00,0.0044
3713.00,0.0044
3712.00,0.0044
3711.00,0.0044
3710.00,0.0044
3709.00,0.0044
3708.00,0.0044
3707.00,0.0044
3706.00,0.0043
3705.00,0.0043
3704.00,0.0043
3703.00,0.0043
3702.00,0.0043
3701.00,0.0043
3700.00,0.0043
3699.00,0.0043
3698.00,0.0043
3697.00,0.0043
3696.00,0.0043
3695.00,0.0043
3694.00,0.0043
3693.00,0.0044
3692.00,0.0044
3691.00,0.0045
3690.00,0.0045
3689.00,0.0046
3688.00,0.0046
3687.00,0.0046
3686.00,0.0046
3685.00,0.0046
3684.00,0.0045
3683.00,0.0045
3682.00,0.0045
3681.00,0.0046
3680.00,0.0046
3679.00,0.0047
3678.00,0.0047
3677.00,0.0048
3676.00,0.0047
3675.00,0.0048
3674.00,0.0048
3673.00,0.0049
3672.00,0.0049
3671.00,0.0049
3670.00,0.0048
3669.00,0.0048
3668.00,0.0048
3667.00,0.0048
3666.00,0.0047
3665.00,0.0047
3664.00,0.0047
3663.00,0.0047
3662.00,0.0047
3661.00,0.0048
3660.00,0.0048
3659.00,0.0049
3658.00,0.0049
3657.00,0.0049
3656.00,0.0049
3655.00,0.0050
3654.00,0.0051
3653.00,0.0051
3652.00,0.0052
3651.00,0.0052
3650.00,0.0052
3649.00,0.0052
3648.00,0.0052
3647.00,0.0052
3646.00,0.0053
3645.00,0.0053
3644.00,0.0053
3643.00,0.0053
3642.00,0.0053
3641.00,0.0053
3640.00,0.0053
3639.00,0.0054
3638.00,0.0054
3637.00,0.0055
3636.00,0.0055
3635.00,0.0055
3634.00,0.0056
3633.00,0.0057
3632.00,0.0058
3631.00,0.0058
3630.00,0.0058
3629.00,0.0059
3628.00,0.0059
3627.00,0.0060
3626.00,0.0060
3625.00,0.0061
3624.00,0.0061
3623.00,0.0062
3622.00,0.0062
3621.00,0.0063
3620.00,0.0063
3619.00,0.0064
3618.00,0.0064
3617.00,0.0065
3616.00,0.0065
3615.00,0.0066
3614.00,0.0066
3613.00,0.0067
3612.00,0.0067
3611.00,0.0068
3610.00,0.0068
3609.00,0.0069
3608.00,0.0069
3607.00,0.0070
3606.00,0.0070
3605.00,0.0071
3604.00,0.0071
3603.00,0.0072
3602.00,0.0073
3601.00,0.0074
3600.00,0.0075
3599.00,0.0075
3598.00,0.0076
3597.00,0.0076
3596.00,0.0077
3595.00,0.0077
3594.00,0.0078
3593.00,0.0079
3592.00,0.0080
3591.00,0.0080
3590.00,0.0081
3589.00,0.0082
3588.00,0.0083
3587.00,0.0084
3586.00,0.0085
3585.00,0.0085
3584.00,0.0086
3583.00,0.0087
3582.00,0.0087
3581.00,0.0088
3580.00,0.0089
3579.00,0.0090
3578.00,0.0091
3577.00,0.0092
3576.00,0.0093
3575.00,0.0094
3574.00,0.0094
3573.00,0.0095
3572.00,0.0096
3571.00,0.0097
3570.00,0.0098
3569.00,0.0098
3568.00,0.0099
3567.00,0.0100
3566.00,0.0101
3565.00,0.0102
3564.00,0.0103
3563.00,0.0103
3562.00,0.0104
3561.00,0.0105
3560.00,0.0106
3559.00,0.0106
3558.00,0.0107
3557.00,0.0107
3556.00,0.0108
3555.00,0.0108
3554.00,0.0109
3553.00,0.0110
3552.00,0.0111
3551.00,0.0112
3550.00,0.0112
3549.00,0.0113
3548.00,0.0114
3547.00,0.0114
3546.00,0.0115
3545.00,0.0116
3544.00,0.0116
3543.00,0.0117
3542.00,0.0117
3541.00,0.0118
3540.00,0.0118
3539.00,0.0119
3538.00,0.0119
3537.00,0.0120
3536.00,0.0121
3535.00,0.0122
3534.00,0.0122
3533.00,0.0123
3532.00,0.0123
3531.00,0.0124
3530.00,0.0125
3529.00,0.0125
3528.00,0.0126
3527.00,0.0127
3526.00,0.0127
3525.00,0.0128
3524.00,0.0129
3523.00,0.0129
3522.00,0.0130
3521.00,0.0130
3520.00,0.0131
3519.00,0.0131
3518.00,0.0132
3517.00,0.0133
3516.00,0.0133
3515.00,0.0134
3514.00,0.0134
3513.00,0.0135
3512.00,0.0135
3511.00,0.0136
3510.00,0.0137
3509.00,0.0137
3508.00,0.0138
3507.00,0.0139
3506.00,0.0139
3505.00,0.0140
3504.00,0.0141
3503.00,0.0142
3502.00,0.0142
3501.00,0.0143
3500.00,0.0143
3499.00,0.0144
3498.00,0.0145
3497.00,0.0145
3496.00,0.0146
3495.00,0.0146
3494.00,0.0147
3493.00,0.0148
3492.00,0.0148
3491.00,0.0149
3490.00,0.0149
3489.00,0.0150
3488.00,0.0151
3487.00,0.0152
3486.00,0.0153
3485.00,0.0153
3484.00,0.0154
3483.00,0.0154
3482.00,0.0155
3481.00,0.0156
3480.00,0.0156
3479.00,0.0157
3478.00,0.0158
3477.00,0.0158
3476.00,0.0159
3475.00,0.0159
3474.00,0.0160
3473.00,0.0161
3472.00,0.0161
3471.00,0.0162
3470.00,0.0163
3469.00,0.0164
3468.00,0.0164
3467.00,0.0164
3466.00,0.0165
3465.00,0.0165
3464.00,0.0166
3463.00,0.0166
3462.00,0.0167
3461.00,0.0168
3460.00,0.0168
3459.00,0.0169
3458.00,0.0169
3457.00,0.0170
3456.00,0.0170
3455.00,0.0170
3454.00,0.0171
3453.00,0.0171
3452.00,0.0172
3451.00,0.0172
3450.00,0.0173
3449.00,0.0173
3448.00,0.0174
3447.00,0.0175
3446.00,0.0175
3445.00,0.0176
3444.00,0.0176
3443.00,0.0177
3442.00,0.0177
3441.00,0.0178
3440.00,0.0178
3439.00,0.0179
3438.00,0.0179
3437.00,0.0180
3436.00,0.0180
3435.00,0.0181
3434.00,0.0181
3433.00,0.0182
3432.00,0.0182
3431.00,0.0182
3430.00,0.0183
3429.00,0.0183
3428.00,0.0184
3427.00,0.0184
3426.00,0.0185
3425.00,0.0185
3424.00,0.0186
3423.00,0.0186
3422.00,0.0187
3421.00,0.0187
3420.00,0.0188
3419.00,0.0189
3418.00,0.0189
3417.00,0.0190
3416.00,0.0190
3415.00,0.0191
3414.00,0.0192
3413.00,0.0192
3412.00,0.0193
3411.00,0.0194
3410.00,0.0194
3409.00,0.0195
3408.00,0.0195
3407.00,0.0196
3406.00,0.0197
3405.00,0.0197
3404.00,0.0198
3403.00,0.0198
3402.00,0.0199
3401.00,0.0199
3400.00,0.0200
3399.00,0.0201
3398.00,0.0202
3397.00,0.0203
3396.00,0.0204
3395.00,0.0204
3394.00,0.0205
3393.00,0.0206
3392.00,0.0206
3391.00,0.0207
3390.00,0.0208
3389.00,0.0209
3388.00,0.0210
3387.00,0.0211
3386.00,0.0212
3385.00,0.0212
3384.00,0.0213
3383.00,0.0214
3382.00,0.0215
3381.00,0.0216
3380.00,0.0217
3379.00,0.0218
3378.00,0.0219
3377.00,0.0219
3376.00,0.0220
3375.00,0.0221
3374.00,0.0221
3373.00,0.0221
3372.00,0.0221
3371.00,0.0221
3370.00,0.0221
3369.00,0.0222
3368.00,0.0223
3367.00,0.0225
3366.00,0.0226
3365.00,0.0228
3364.00,0.0229
3363.00,0.0230
3362.00,0.0231
3361.00,0.0232
3360.00,0.0233
3359.00,0.0234
3358.00,0.0235
3357.00,0.0236
3356.00,0.0237
3355.00,0.0237
3354.00,0.0237
3353.00,0.0238
3352.00,0.0238
3351.00,0.0238
3350.00,0.0240
3349.00,0.0241
3348.00,0.0243
3347.00,0.0244
3346.00,0.0244
3345.00,0.0244
3344.00,0.0244
3343.00,0.0245
3342.00,0.0245
3341.00,0.0245
3340.00,0.0245
3339.00,0.0246
3338.00,0.0247
3337.00,0.0248
3336.00,0.0249
3335.00,0.0250
3334.00,0.0251
3333.00,0.0252
3332.00,0.0252
3331.00,0.0253
3330.00,0.0253
3329.00,0.0253
3328.00,0.0253
3327.00,0.0253
3326.00,0.0253
3325.00,0.0253
3324.00,0.0254
3323.00,0.0255
3322.00,0.0256
3321.00,0.0257
3320.00,0.0258
3319.00,0.0259
3318.00,0.0259
3317.00,0.0260
3316.00,0.0260
3315.00,0.0260
3314.00,0.0261
3313.00,0.0260
3312.00,0.0260
3311.00,0.0259
3310.00,0.0258
3309.00,0.0257
3308.00,0.0257
3307.00,0.0257
3306.00,0.0257
3305.00,0.0259
3304.00,0.0261
3303.00,0.0263
3302.00,0.0264
3301.00,0.0265
3300.00,0.0266
3299.00,0.0265
3298.00,0.0265
3297.00,0.0265
3296.00,0.0264
3295.00,0.0264
3294.00,0.0265
3293.00,0.0265
3292.00,0.0266
3291.00,0.0267
3290.00,0.0268
3289.00,0.0269
3288.00,0.0269
3287.00,0.0270
3286.00,0.0270
3285.00,0.0270
3284.00,0.0270
3283.00,0.0269
3282.00,0.0269
3281.00,0.0269
3280.00,0.0269
3279.00,0.0269
3278.00,0.0269
3277.00,0.0269
3276.00,0.0269
3275.00,0.0268
3274.00,0.0268
3273.00,0.0268
3272.00,0.0267
3271.00,0.0267
3270.00,0.0267
3269.00,0.0268
3268.00,0.0268
3267.00,0.0269
3266.00,0.0269
3265.00,0.0269
3264.00,0.0269
3263.00,0.0268
3262.00,0.0268
3261.00,0.0268
3260.00,0.0268
3259.00,0.0268
3258.00,0.0268
3257.00,0.0268
3256.00,0.0268
3255.00,0.0268
3254.00,0.0268
3253.00,0.0268
3252.00,0.0268
3251.00,0.0268
3250.00,0.0267
3249.00,0.0267
3248.00,0.0267
3247.00,0.0266
3246.00,0.0266
3245.00,0.0266
3244.00,0.0266
3243.00,0.0266
3242.00,0.0266
3241.00,0.0266
3240.00,0.0265
3239.00,0.0265
3238.00,0.0264
3237.00,0.0264
3236.00,0.0263
3235.00,0.0263
3234.00,0.0263
3233.00,0.0263
3232.00,0.0263
3231.00,0.0263
3230.00,0.0262
3229.00,0.0262
3228.00,0.0262
3227.00,0.0262
3226.00,0.0261
3225.00,0.0261
3224.00,0.0260
3223.00,0.0260
3222.00,0.0259
3221.00,0.0259
3220.00,0.0259
3219.00,0.0259
3218.00,0.0259
3217.00,0.0259
3216.00,0.0259
3215.00,0.0259
3214.00,0.0258
3213.00,0.0258
3212.00,0.0258
3211.00,0.0258
3210.00,0.0257
3209.00,0.0257
3208.00,0.0258
3207.00,0.0257
3206.00,0.0257
3205.00,0.0257
3204.00,0.0256
3203.00,0.0256
3202.00,0.0256
3201.00,0.0256
3200.00,0.0255
3199.00,0.0255
3198.00,0.0255
3197.00,0.0254
3196.00,0.0254
3195.00,0.0253
3194.00,0.0253
3193.00,0.0252
3192.00,0.0251
3191.00,0.0251
3190.00,0.0250
3189.00,0.0250
3188.00,0.0250
3187.00,0.0249
3186.00,0.0249
3185.00,0.0248
3184.00,0.0247
3183.00,0.0246
3182.00,0.0246
3181.00,0.0245
3180.00,0.0244
3179.00,0.0243
3178.00,0.0243
3177.00,0.0242
3176.00,0.0242
3175.00,0.0241
3174.00,0.0240
3173.00,0.0240
3172.00,0.0239
3171.00,0.0239
3170.00,0.0238
3169.00,0.0237
3168.00,0.0236
3167.00,0.0236
3166.00,0.0235
3165.00,0.0234
3164.00,0.0233
3163.00,0.0232
3162.00,0.0231
3161.00,0.0231
3160.00,0.0230
3159.00,0.0229
3158.00,0.0228
3157.00,0.0227
3156.00,0.0226
3155.00,0.0225
3154.00,0.0224
3153.00,0.0223
3152.00,0.0223
3151.00,0.0222
3150.00,0.0221
3149.00,0.0220
3148.00,0.0220
3147.00,0.0219
3146.00,0.0218
3145.00,0.0218
3144.00,0.0217
3143.00,0.0217
3142.00,0.0216
3141.00,0.0215
3140.00,0.0215
3139.00,0.0214
3138.00,0.0213
3137.00,0.0213
3136.00,0.0212
3135.00,0.0212
3134.00,0.0211
3133.00,0.0211
3132.00,0.0211
3131.00,0.0210
3130.00,0.0210
3129.00,0.0209
3128.00,0.0208
3127.00,0.0207
3126.00,0.0207
3125.00,0.0206
3124.00,0.0205
3123.00,0.0205
3122.00,0.0204
3121.00,0.0203
3120.00,0.0202
3119.00,0.0202
3118.00,0.0201
3117.00,0.0200
3116.00,0.0199
3115.00,0.0198
3114.00,0.0197
3113.00,0.0196
3112.00,0.0196
3111.00,0.0195
3110.00,0.0194
3109.00,0.0193
3108.00,0.0192
3107.00,0.0192
3106.00,0.0191
3105.00,0.0190
3104.00,0.0189
3103.00,0.0188
3102.00,0.0187
3101.00,0.0186
3100.00,0.0185
3099.00,0.0184
3098.00,0.0183
3097.00,0.0182
3096.00,0.0181
3095.00,0.0180
3094.00,0.0179
3093.00,0.0178
3092.00,0.0177
3091.00,0.0177
3090.00,0.0176
3089.00,0.0175
3088.00,0.0174
3087.00,0.0174
3086.00,0.0173
3085.00,0.0172
3084.00,0.0171
3083.00,0.0171
3082.00,0.0170
3081.00,0.0169
3080.00,0.0168
3079.00,0.0167
3078.00,0.0167
3077.00,0.0166
3076.00,0.0166
3075.00,0.0165
3074.00,0.0164
3073.00,0.0164
3072.00,0.0163
3071.00,0.0162
3070.00,0.0161
3069.00,0.0161
3068.00,0.0161
3067.00,0.0160
3066.00,0.0160
3065.00,0.0159
3064.00,0.0159
3063.00,0.0158
3062.00,0.0158
3061.00,0.0158
3060.00,0.0157
3059.00,0.0157
3058.00,0.0157
3057.00,0.0156
3056.00,0.0156
3055.00,0.0156
3054.00,0.0155
3053.00,0.0155
3052.00,0.0155
3051.00,0.0154
3050.00,0.0154
3049.00,0.0153
3048.00,0.0153
3047.00,0.0152
3046.00,0.0152
3045.00,0.0151
3044.00,0.0151
3043.00,0.0150
3042.00,0.0150
3041.00,0.0149
3040.00,0.0149
3039.00,0.0149
3038.00,0.0149
3037.00,0.0149
3036.00,0.0149
3035.00,0.0149
3034.00,0.0149
3033.00,0.0149
3032.00,0.0149
3031.00,0.0149
3030.00,0.0149
3029.00,0.0149
3028.00,0.0149
3027.00,0.0149
3026.00,0.0149
3025.00,0.0149
3024.00,0.0149
3023.00,0.0149
3022.00,0.0149
3021.00,0.0149
3020.00,0.0150
3019.00,0.0150
3018.00,0.0150
3017.00,0.0151
3016.00,0.0151
3015.00,0.0152
3014.00,0.0153
3013.00,0.0154
3012.00,0.0156
3011.00,0.0157
3010.00,0.0159
3009.00,0.0161
3008.00,0.0163
3007.00,0.0165
3006.00,0.0167
3005.00,0.0170
3004.00,0.0174
3003.00,0.0177
3002.00,0.0180
3001.00,0.0184
3000.00,0.0189
2999.00,0.0194
2998.00,0.0199
2997.00,0.0204
2996.00,0.0210
2995.00,0.0215
2994.00,0.0221
2993.00,0.0227
2992.00,0.0234
2991.00,0.0240
2990.00,0.0247
2989.00,0.0254
2988.00,0.0260
2987.00,0.0267
2986.00,0.0272
2985.00,0.0278
2984.00,0.0283
2983.00,0.0287
2982.00,0.0292
2981.00,0.0297
2980.00,0.0303
2979.00,0.0308
2978.00,0.0313
2977.00,0.0318
2976.00,0.0323
2975.00,0.0328
2974.00,0.0333
2973.00,0.0337
2972.00,0.0342
2971.00,0.0348
2970.00,0.0354
2969.00,0.0360
2968.00,0.0367
2967.00,0.0374
2966.00,0.0380
2965.00,0.0387
2964.00,0.0394
2963.00,0.0400
2962.00,0.0407
2961.00,0.0413
2960.00,0.0418
2959.00,0.0423
2958.00,0.0427
2957.00,0.0431
2956.00,0.0434
2955.00,0.0436
2954.00,0.0438
2953.00,0.0439
2952.00,0.0438
2951.00,0.0438
2950.00,0.0436
2949.00,0.0435
2948.00,0.0433
2947.00,0.0432
2946.00,0.0430
2945.00,0.0429
2944.00,0.0429
2943.00,0.0430
2942.00,0.0431
2941.00,0.0433
2940.00,0.0437
2939.00,0.0440
2938.00,0.0445
2937.00,0.0450
2936.00,0.0455
2935.00,0.0461
2934.00,0.0467
2933.00,0.0474
2932.00,0.0480
2931.00,0.0485
2930.00,0.0491
2929.00,0.0496
2928.00,0.0501
2927.00,0.0505
2926.00,0.0508
2925.00,0.0511
2924.00,0.0513
2923.00,0.0515
2922.00,0.0515
2921.00,0.0515
2920.00,0.0514
2919.00,0.0513
2918.00,0.0510
2917.00,0.0506
2916.00,0.0502
2915.00,0.0497
2914.00,0.0492
2913.00,0.0485
2912.00,0.0479
2911.00,0.0471
2910.00,0.0464
2909.00,0.0456
2908.00,0.0449
2907.00,0.0441
2906.00,0.0434
2905.00,0.0428
2904.00,0.0422
2903.00,0.0417
2902.00,0.0412
2901.00,0.0408
2900.00,0.0405
2899.00,0.0402
2898.00,0.0400
2897.00,0.0397
2896.00,0.0396
2895.00,0.0394
2894.00,0.0393
2893.00,0.0391
2892.00,0.0390
2891.00,0.0388
2890.00,0.0386
2889.00,0.0384
2888.00,0.0383
2887.00,0.0381
2886.00,0.0380
2885.00,0.0378
2884.00,0.0377
2883.00,0.0376
2882.00,0.0376
2881.00,0.0375
2880.00,0.0375
2879.00,0.0375
2878.00,0.0375
2877.00,0.0375
2876.00,0.0375
2875.00,0.0376
2874.00,0.0376
2873.00,0.0376
2872.00,0.0377
2871.00,0.0376
2870.00,0.0376
2869.00,0.0374
2868.00,0.0373
2867.00,0.0372
2866.00,0.0371
2865.00,0.0371
2864.00,0.0371
2863.00,0.0372
2862.00,0.0372
2861.00,0.0373
2860.00,0.0375
2859.00,0.0375
2858.00,0.0376
2857.00,0.0375
2856.00,0.0373
2855.00,0.0370
2854.00,0.0365
2853.00,0.0360
2852.00,0.0353
2851.00,0.0345
2850.00,0.0337
2849.00,0.0328
2848.00,0.0320
2847.00,0.0312
2846.00,0.0303
2845.00,0.0295
2844.00,0.0287
2843.00,0.0280
2842.00,0.0272
2841.00,0.0264
2840.00,0.0256
2839.00,0.0250
2838.00,0.0244
2837.00,0.0238
2836.00,0.0233
2835.00,0.0228
2834.00,0.0223
2833.00,0.0219
2832.00,0.0214
2831.00,0.0210
2830.00,0.0205
2829.00,0.0201
2828.00,0.0197
2827.00,0.0192
2826.00,0.0188
2825.00,0.0184
2824.00,0.0180
2823.00,0.0176
2822.00,0.0172
2821.00,0.0169
2820.00,0.0165
2819.00,0.0162
2818.00,0.0159
2817.00,0.0156
2816.00,0.0153
2815.00,0.0151
2814.00,0.0148
2813.00,0.0146
2812.00,0.0143
2811.00,0.0142
2810.00,0.0140
2809.00,0.0138
2808.00,0.0136
2807.00,0.0135
2806.00,0.0133
2805.00,0.0131
2804.00,0.0130
2803.00,0.0129
2802.00,0.0128
2801.00,0.0126
2800.00,0.0126
2799.00,0.0125
2798.00,0.0124
2797.00,0.0123
2796.00,0.0122
2795.00,0.0121
2794.00,0.0120
2793.00,0.0119
2792.00,0.0119
2791.00,0.0118
2790.00,0.0117
2789.00,0.0117
2788.00,0.0116
2787.00,0.0116
2786.00,0.0115
2785.00,0.0115
2784.00,0.0114
2783.00,0.0114
2782.00,0.0113
2781.00,0.0112
2780.00,0.0112
2779.00,0.0111
2778.00,0.0111
2777.00,0.0110
2776.00,0.0110
2775.00,0.0109
2774.00,0.0109
2773.00,0.0108
2772.00,0.0108
2771.00,0.0107
2770.00,0.0107
2769.00,0.0107
2768.00,0.0106
2767.00,0.0106
2766.00,0.0106
2765.00,0.0106
2764.00,0.0106
2763.00,0.0105
2762.00,0.0105
2761.00,0.0105
2760.00,0.0105
2759.00,0.0105
2758.00,0.0105
2757.00,0.0104
2756.00,0.0104
2755.00,0.0104
2754.00,0.0104
2753.00,0.0104
2752.00,0.0104
2751.00,0.0104
2750.00,0.0104
2749.00,0.0104
2748.00,0.0104
2747.00,0.0105
2746.00,0.0105
2745.00,0.0105
2744.00,0.0105
2743.00,0.0105
2742.00,0.0105
2741.00,0.0105
2740.00,0.0106
2739.00,0.0106
2738.00,0.0106
2737.00,0.0106
2736.00,0.0106
2735.00,0.0106
2734.00,0.0106
2733.00,0.0107
2732.00,0.0107
2731.00,0.0107
2730.00,0.0107
2729.00,0.0107
2728.00,0.0106
2727.00,0.0106
2726.00,0.0106
2725.00,0.0106
2724.00,0.0106
2723.00,0.0106
2722.00,0.0106
2721.00,0.0105
2720.00,0.0105
2719.00,0.0105
2718.00,0.0105
2717.00,0.0105
2716.00,0.0105
2715.00,0.0104
2714.00,0.0104
2713.00,0.0104
2712.00,0.0104
2711.00,0.0104
2710.00,0.0103
2709.00,0.0103
2708.00,0.0103
2707.00,0.0103
2706.00,0.0103
2705.00,0.0102
2704.00,0.0102
2703.00,0.0102
2702.00,0.0102
2701.00,0.0101
2700.00,0.0101
2699.00,0.0101
2698.00,0.0101
2697.00,0.0101
2696.00,0.0100
2695.00,0.0100
2694.00,0.0100
2693.00,0.0100
2692.00,0.0100
2691.00,0.0100
2690.00,0.0099
2689.00,0.0099
2688.00,0.0099
2687.00,0.0099
2686.00,0.0099
2685.00,0.0098
2684.00,0.0098
2683.00,0.0098
2682.00,0.0098
2681.00,0.0097
2680.00,0.0097
2679.00,0.0097
2678.00,0.0097
2677.00,0.0097
2676.00,0.0097
2675.00,0.0096
2674.00,0.0096
2673.00,0.0096
2672.00,0.0096
2671.00,0.0096
2670.00,0.0096
2669.00,0.0096
2668.00,0.0096
2667.00,0.0096
2666.00,0.0096
2665.00,0.0096
2664.00,0.0097
2663.00,0.0097
2662.00,0.0097
2661.00,0.0097
2660.00,0.0097
2659.00,0.0097
2658.00,0.0097
2657.00,0.0097
2656.00,0.0097
2655.00,0.0097
2654.00,0.0097
2653.00,0.0097
2652.00,0.0096
2651.00,0.0096
2650.00,0.0096
2649.00,0.0095
2648.00,0.0095
2647.00,0.0095
2646.00,0.0094
2645.00,0.0094
2644.00,0.0094
2643.00,0.0093
2642.00,0.0093
2641.00,0.0093
2640.00,0.0093
2639.00,0.0092
2638.00,0.0092
2637.00,0.0092
2636.00,0.0092
2635.00,0.0091
2634.00,0.0091
2633.00,0.0091
2632.00,0.0090
2631.00,0.0090
2630.00,0.0090
2629.00,0.0089
2628.00,0.0089
2627.00,0.0089
2626.00,0.0088
2625.00,0.0088
2624.00,0.0088
2623.00,0.0088
2622.00,0.0088
2621.00,0.0087
2620.00,0.0087
2619.00,0.0086
2618.00,0.0086
2617.00,0.0085
2616.00,0.0085
2615.00,0.0085
2614.00,0.0085
2613.00,0.0085
2612.00,0.0085
2611.00,0.0084
2610.00,0.0084
2609.00,0.0083
2608.00,0.0083
2607.00,0.0083
2606.00,0.0083
2605.00,0.0083
2604.00,0.0083
2603.00,0.0083
2602.00,0.0083
2601.00,0.0083
2600.00,0.0083
2599.00,0.0083
2598.00,0.0082
2597.00,0.0082
2596.00,0.0082
2595.00,0.0082
2594.00,0.0082
2593.00,0.0082
2592.00,0.0082
2591.00,0.0082
2590.00,0.0082
2589.00,0.0082
2588.00,0.0082
2587.00,0.0082
2586.00,0.0082
2585.00,0.0082
2584.00,0.0082
2583.00,0.0082
2582.00,0.0082
2581.00,0.0082
2580.00,0.0082
2579.00,0.0082
2578.00,0.0082
2577.00,0.0082
2576.00,0.0082
2575.00,0.0081
2574.00,0.0081
2573.00,0.0081
2572.00,0.0081
2571.00,0.0081
2570.00,0.0081
2569.00,0.0080
2568.00,0.0080
2567.00,0.0079
2566.00,0.0079
2565.00,0.0079
2564.00,0.0079
2563.00,0.0079
2562.00,0.0079
2561.00,0.0079
2560.00,0.0078
2559.00,0.0078
2558.00,0.0077
2557.00,0.0077
2556.00,0.0077
2555.00,0.0077
2554.00,0.0077
2553.00,0.0076
2552.00,0.0076
2551.00,0.0076
2550.00,0.0076
2549.00,0.0076
2548.00,0.0075
2547.00,0.0075
2546.00,0.0075
2545.00,0.0075
2544.00,0.0075
2543.00,0.0075
2542.00,0.0075
2541.00,0.0075
2540.00,0.0074
2539.00,0.0074
2538.00,0.0074
2537.00,0.0074
2536.00,0.0074
2535.00,0.0074
2534.00,0.0074
2533.00,0.0073
2532.00,0.0073
2531.00,0.0073
2530.00,0.0073
2529.00,0.0073
2528.00,0.0073
2527.00,0.0073
2526.00,0.0073
2525.00,0.0073
2524.00,0.0072
2523.00,0.0072
2522.00,0.0072
2521.00,0.0072
2520.00,0.0072
2519.00,0.0072
2518.00,0.0071
2517.00,0.0071
2516.00,0.0071
2515.00,0.0071
2514.00,0.0071
2513.00,0.0071
2512.00,0.0071
2511.00,0.0070
2510.00,0.0070
2509.00,0.0070
2508.00,0.0070
2507.00,0.0070
2506.00,0.0070
2505.00,0.0070
2504.00,0.0070
2503.00,0.0070
2502.00,0.0070
2501.00,0.0069
2500.00,0.0069
2499.00,0.0069
2498.00,0.0069
2497.00,0.0069
2496.00,0.0069
2495.00,0.0069
2494.00,0.0069
2493.00,0.0069
2492.00,0.0069
2491.00,0.0068
2490.00,0.0068
2489.00,0.0068
2488.00,0.0068
2487.00,0.0068
2486.00,0.0067
2485.00,0.0067
2484.00,0.0067
2483.00,0.0067
2482.00,0.0067
2481.00,0.0066
2480.00,0.0066
2479.00,0.0066
2478.00,0.0066
2477.00,0.0066
2476.00,0.0066
2475.00,0.0066
2474.00,0.0066
2473.00,0.0066
2472.00,0.0066
2471.00,0.0066
2470.00,0.0065
2469.00,0.0065
2468.00,0.0065
2467.00,0.0065
2466.00,0.0065
2465.00,0.0065
2464.00,0.0065
2463.00,0.0065
2462.00,0.0065
2461.00,0.0065
2460.00,0.0065
2459.00,0.0066
2458.00,0.0066
2457.00,0.0066
2456.00,0.0067
2455.00,0.0067
2454.00,0.0066
2453.00,0.0066
2452.00,0.0065
2451.00,0.0065
2450.00,0.0065
2449.00,0.0065
2448.00,0.0065
2447.00,0.0065
2446.00,0.0065
2445.00,0.0065
2444.00,0.0065
2443.00,0.0065
2442.00,0.0065
2441.00,0.0064
2440.00,0.0064
2439.00,0.0063
2438.00,0.0063
2437.00,0.0063
2436.00,0.0063
2435.00,0.0063
2434.00,0.0063
2433.00,0.0063
2432.00,0.0063
2431.00,0.0063
2430.00,0.0063
2429.00,0.0063
2428.00,0.0063
2427.00,0.0063
2426.00,0.0063
2425.00,0.0063
2424.00,0.0063
2423.00,0.0063
2422.00,0.0063
2421.00,0.0064
2420.00,0.0064
2419.00,0.0063
2418.00,0.0063
2417.00,0.0063
2416.00,0.0063
2415.00,0.0062
2414.00,0.0062
2413.00,0.0062
2412.00,0.0063
2411.00,0.0063
2410.00,0.0063
2409.00,0.0062
2408.00,0.0062
2407.00,0.0062
2406.00,0.0061
2405.00,0.0061
2404.00,0.0062
2403.00,0.0062
2402.00,0.0062
2401.00,0.0062
2400.00,0.0062
2399.00,0.0062
2398.00,0.0062
2397.00,0.0062
2396.00,0.0062
2395.00,0.0062
2394.00,0.0061
2393.00,0.0061
2392.00,0.0061
2391.00,0.0061
2390.00,0.0061
2389.00,0.0060
2388.00,0.0060
2387.00,0.0060
2386.00,0.0060
2385.00,0.0060
2384.00,0.0059
2383.00,0.0059
2382.00,0.0059
2381.00,0.0058
2380.00,0.0058
2379.00,0.0058
2378.00,0.0058
2377.00,0.0058
2376.00,0.0058
2375.00,0.0058
2374.00,0.0057
2373.00,0.0057
2372.00,0.0057
2371.00,0.0058
2370.00,0.0058
2369.00,0.0058
2368.00,0.0058
2367.00,0.0057
2366.00,0.0057
2365.00,0.0057
2364.00,0.0057
2363.00,0.0057
2362.00,0.0057
2361.00,0.0058
2360.00,0.0058
2359.00,0.0058
2358.00,0.0058
2357.00,0.0058
2356.00,0.0058
2355.00,0.0059
2354.00,0.0059
2353.00,0.0059
2352.00,0.0059
2351.00,0.0059
2350.00,0.0058
2349.00,0.0058
2348.00,0.0059
2347.00,0.0060
2346.00,0.0060
2345.00,0.0060
2344.00,0.0060
2343.00,0.0060
2342.00,0.0060
2341.00,0.0060
2340.00,0.0060
2339.00,0.0061
2338.00,0.0062
2337.00,0.0062
2336.00,0.0062
2335.00,0.0062
2334.00,0.0062
2333.00,0.0062
2332.00,0.0062
2331.00,0.0062
2330.00,0.0062
2329.00,0.0064
2328.00,0.0068
2327.00,0.0071
2326.00,0.0073
2325.00,0.0074
2324.00,0.0073
2323.00,0.0071
2322.00,0.0070
2321.00,0.0068
2320.00,0.0067
2319.00,0.0066
2318.00,0.0066
2317.00,0.0066
2316.00,0.0065
2315.00,0.0065
2314.00,0.0064
2313.00,0.0064
2312.00,0.0063
2311.00,0.0063
2310.00,0.0063
2309.00,0.0063
2308.00,0.0063
2307.00,0.0063
2306.00,0.0063
2305.00,0.0063
2304.00,0.0063
2303.00,0.0063
2302.00,0.0064
2301.00,0.0064
2300.00,0.0064
2299.00,0.0064
2298.00,0.0064
2297.00,0.0065
2296.00,0.0065
2295.00,0.0065
2294.00,0.0066
2293.00,0.0066
2292.00,0.0067
2291.00,0.0068
2290.00,0.0068
2289.00,0.0069
2288.00,0.0069
2287.00,0.0069
2286.00,0.0069
2285.00,0.0068
2284.00,0.0068
2283.00,0.0067
2282.00,0.0066
2281.00,0.0066
2280.00,0.0065
2279.00,0.0065
2278.00,0.0065
2277.00,0.0065
2276.00,0.0064
2275.00,0.0064
2274.00,0.0063
2273.00,0.0063
2272.00,0.0062
2271.00,0.0062
2270.00,0.0062
2269.00,0.0062
2268.00,0.0062
2267.00,0.0062
2266.00,0.0062
2265.00,0.0062
2264.00,0.0062
2263.00,0.0062
2262.00,0.0062
2261.00,0.0062
2260.00,0.0062
2259.00,0.0062
2258.00,0.0062
2257.00,0.0061
2256.00,0.0061
2255.00,0.0060
2254.00,0.0060
2253.00,0.0060
2252.00,0.0061
2251.00,0.0061
2250.00,0.0060
2249.00,0.0060
2248.00,0.0060
2247.00,0.0060
2246.00,0.0060
2245.00,0.0060
2244.00,0.0061
2243.00,0.0061
2242.00,0.0061
2241.00,0.0062
2240.00,0.0063
2239.00,0.0063
2238.00,0.0064
2237.00,0.0063
2236.00,0.0063
2235.00,0.0063
2234.00,0.0063
2233.00,0.0063
2232.00,0.0063
2231.00,0.0063
2230.00,0.0062
2229.00,0.0061
2228.00,0.0061
2227.00,0.0060
2226.00,0.0060
2225.00,0.0060
2224.00,0.0060
2223.00,0.0060
2222.00,0.0060
2221.00,0.0061
2220.00,0.0061
2219.00,0.0061
2218.00,0.0060
2217.00,0.0060
2216.00,0.0060
2215.00,0.0060
2214.00,0.0059
2213.00,0.0059
2212.00,0.0060
2211.00,0.0061
2210.00,0.0061
2209.00,0.0062
2208.00,0.0062
2207.00,0.0061
2206.00,0.0060
2205.00,0.0060
2204.00,0.0061
2203.00,0.0061
2202.00,0.0062
2201.00,0.0062
2200.00,0.0063
2199.00,0.0063
2198.00,0.0063
2197.00,0.0063
2196.00,0.0062
2195.00,0.0062
2194.00,0.0062
2193.00,0.0063
2192.00,0.0064
2191.00,0.0064
2190.00,0.0063
2189.00,0.0063
2188.00,0.0063
2187.00,0.0062
2186.00,0.0061
2185.00,0.0060
2184.00,0.0059
2183.00,0.0059
2182.00,0.0059
2181.00,0.0059
2180.00,0.0059
2179.00,0.0058
2178.00,0.0055
2177.00,0.0054
2176.00,0.0053
2175.00,0.0054
2174.00,0.0056
2173.00,0.0059
2172.00,0.0062
2171.00,0.0064
2170.00,0.0064
2169.00,0.0064
2168.00,0.0064
2167.00,0.0064
2166.00,0.0065
2165.00,0.0067
2164.00,0.0070
2163.00,0.0069
2162.00,0.0063
2161.00,0.0051
2160.00,0.0038
2159.00,0.0029
2158.00,0.0026
2157.00,0.0029
2156.00,0.0033
2155.00,0.0036
2154.00,0.0037
2153.00,0.0038
2152.00,0.0039
2151.00,0.0040
2150.00,0.0041
2149.00,0.0041
2148.00,0.0041
2147.00,0.0041
2146.00,0.0041
2145.00,0.0041
2144.00,0.0042
2143.00,0.0043
2142.00,0.0043
2141.00,0.0044
2140.00,0.0045
2139.00,0.0044
2138.00,0.0043
2137.00,0.0041
2136.00,0.0039
2135.00,0.0038
2134.00,0.0038
2133.00,0.0039
2132.00,0.0042
2131.00,0.0044
2130.00,0.0046
2129.00,0.0047
2128.00,0.0048
2127.00,0.0048
2126.00,0.0048
2125.00,0.0049
2124.00,0.0050
2123.00,0.0051
2122.00,0.0051
2121.00,0.0051
2120.00,0.0052
2119.00,0.0053
2118.00,0.0054
2117.00,0.0056
2116.00,0.0056
2115.00,0.0057
2114.00,0.0056
2113.00,0.0056
2112.00,0.0057
2111.00,0.0056
2110.00,0.0056
2109.00,0.0055
2108.00,0.0054
2107.00,0.0054
2106.00,0.0054
2105.00,0.0054
2104.00,0.0054
2103.00,0.0054
2102.00,0.0054
2101.00,0.0054
2100.00,0.0054
2099.00,0.0054
2098.00,0.0052
2097.00,0.0051
2096.00,0.0050
2095.00,0.0049
2094.00,0.0049
2093.00,0.0049
2092.00,0.0051
2091.00,0.0051
2090.00,0.0051
2089.00,0.0051
2088.00,0.0052
2087.00,0.0052
2086.00,0.0053
2085.00,0.0053
2084.00,0.0055
2083.00,0.0056
2082.00,0.0056
2081.00,0.0056
2080.00,0.0056
2079.00,0.0056
2078.00,0.0056
2077.00,0.0056
2076.00,0.0056
2075.00,0.0055
2074.00,0.0053
2073.00,0.0053
2072.00,0.0053
2071.00,0.0053
2070.00,0.0053
2069.00,0.0053
2068.00,0.0054
2067.00,0.0054
2066.00,0.0054
2065.00,0.0054
2064.00,0.0054
2063.00,0.0054
2062.00,0.0052
2061.00,0.0051
2060.00,0.0051
2059.00,0.0051
2058.00,0.0052
2057.00,0.0052
2056.00,0.0053
2055.00,0.0054
2054.00,0.0056
2053.00,0.0059
2052.00,0.0063
2051.00,0.0064
2050.00,0.0061
2049.00,0.0058
2048.00,0.0056
2047.00,0.0054
2046.00,0.0053
2045.00,0.0052
2044.00,0.0052
2043.00,0.0052
2042.00,0.0051
2041.00,0.0050
2040.00,0.0052
2039.00,0.0053
2038.00,0.0053
2037.00,0.0053
2036.00,0.0053
2035.00,0.0051
2034.00,0.0049
2033.00,0.0047
2032.00,0.0045
2031.00,0.0044
2030.00,0.0044
2029.00,0.0045
2028.00,0.0047
2027.00,0.0047
2026.00,0.0046
2025.00,0.0046
2024.00,0.0047
2023.00,0.0047
2022.00,0.0046
2021.00,0.0045
2020.00,0.0044
2019.00,0.0043
2018.00,0.0043
2017.00,0.0044
2016.00,0.0046
2015.00,0.0048
2014.00,0.0048
2013.00,0.0047
2012.00,0.0047
2011.00,0.0046
2010.00,0.0044
2009.00,0.0041
2008.00,0.0040
2007.00,0.0039
2006.00,0.0039
2005.00,0.0039
2004.00,0.0040
2003.00,0.0041
2002.00,0.0042
2001.00,0.0044
2000.00,0.0045
1999.00,0.0045
1998.00,0.0045
1997.00,0.0045
1996.00,0.0046
1995.00,0.0047
1994.00,0.0048
1993.00,0.0050
1992.00,0.0051
1991.00,0.0051
1990.00,0.0050
1989.00,0.0050
1988.00,0.0051
1987.00,0.0052
1986.00,0.0052
1985.00,0.0052
1984.00,0.0054
1983.00,0.0057
1982.00,0.0060
1981.00,0.0062
1980.00,0.0062
1979.00,0.0057
1978.00,0.0051
1977.00,0.0046
1976.00,0.0043
1975.00,0.0041
1974.00,0.0039
1973.00,0.0037
1972.00,0.0037
1971.00,0.0037
1970.00,0.0037
1969.00,0.0038
1968.00,0.0040
1967.00,0.0040
1966.00,0.0040
1965.00,0.0040
1964.00,0.0041
1963.00,0.0041
1962.00,0.0039
1961.00,0.0038
1960.00,0.0038
1959.00,0.0039
1958.00,0.0039
1957.00,0.0040
1956.00,0.0041
1955.00,0.0042
1954.00,0.0043
1953.00,0.0043
1952.00,0.0044
1951.00,0.0044
1950.00,0.0044
1949.00,0.0044
1948.00,0.0046
1947.00,0.0046
1946.00,0.0045
1945.00,0.0043
1944.00,0.0043
1943.00,0.0042
1942.00,0.0042
1941.00,0.0043
1940.00,0.0044
1939.00,0.0045
1938.00,0.0045
1937.00,0.0045
1936.00,0.0046
1935.00,0.0046
1934.00,0.0045
1933.00,0.0044
1932.00,0.0044
1931.00,0.0044
1930.00,0.0044
1929.00,0.0045
1928.00,0.0046
1927.00,0.0046
1926.00,0.0045
1925.00,0.0046
1924.00,0.0047
1923.00,0.0048
1922.00,0.0048
1921.00,0.0048
1920.00,0.0049
1919.00,0.0049
1918.00,0.0049
1917.00,0.0048
1916.00,0.0048
1915.00,0.0048
1914.00,0.0048
1913.00,0.0049
1912.00,0.0050
1911.00,0.0050
1910.00,0.0050
1909.00,0.0049
1908.00,0.0049
1907.00,0.0049
1906.00,0.0048
1905.00,0.0048
1904.00,0.0049
1903.00,0.0049
1902.00,0.0049
1901.00,0.0048
1900.00,0.0049
1899.00,0.0049
1898.00,0.0048
1897.00,0.0048
1896.00,0.0049
1895.00,0.0049
1894.00,0.0048
1893.00,0.0048
1892.00,0.0048
1891.00,0.0048
1890.00,0.0048
1889.00,0.0049
1888.00,0.0050
1887.00,0.0050
1886.00,0.0050
1885.00,0.0049
1884.00,0.0050
1883.00,0.0050
1882.00,0.0049
1881.00,0.0049
1880.00,0.0048
1879.00,0.0048
1878.00,0.0048
1877.00,0.0048
1876.00,0.0049
1875.00,0.0050
1874.00,0.0049
1873.00,0.0049
1872.00,0.0049
1871.00,0.0049
1870.00,0.0049
1869.00,0.0050
1868.00,0.0050
1867.00,0.0050
1866.00,0.0050
1865.00,0.0050
1864.00,0.0050
1863.00,0.0050
1862.00,0.0050
1861.00,0.0050
1860.00,0.0050
1859.00,0.0050
1858.00,0.0050
1857.00,0.0050
1856.00,0.0050
1855.00,0.0050
1854.00,0.0050
1853.00,0.0051
1852.00,0.0051
1851.00,0.0051
1850.00,0.0050
1849.00,0.0050
1848.00,0.0051
1847.00,0.0050
1846.00,0.0050
1845.00,0.0049
1844.00,0.0049
1843.00,0.0050
1842.00,0.0050
1841.00,0.0050
1840.00,0.0051
1839.00,0.0051
1838.00,0.0051
1837.00,0.0051
1836.00,0.0051
1835.00,0.0052
1834.00,0.0051
1833.00,0.0051
1832.00,0.0051
1831.00,0.0050
1830.00,0.0050
1829.00,0.0051
1828.00,0.0051
1827.00,0.0051
1826.00,0.0051
1825.00,0.0051
1824.00,0.0051
1823.00,0.0051
1822.00,0.0051
1821.00,0.0050
1820.00,0.0050
1819.00,0.0049
1818.00,0.0049
1817.00,0.0048
1816.00,0.0049
1815.00,0.0049
1814.00,0.0050
1813.00,0.0050
1812.00,0.0051
1811.00,0.0051
1810.00,0.0052
1809.00,0.0052
1808.00,0.0052
1807.00,0.0052
1806.00,0.0052
1805.00,0.0051
1804.00,0.0052
1803.00,0.0052
1802.00,0.0052
1801.00,0.0052
1800.00,0.0052
1799.00,0.0052
1798.00,0.0052
1797.00,0.0053
1796.00,0.0053
1795.00,0.0053
1794.00,0.0053
1793.00,0.0052
1792.00,0.0052
1791.00,0.0052
1790.00,0.0053
1789.00,0.0053
1788.00,0.0054
1787.00,0.0055
1786.00,0.0054
1785.00,0.0054
1784.00,0.0055
1783.00,0.0055
1782.00,0.0055
1781.00,0.0056
1780.00,0.0056
1779.00,0.0056
1778.00,0.0056
1777.00,0.0056
1776.00,0.0057
1775.00,0.0058
1774.00,0.0057
1773.00,0.0057
1772.00,0.0058
1771.00,0.0059
1770.00,0.0059
1769.00,0.0059
1768.00,0.0060
1767.00,0.0061
1766.00,0.0061
1765.00,0.0061
1764.00,0.0061
1763.00,0.0061
1762.00,0.0061
1761.00,0.0061
1760.00,0.0062
1759.00,0.0063
1758.00,0.0063
1757.00,0.0063
1756.00,0.0064
1755.00,0.0064
1754.00,0.0065
1753.00,0.0065
1752.00,0.0066
1751.00,0.0067
1750.00,0.0067
1749.00,0.0068
1748.00,0.0070
1747.00,0.0071
1746.00,0.0071
1745.00,0.0072
1744.00,0.0073
1743.00,0.0073
1742.00,0.0073
1741.00,0.0073
1740.00,0.0075
1739.00,0.0076
1738.00,0.0077
1737.00,0.0078
1736.00,0.0080
1735.00,0.0081
1734.00,0.0082
1733.00,0.0085
1732.00,0.0089
1731.00,0.0092
1730.00,0.0095
1729.00,0.0097
1728.00,0.0100
1727.00,0.0103
1726.00,0.0105
1725.00,0.0108
1724.00,0.0112
1723.00,0.0116
1722.00,0.0119
1721.00,0.0122
1720.00,0.0126
1719.00,0.0130
1718.00,0.0136
1717.00,0.0143
1716.00,0.0152
1715.00,0.0160
1714.00,0.0168
1713.00,0.0177
1712.00,0.0188
1711.00,0.0200
1710.00,0.0212
1709.00,0.0226
1708.00,0.0242
1707.00,0.0261
1706.00,0.0282
1705.00,0.0307
1704.00,0.0333
1703.00,0.0357
1702.00,0.0384
1701.00,0.0425
1700.00,0.0480
1699.00,0.0533
1698.00,0.0579
1697.00,0.0630
1696.00,0.0697
1695.00,0.0771
1694.00,0.0838
1693.00,0.0898
1692.00,0.0959
1691.00,0.1026
1690.00,0.1096
1689.00,0.1165
1688.00,0.1228
1687.00,0.1284
1686.00,0.1340
1685.00,0.1410
1684.00,0.1490
1683.00,0.1559
1682.00,0.1606
1681.00,0.1644
1680.00,0.1679
1679.00,0.1711
1678.00,0.1736
1677.00,0.1759
1676.00,0.1784
1675.00,0.1811
1674.00,0.1834
1673.00,0.1850
1672.00,0.1863
1671.00,0.1879
1670.00,0.1899
1669.00,0.1924
1668.00,0.1948
1667.00,0.1970
1666.00,0.1988
1665.00,0.2007
1664.00,0.2031
1663.00,0.2061
1662.00,0.2092
1661.00,0.2120
1660.00,0.2143
1659.00,0.2161
1658.00,0.2175
1657.00,0.2183
1656.00,0.2186
1655.00,0.2184
1654.00,0.2185
1653.00,0.2188
1652.00,0.2181
1651.00,0.2161
1650.00,0.2129
1649.00,0.2088
1648.00,0.2037
1647.00,0.1977
1646.00,0.1909
1645.00,0.1838
1644.00,0.1765
1643.00,0.1691
1642.00,0.1615
1641.00,0.1536
1640.00,0.1459
1639.00,0.1386
1638.00,0.1316
1637.00,0.1245
1636.00,0.1173
1635.00,0.1107
1634.00,0.1050
1633.00,0.1003
1632.00,0.0960
1631.00,0.0920
1630.00,0.0883
1629.00,0.0849
1628.00,0.0820
1627.00,0.0796
1626.00,0.0776
1625.00,0.0759
1624.00,0.0744
1623.00,0.0732
1622.00,0.0721
1621.00,0.0711
1620.00,0.0700
1619.00,0.0687
1618.00,0.0673
1617.00,0.0657
1616.00,0.0640
1615.00,0.0623
1614.00,0.0606
1613.00,0.0588
1612.00,0.0570
1611.00,0.0553
1610.00,0.0539
1609.00,0.0529
1608.00,0.0522
1607.00,0.0521
1606.00,0.0524
1605.00,0.0532
1604.00,0.0543
1603.00,0.0557
1602.00,0.0572
1601.00,0.0586
1600.00,0.0596
1599.00,0.0603
1598.00,0.0603
1597.00,0.0599
1596.00,0.0588
1595.00,0.0574
1594.00,0.0557
1593.00,0.0539
1592.00,0.0520
1591.00,0.0503
1590.00,0.0487
1589.00,0.0472
1588.00,0.0458
1587.00,0.0444
1586.00,0.0431
1585.00,0.0418
1584.00,0.0404
1583.00,0.0389
1582.00,0.0375
1581.00,0.0361
1580.00,0.0348
1579.00,0.0336
1578.00,0.0324
1577.00,0.0312
1576.00,0.0300
1575.00,0.0291
1574.00,0.0283
1573.00,0.0277
1572.00,0.0270
1571.00,0.0262
1570.00,0.0256
1569.00,0.0250
1568.00,0.0245
1567.00,0.0240
1566.00,0.0237
1565.00,0.0233
1564.00,0.0229
1563.00,0.0226
1562.00,0.0222
1561.00,0.0217
1560.00,0.0211
1559.00,0.0208
1558.00,0.0208
1557.00,0.0206
1556.00,0.0206
1555.00,0.0206
1554.00,0.0205
1553.00,0.0204
1552.00,0.0203
1551.00,0.0203
1550.00,0.0203
1549.00,0.0203
1548.00,0.0202
1547.00,0.0201
1546.00,0.0201
1545.00,0.0201
1544.00,0.0201
1543.00,0.0200
1542.00,0.0200
1541.00,0.0199
1540.00,0.0200
1539.00,0.0200
1538.00,0.0200
1537.00,0.0200
1536.00,0.0200
1535.00,0.0199
1534.00,0.0197
1533.00,0.0196
1532.00,0.0196
1531.00,0.0195
1530.00,0.0194
1529.00,0.0194
1528.00,0.0193
1527.00,0.0193
1526.00,0.0193
1525.00,0.0194
1524.00,0.0194
1523.00,0.0194
1522.00,0.0195
1521.00,0.0196
1520.00,0.0197
1519.00,0.0199
1518.00,0.0200
1517.00,0.0202
1516.00,0.0203
1515.00,0.0203
1514.00,0.0204
1513.00,0.0205
1512.00,0.0207
1511.00,0.0210
1510.00,0.0213
1509.00,0.0217
1508.00,0.0222
1507.00,0.0232
1506.00,0.0243
1505.00,0.0255
1504.00,0.0269
1503.00,0.0284
1502.00,0.0301
1501.00,0.0320
1500.00,0.0341
1499.00,0.0363
1498.00,0.0387
1497.00,0.0413
1496.00,0.0435
1495.00,0.0452
1494.00,0.0463
1493.00,0.0466
1492.00,0.0463
1491.00,0.0453
1490.00,0.0438
1489.00,0.0419
1488.00,0.0396
1487.00,0.0372
1486.00,0.0350
1485.00,0.0330
1484.00,0.0313
1483.00,0.0298
1482.00,0.0286
1481.00,0.0278
1480.00,0.0273
1479.00,0.0271
1478.00,0.0272
1477.00,0.0276
1476.00,0.0285
1475.00,0.0296
1474.00,0.0313
1473.00,0.0338
1472.00,0.0372
1471.00,0.0409
1470.00,0.0449
1469.00,0.0493
1468.00,0.0540
1467.00,0.0591
1466.00,0.0649
1465.00,0.0712
1464.00,0.0772
1463.00,0.0821
1462.00,0.0855
1461.00,0.0876
1460.00,0.0884
1459.00,0.0880
1458.00,0.0862
1457.00,0.0833
1456.00,0.0799
1455.00,0.0769
1454.00,0.0745
1453.00,0.0727
1452.00,0.0715
1451.00,0.0711
1450.00,0.0715
1449.00,0.0729
1448.00,0.0753
1447.00,0.0784
1446.00,0.0820
1445.00,0.0859
1444.00,0.0901
1443.00,0.0946
1442.00,0.0991
1441.00,0.1035
1440.00,0.1075
1439.00,0.1112
1438.00,0.1151
1437.00,0.1197
1436.00,0.1246
1435.00,0.1289
1434.00,0.1325
1433.00,0.1360
1432.00,0.1396
1431.00,0.1431
1430.00,0.1465
1429.00,0.1495
1428.00,0.1521
1427.00,0.1543
1426.00,0.1564
1425.00,0.1587
1424.00,0.1608
1423.00,0.1620
1422.00,0.1619
1421.00,0.1603
1420.00,0.1565
1419.00,0.1503
1418.00,0.1424
1417.00,0.1338
1416.00,0.1247
1415.00,0.1155
1414.00,0.1065
1413.00,0.0982
1412.00,0.0906
1411.00,0.0840
1410.00,0.0783
1409.00,0.0735
1408.00,0.0695
1407.00,0.0661
1406.00,0.0633
1405.00,0.0609
1404.00,0.0589
1403.00,0.0572
1402.00,0.0559
1401.00,0.0549
1400.00,0.0539
1399.00,0.0532
1398.00,0.0527
1397.00,0.0524
1396.00,0.0520
1395.00,0.0519
1394.00,0.0519
1393.00,0.0521
1392.00,0.0523
1391.00,0.0527
1390.00,0.0533
1389.00,0.0541
1388.00,0.0551
1387.00,0.0564
1386.00,0.0579
1385.00,0.0594
1384.00,0.0609
1383.00,0.0624
1382.00,0.0639
1381.00,0.0654
1380.00,0.0668
1379.00,0.0681
1378.00,0.0693
1377.00,0.0702
1376.00,0.0707
1375.00,0.0708
1374.00,0.0705
1373.00,0.0698
1372.00,0.0687
1371.00,0.0674
1370.00,0.0661
1369.00,0.0647
1368.00,0.0631
1367.00,0.0615
1366.00,0.0599
1365.00,0.0583
1364.00,0.0566
1363.00,0.0549
1362.00,0.0533
1361.00,0.0518
1360.00,0.0505
1359.00,0.0494
1358.00,0.0485
1357.00,0.0477
1356.00,0.0471
1355.00,0.0466
1354.00,0.0461
1353.00,0.0456
1352.00,0.0450
1351.00,0.0445
1350.00,0.0439
1349.00,0.0432
1348.00,0.0425
1347.00,0.0418
1346.00,0.0412
1345.00,0.0406
1344.00,0.0401
1343.00,0.0397
1342.00,0.0394
1341.00,0.0393
1340.00,0.0392
1339.00,0.0393
1338.00,0.0394
1337.00,0.0395
1336.00,0.0397
1335.00,0.0400
1334.00,0.0405
1333.00,0.0410
1332.00,0.0417
1331.00,0.0425
1330.00,0.0436
1329.00,0.0448
1328.00,0.0461
1327.00,0.0476
1326.00,0.0493
1325.00,0.0512
1324.00,0.0531
1323.00,0.0550
1322.00,0.0568
1321.00,0.0585
1320.00,0.0600
1319.00,0.0612
1318.00,0.0620
1317.00,0.0624
1316.00,0.0623
1315.00,0.0618
1314.00,0.0610
1313.00,0.0600
1312.00,0.0588
1311.00,0.0576
1310.00,0.0565
1309.00,0.0555
1308.00,0.0548
1307.00,0.0544
1306.00,0.0543
1305.00,0.0547
1304.00,0.0556
1303.00,0.0570
1302.00,0.0592
1301.00,0.0621
1300.00,0.0660
1299.00,0.0708
1298.00,0.0767
1297.00,0.0837
1296.00,0.0916
1295.00,0.1003
1294.00,0.1095
1293.00,0.1188
1292.00,0.1278
1291.00,0.1363
1290.00,0.1438
1289.00,0.1502
1288.00,0.1553
1287.00,0.1588
1286.00,0.1607
1285.00,0.1609
1284.00,0.1594
1283.00,0.1567
1282.00,0.1532
1281.00,0.1494
1280.00,0.1459
1279.00,0.1431
1278.00,0.1413
1277.00,0.1406
1276.00,0.1408
1275.00,0.1417
1274.00,0.1429
1273.00,0.1441
1272.00,0.1447
1271.00,0.1445
1270.00,0.1433
1269.00,0.1411
1268.00,0.1379
1267.00,0.1337
1266.00,0.1289
1265.00,0.1237
1264.00,0.1183
1263.00,0.1129
1262.00,0.1076
1261.00,0.1026
1260.00,0.0978
1259.00,0.0934
1258.00,0.0893
1257.00,0.0855
1256.00,0.0820
1255.00,0.0789
1254.00,0.0760
1253.00,0.0734
1252.00,0.0709
1251.00,0.0687
1250.00,0.0667
1249.00,0.0650
1248.00,0.0635
1247.00,0.0622
1246.00,0.0611
1245.00,0.0604
1244.00,0.0598
1243.00,0.0595
1242.00,0.0594
1241.00,0.0596
1240.00,0.0601
1239.00,0.0608
1238.00,0.0619
1237.00,0.0633
1236.00,0.0649
1235.00,0.0668
1234.00,0.0688
1233.00,0.0709
1232.00,0.0729
1231.00,0.0747
1230.00,0.0763
1229.00,0.0775
1228.00,0.0783
1227.00,0.0787
1226.00,0.0788
1225.00,0.0787
1224.00,0.0783
1223.00,0.0777
1222.00,0.0771
1221.00,0.0763
1220.00,0.0754
1219.00,0.0743
1218.00,0.0731
1217.00,0.0717
1216.00,0.0701
1215.00,0.0684
1214.00,0.0667
1213.00,0.0650
1212.00,0.0633
1211.00,0.0616
1210.00,0.0602
1209.00,0.0588
1208.00,0.0576
1207.00,0.0565
1206.00,0.0556
1205.00,0.0547
1204.00,0.0538
1203.00,0.0530
1202.00,0.0522
1201.00,0.0514
1200.00,0.0506
1199.00,0.0498
1198.00,0.0491
1197.00,0.0483
1196.00,0.0476
1195.00,0.0469
1194.00,0.0463
1193.00,0.0458
1192.00,0.0453
1191.00,0.0449
1190.00,0.0446
1189.00,0.0443
1188.00,0.0441
1187.00,0.0439
1186.00,0.0438
1185.00,0.0437
1184.00,0.0437
1183.00,0.0437
1182.00,0.0439
1181.00,0.0443
1180.00,0.0448
1179.00,0.0454
1178.00,0.0463
1177.00,0.0473
1176.00,0.0485
1175.00,0.0499
1174.00,0.0515
1173.00,0.0532
1172.00,0.0549
1171.00,0.0567
1170.00,0.0584
1169.00,0.0599
1168.00,0.0612
1167.00,0.0623
1166.00,0.0629
1165.00,0.0632
1164.00,0.0629
1163.00,0.0622
1162.00,0.0612
1161.00,0.0599
1160.00,0.0584
1159.00,0.0568
1158.00,0.0553
1157.00,0.0538
1156.00,0.0522
1155.00,0.0506
1154.00,0.0491
1153.00,0.0476
1152.00,0.0461
1151.00,0.0446
1150.00,0.0431
1149.00,0.0417
1148.00,0.0403
1147.00,0.0390
1146.00,0.0377
1145.00,0.0364
1144.00,0.0353
1143.00,0.0343
1142.00,0.0335
1141.00,0.0327
1140.00,0.0320
1139.00,0.0314
1138.00,0.0307
1137.00,0.0302
1136.00,0.0296
1135.00,0.0291
1134.00,0.0287
1133.00,0.0284
1132.00,0.0281
1131.00,0.0279
1130.00,0.0277
1129.00,0.0276
1128.00,0.0275
1127.00,0.0274
1126.00,0.0274
1125.00,0.0275
1124.00,0.0275
1123.00,0.0276
1122.00,0.0277
1121.00,0.0279
1120.00,0.0281
1119.00,0.0283
1118.00,0.0285
1117.00,0.0288
1116.00,0.0292
1115.00,0.0296
1114.00,0.0302
1113.00,0.0308
1112.00,0.0313
1111.00,0.0319
1110.00,0.0324
1109.00,0.0327
1108.00,0.0329
1107.00,0.0330
1106.00,0.0330
1105.00,0.0330
1104.00,0.0329
1103.00,0.0329
1102.00,0.0330
1101.00,0.0331
1100.00,0.0333
1099.00,0.0336
1098.00,0.0340
1097.00,0.0345
1096.00,0.0349
1095.00,0.0352
1094.00,0.0355
1093.00,0.0357
1092.00,0.0358
1091.00,0.0360
1090.00,0.0363
1089.00,0.0367
1088.00,0.0371
1087.00,0.0378
1086.00,0.0384
1085.00,0.0391
1084.00,0.0396
1083.00,0.0400
1082.00,0.0402
1081.00,0.0402
1080.00,0.0401
1079.00,0.0398
1078.00,0.0395
1077.00,0.0391
1076.00,0.0387
1075.00,0.0383
1074.00,0.0379
1073.00,0.0374
1072.00,0.0368
1071.00,0.0363
1070.00,0.0357
1069.00,0.0352
1068.00,0.0348
1067.00,0.0344
1066.00,0.0342
1065.00,0.0342
1064.00,0.0342
1063.00,0.0345
1062.00,0.0351
1061.00,0.0359
1060.00,0.0371
1059.00,0.0387
1058.00,0.0410
1057.00,0.0439
1056.00,0.0474
1055.00,0.0515
1054.00,0.0561
1053.00,0.0609
1052.00,0.0655
1051.00,0.0693
1050.00,0.0722
1049.00,0.0737
1048.00,0.0739
1047.00,0.0730
1046.00,0.0713
1045.00,0.0692
1044.00,0.0670
1043.00,0.0650
1042.00,0.0633
1041.00,0.0619
1040.00,0.0607
1039.00,0.0597
1038.00,0.0588
1037.00,0.0581
1036.00,0.0572
1035.00,0.0564
1034.00,0.0556
1033.00,0.0547
1032.00,0.0538
1031.00,0.0529
1030.00,0.0521
1029.00,0.0514
1028.00,0.0507
1027.00,0.0501
1026.00,0.0496
1025.00,0.0492
1024.00,0.0489
1023.00,0.0487
1022.00,0.0486
1021.00,0.0486
1020.00,0.0485
1019.00,0.0483
1018.00,0.0479
1017.00,0.0471
1016.00,0.0460
1015.00,0.0446
1014.00,0.0429
1013.00,0.0412
1012.00,0.0395
1011.00,0.0379
1010.00,0.0367
1009.00,0.0358
1008.00,0.0353
1007.00,0.0353
1006.00,0.0356
1005.00,0.0362
1004.00,0.0369
1003.00,0.0374
1002.00,0.0377
1001.00,0.0376
1000.00,0.0371
999.00,0.0364
998.00,0.0356
997.00,0.0348
996.00,0.0341
995.00,0.0334
994.00,0.0329
993.00,0.0325
992.00,0.0322
991.00,0.0320
990.00,0.0319
989.00,0.0319
988.00,0.0319
987.00,0.0318
986.00,0.0317
985.00,0.0315
984.00,0.0312
983.00,0.0307
982.00,0.0303
981.00,0.0297
980.00,0.0292
979.00,0.0287
978.00,0.0282
977.00,0.0277
976.00,0.0273
975.00,0.0269
974.00,0.0265
973.00,0.0261
972.00,0.0256
971.00,0.0251
970.00,0.0247
969.00,0.0243
968.00,0.0238
967.00,0.0234
966.00,0.0231
965.00,0.0228
964.00,0.0224
963.00,0.0221
962.00,0.0218
961.00,0.0215
960.00,0.0212
959.00,0.0208
958.00,0.0205
957.00,0.0203
956.00,0.0200
955.00,0.0197
954.00,0.0195
953.00,0.0192
952.00,0.0190
951.00,0.0189
950.00,0.0188
949.00,0.0187
948.00,0.0186
947.00,0.0185
946.00,0.0186
945.00,0.0187
944.00,0.0188
943.00,0.0190
942.00,0.0193
941.00,0.0197
940.00,0.0202
939.00,0.0208
938.00,0.0216
937.00,0.0225
936.00,0.0235
935.00,0.0244
934.00,0.0252
933.00,0.0256
932.00,0.0257
931.00,0.0254
930.00,0.0249
929.00,0.0243
928.00,0.0238
927.00,0.0235
926.00,0.0234
925.00,0.0233
924.00,0.0233
923.00,0.0233
922.00,0.0233
921.00,0.0234
920.00,0.0235
919.00,0.0236
918.00,0.0238
917.00,0.0239
916.00,0.0241
915.00,0.0244
914.00,0.0246
913.00,0.0249
912.00,0.0251
911.00,0.0254
910.00,0.0257
909.00,0.0260
908.00,0.0262
907.00,0.0264
906.00,0.0265
905.00,0.0266
904.00,0.0266
903.00,0.0267
902.00,0.0269
901.00,0.0271
900.00,0.0273
899.00,0.0275
898.00,0.0277
897.00,0.0278
896.00,0.0279
895.00,0.0279
894.00,0.0278
893.00,0.0275
892.00,0.0272
891.00,0.0269
890.00,0.0266
889.00,0.0263
888.00,0.0260
887.00,0.0257
886.00,0.0255
885.00,0.0254
884.00,0.0254
883.00,0.0254
882.00,0.0254
881.00,0.0254
880.00,0.0254
879.00,0.0255
878.00,0.0257
877.00,0.0258
876.00,0.0259
875.00,0.0261
874.00,0.0263
873.00,0.0265
872.00,0.0267
871.00,0.0269
870.00,0.0273
869.00,0.0278
868.00,0.0282
867.00,0.0287
866.00,0.0293
865.00,0.0300
864.00,0.0307
863.00,0.0315
862.00,0.0325
861.00,0.0336
860.00,0.0347
859.00,0.0359
858.00,0.0373
857.00,0.0387
856.00,0.0401
855.00,0.0416
854.00,0.0431
853.00,0.0447
852.00,0.0461
851.00,0.0475
850.00,0.0489
849.00,0.0502
848.00,0.0513
847.00,0.0523
846.00,0.0533
845.00,0.0540
844.00,0.0545
843.00,0.0549
842.00,0.0552
841.00,0.0554
840.00,0.0556
839.00,0.0557
838.00,0.0559
837.00,0.0560
836.00,0.0560
835.00,0.0560
834.00,0.0560
833.00,0.0560
832.00,0.0560
831.00,0.0558
830.00,0.0555
829.00,0.0551
828.00,0.0544
827.00,0.0534
826.00,0.0524
825.00,0.0511
824.00,0.0497
823.00,0.0481
822.00,0.0466
821.00,0.0450
820.00,0.0435
819.00,0.0422
818.00,0.0409
817.00,0.0397
816.00,0.0385
815.00,0.0375
814.00,0.0366
813.00,0.0357
812.00,0.0350
811.00,0.0344
810.00,0.0339
809.00,0.0334
808.00,0.0329
807.00,0.0324
806.00,0.0321
805.00,0.0319
804.00,0.0316
803.00,0.0315
802.00,0.0315
801.00,0.0316
800.00,0.0318
799.00,0.0320
798.00,0.0323
797.00,0.0326
796.00,0.0328
795.00,0.0331
794.00,0.0333
793.00,0.0335
792.00,0.0336
791.00,0.0338
790.00,0.0339
789.00,0.0340
788.00,0.0341
787.00,0.0342
786.00,0.0343
785.00,0.0345
784.00,0.0347
783.00,0.0349
782.00,0.0352
781.00,0.0354
780.00,0.0356
779.00,0.0359
778.00,0.0361
777.00,0.0363
776.00,0.0365
775.00,0.0366
774.00,0.0367
773.00,0.0368
772.00,0.0369
771.00,0.0369
770.00,0.0371
769.00,0.0372
768.00,0.0374
767.00,0.0376
766.00,0.0380
765.00,0.0383
764.00,0.0387
763.00,0.0392
762.00,0.0398
761.00,0.0404
760.00,0.0411
759.00,0.0418
758.00,0.0426
757.00,0.0435
756.00,0.0443
755.00,0.0452
754.00,0.0461
753.00,0.0470
752.00,0.0479
751.00,0.0489
750.00,0.0499
749.00,0.0509
748.00,0.0517
747.00,0.0526
746.00,0.0535
745.00,0.0543
744.00,0.0550
743.00,0.0558
742.00,0.0565
741.00,0.0573
740.00,0.0579
739.00,0.0584
738.00,0.0589
737.00,0.0593
736.00,0.0595
735.00,0.0596
734.00,0.0596
733.00,0.0594
732.00,0.0588
731.00,0.0580
730.00,0.0570
729.00,0.0558
728.00,0.0544
727.00,0.0531
726.00,0.0518
725.00,0.0506
724.00,0.0494
723.00,0.0483
722.00,0.0474
721.00,0.0466
720.00,0.0458
719.00,0.0451
718.00,0.0447
717.00,0.0443
716.00,0.0440
715.00,0.0437
714.00,0.0436
713.00,0.0435
712.00,0.0433
711.00,0.0432
710.00,0.0432
709.00,0.0433
708.00,0.0433
707.00,0.0434
706.00,0.0436
705.00,0.0438
704.00,0.0439
703.00,0.0441
702.00,0.0443
701.00,0.0445
700.00,0.0448
699.00,0.0450
698.00,0.0454
697.00,0.0458
696.00,0.0461
695.00,0.0464
694.00,0.0468
693.00,0.0472
692.00,0.0475
691.00,0.0479
690.00,0.0484
689.00,0.0489
688.00,0.0495
687.00,0.0500
686.00,0.0507
685.00,0.0513
684.00,0.0518
683.00,0.0524
682.00,0.0530
681.00,0.0538
680.00,0.0544
679.00,0.0550
678.00,0.0557
677.00,0.0563
676.00,0.0569
675.00,0.0576
674.00,0.0584
673.00,0.0591
672.00,0.0597
671.00,0.0602
670.00,0.0610
669.00,0.0620
668.00,0.0634
667.00,0.0648
666.00,0.0658
665.00,0.0666
664.00,0.0675
663.00,0.0686
662.00,0.0700
661.00,0.0714
660.00,0.0728
659.00,0.0742
658.00,0.0757
657.00,0.0771
656.00,0.0786
655.00,0.0802
654.00,0.0817
653.00,0.0831
652.00,0.0841
651.00,0.0851
650.00,0.0859
649.00,0.0864
648.00,0.0866
647.00,0.0864
646.00,0.0859
645.00,0.0850
644.00,0.0838
643.00,0.0824
642.00,0.0810
641.00,0.0795
640.00,0.0778
639.00,0.0762
638.00,0.0746
637.00,0.0731
636.00,0.0716
635.00,0.0703
634.00,0.0691
633.00,0.0680
632.00,0.0668
631.00,0.0657
630.00,0.0647
629.00,0.0638
628.00,0.0628
627.00,0.0620
626.00,0.0614
625.00,0.0608
624.00,0.0601
623.00,0.0596
622.00,0.0592
621.00,0.0589
620.00,0.0586
619.00,0.0584
618.00,0.0583
617.00,0.0582
616.00,0.0581
615.00,0.0580
614.00,0.0581
613.00,0.0580
612.00,0.0579
611.00,0.0578
610.00,0.0580
609.00,0.0582
608.00,0.0585
607.00,0.0588
606.00,0.0593
605.00,0.0598
604.00,0.0601
603.00,0.0604
602.00,0.0608
601.00,0.0613
600.00,0.0615
599.00,0.0619
598.00,0.0623
597.00,0.0628
596.00,0.0633
595.00,0.0638
594.00,0.0644
593.00,0.0650
592.00,0.0656
591.00,0.0664
590.00,0.0674
589.00,0.0685
588.00,0.0695
587.00,0.0706
586.00,0.0720
585.00,0.0736
584.00,0.0751
583.00,0.0767
582.00,0.0783
581.00,0.0798
580.00,0.0812
579.00,0.0825
578.00,0.0837
577.00,0.0846
576.00,0.0851
575.00,0.0854
574.00,0.0857
573.00,0.0857
572.00,0.0855
571.00,0.0854
570.00,0.0852
569.00,0.0847
568.00,0.0840
567.00,0.0831
566.00,0.0822
565.00,0.0811
564.00,0.0797
563.00,0.0783
562.00,0.0769
561.00,0.0756
560.00,0.0742
559.00,0.0728
558.00,0.0717
557.00,0.0706
556.00,0.0695
555.00,0.0684
554.00,0.0676
553.00,0.0668
552.00,0.0659
551.00,0.0652
550.00,0.0646
549.00,0.0640
548.00,0.0632
547.00,0.0626
546.00,0.0624
545.00,0.0621
544.00,0.0616
543.00,0.0613
542.00,0.0611
541.00,0.0608
540.00,0.0603
539.00,0.0598
538.00,0.0595
537.00,0.0592
536.00,0.0589
535.00,0.0588
534.00,0.0590
533.00,0.0592
532.00,0.0591
531.00,0.0588
530.00,0.0586
529.00,0.0584
528.00,0.0580
527.00,0.0577
526.00,0.0578
525.00,0.0578
524.00,0.0576
523.00,0.0574
522.00,0.0574
521.00,0.0573
520.00,0.0572
519.00,0.0570
518.00,0.0571
517.00,0.0569
516.00,0.0565
515.00,0.0561
514.00,0.0559
513.00,0.0557
512.00,0.0554
511.00,0.0551
510.00,0.0550
509.00,0.0550
508.00,0.0548
507.00,0.0547
506.00,0.0548
505.00,0.0549
504.00,0.0546
503.00,0.0544
502.00,0.0546
501.00,0.0548
500.00,0.0548
499.00,0.0550
498.00,0.0554
497.00,0.0556
496.00,0.0555
495.00,0.0554
494.00,0.0556
493.00,0.0559
492.00,0.0559
491.00,0.0560
490.00,0.0564
489.00,0.0569
488.00,0.0571
487.00,0.0572
486.00,0.0575
485.00,0.0578
484.00,0.0577
483.00,0.0577
482.00,0.0580
481.00,0.0582
480.00,0.0581
479.00,0.0582
478.00,0.0588
477.00,0.0592
476.00,0.0593
475.00,0.0594
474.00,0.0598
473.00,0.0601
472.00,0.0599
471.00,0.0596
470.00,0.0597
469.00,0.0599
468.00,0.0596
467.00,0.0592
466.00,0.0592
465.00,0.0594
464.00,0.0591
463.00,0.0589
462.00,0.0589
461.00,0.0588
460.00,0.0584
459.00,0.0583
458.00,0.0587
457.00,0.0590
456.00,0.0587
455.00,0.0583
454.00,0.0583
453.00,0.0584
452.00,0.0582
451.00,0.0578
450.00,0.0577
449.00,0.0576
448.00,0.0570
447.00,0.0567
446.00,0.0567
445.00,0.0566
444.00,0.0561
443.00,0.0556
442.00,0.0557
441.00,0.0556
440.00,0.0548
439.00,0.0539
438.00,0.0533
437.00,0.0528
436.00,0.0520
435.00,0.0516
434.00,0.0520
433.00,0.0524
432.00,0.0521
431.00,0.0517
430.00,0.0516
429.00,0.0514
428.00,0.0507
427.00,0.0501
426.00,0.0501
425.00,0.0501
424.00,0.0496
423.00,0.0493
422.00,0.0498
421.00,0.0503
420.00,0.0500
419.00,0.0497
418.00,0.0503
417.00,0.0506
416.00,0.0501
415.00,0.0499
414.00,0.0505
413.00,0.0509
412.00,0.0501
411.00,0.0493
410.00,0.0494
409.00,0.0494
408.00,0.0486
407.00,0.0486
406.00,0.0506
405.00,0.0526
404.00,0.0531
403.00,0.0530
402.00,0.0539
401.00,0.0547
400.00,0.0539
