Created as New Dataset,Sample 222 By YargerLab Date Sunday, October 05 2025
cm-1,A
4000.00,0.0036
3999.00,0.0036
3998.00,0.0035
3997.00,0.0035
3996.00,0.0035
3995.00,0.0035
3994.00,0.0036
3993.00,0.0036
3992.00,0.0036
3991.00,0.0036
3990.00,0.0036
3989.00,0.0036
3988.00,0.0036
3987.00,0.0036
3986.00,0.0036
3985.00,0.0036
3984.00,0.0036
3983.00,0.0036
3982.00,0.0036
3981.00,0.0036
3980.00,0.0036
3979.00,0.0036
3978.00,0.0036
3977.00,0.0036
3976.00,0.0036
3975.00,0.0036
3974.00,0.0036
3973.00,0.0036
3972.00,0.0036
3971.00,0.0036
3970.00,0.0036
3969.00,0.0036
3968.00,0.0036
3967.00,0.0036
3966.00,0.0036
3965.00,0.0036
3964.00,0.0036
3963.00,0.0036
3962.00,0.0036
3961.00,0.0036
3960.00,0.0036
3959.00,0.0035
3958.00,0.0035
3957.00,0.0035
3956.00,0.0035
3955.00,0.0035
3954.00,0.0036
3953.00,0.0036
3952.00,0.0036
3951.00,0.0036
3950.00,0.0035
3949.00,0.0035
3948.00,0.0035
3947.00,0.0035
3946.00,0.0035
3945.00,0.0034
3944.00,0.0034
3943.00,0.0034
3942.00,0.0035
3941.00,0.0035
3940.00,0.0035
3939.00,0.0035
3938.00,0.0036
3937.00,0.0036
3936.00,0.0036
3935.00,0.0036
3934.00,0.0036
3933.00,0.0036
3932.00,0.0036
3931.00,0.0036
3930.00,0.0035
3929.00,0.0035
3928.00,0.0035
3927.00,0.0035
3926.00,0.0035
3925.00,0.0035
3924.00,0.0036
3923.00,0.0036
3922.00,0.0036
3921.00,0.0036
3920.00,0.0036
3919.00,0.0036
3918.00,0.0035
3917.00,0.0035
3916.00,0.0035
3915.00,0.0035
3914.00,0.0035
3913.00,0.0035
3912.00,0.0036
3911.00,0.0036
3910.00,0.0036
3909.00,0.0036
3908.00,0.0036
3907.00,0.0036
3906.00,0.0035
3905.00,0.0035
3904.00,0.0036
3903.00,0.0035
3902.00,0.0035
3901.00,0.0035
3900.00,0.0035
3899.00,0.0035
3898.00,0.0035
3897.00,0.0035
3896.00,0.0035
3895.00,0.0035
3894.00,0.0035
3893.00,0.0035
3892.00,0.0035
3891.00,0.0036
3890.00,0.0036
3889.00,0.0036
3888.00,0.0036
3887.00,0.0035
3886.00,0.0035
3885.00,0.0035
3884.00,0.0035
3883.00,0.0035
3882.00,0.0035
3881.00,0.0035
3880.00,0.0035
3879.00,0.0035
3878.00,0.0035
3877.00,0.0034
3876.00,0.0034
3875.00,0.0035
3874.00,0.0035
3873.00,0.0035
3872.00,0.0035
3871.00,0.0035
3870.00,0.0035
3869.00,0.0035
3868.00,0.0035
3867.00,0.0035
3866.00,0.0035
3865.00,0.0034
3864.00,0.0034
3863.00,0.0034
3862.00,0.0034
3861.00,0.0034
3860.00,0.0034
3859.00,0.0035
3858.00,0.0035
3857.00,0.0035
3856.00,0.0036
3855.00,0.0035
3854.00,0.0035
3853.00,0.0035
3852.00,0.0035
3851.00,0.0035
3850.00,0.0035
3849.00,0.0035
3848.00,0.0035
3847.00,0.0035
3846.00,0.0035
3845.00,0.0036
3844.00,0.0036
3843.00,0.0036
3842.00,0.0036
3841.00,0.0036
3840.00,0.0035
3839.00,0.0035
3838.00,0.0035
3837.00,0.0036
3836.00,0.0036
3835.00,0.0036
3834.00,0.0036
3833.00,0.0036
3832.00,0.0036
3831.00,0.0036
3830.00,0.0036
3829.00,0.0036
3828.00,0.0036
3827.00,0.0036
3826.00,0.0036
3825.00,0.0036
3824.00,0.0036
3823.00,0.0036
3822.00,0.0036
3821.00,0.0036
3820.00,0.0036
3819.00,0.0036
3818.00,0.0035
3817.00,0.0035
3816.00,0.0035
3815.00,0.0035
3814.00,0.0035
3813.00,0.0035
3812.00,0.0035
3811.00,0.0035
3810.00,0.0035
3809.00,0.0035
3808.00,0.0035
3807.00,0.0035
3806.00,0.0035
3805.00,0.0035
3804.00,0.0034
3803.00,0.0034
3802.00,0.0035
3801.00,0.0035
3800.00,0.0035
3799.00,0.0035
3798.00,0.0035
3797.00,0.0035
3796.00,0.0035
3795.00,0.0035
3794.00,0.0035
3793.00,0.0035
3792.00,0.0035
3791.00,0.0036
3790.00,0.0036
3789.00,0.0036
3788.00,0.0036
3787.00,0.0036
3786.00,0.0036
3785.00,0.0036
3784.00,0.0036
3783.00,0.0036
3782.00,0.0036
3781.00,0.0036
3780.00,0.0036
3779.00,0.0036
3778.00,0.0036
3777.00,0.0036
3776.00,0.0036
3775.00,0.0036
3774.00,0.0036
3773.00,0.0036
3772.00,0.0036
3771.00,0.0036
3770.00,0.0036
3769.00,0.0036
3768.00,0.0036
3767.00,0.0036
3766.00,0.0036
3765.00,0.0036
3764.00,0.0036
3763.00,0.0036
3762.00,0.0036
3761.00,0.0036
3760.00,0.0036
3759.00,0.0036
3758.00,0.0036
3757.00,0.0036
3756.00,0.0036
3755.00,0.0036
3754.00,0.0036
3753.00,0.0036
3752.00,0.0036
3751.00,0.0036
3750.00,0.0036
3749.00,0.0035
3748.00,0.0035
3747.00,0.0035
3746.00,0.0035
3745.00,0.0035
3744.00,0.0035
3743.00,0.0035
3742.00,0.0035
3741.00,0.0034
3740.00,0.0035
3739.00,0.0035
3738.00,0.0034
3737.00,0.0034
3736.00,0.0034
3735.00,0.0034
3734.00,0.0034
3733.00,0.0034
3732.00,0.0034
3731.00,0.0033
3730.00,0.0033
3729.00,0.0033
3728.00,0.0033
3727.00,0.0033
3726.00,0.0033
3725.00,0.0033
3724.00,0.0033
3723.00,0.0033
3722.00,0.0034
3721.00,0.0034
3720.00,0.0034
3719.00,0.0034
3718.00,0.0034
3717.00,0.0034
3716.00,0.0034
3715.00,0.0035
3714.00,0.0035
3713.00,0.0034
3712.00,0.0034
3711.00,0.0034
3710.00,0.0034
3709.00,0.0034
3708.00,0.0034
3707.00,0.0034
3706.00,0.0034
3705.00,0.0034
3704.00,0.0034
3703.00,0.0034
3702.00,0.0034
3701.00,0.0034
3700.00,0.0034
3699.00,0.0034
3698.00,0.0034
3697.00,0.0034
3696.00,0.0034
3695.00,0.0034
3694.00,0.0034
3693.00,0.0034
3692.00,0.0034
3691.00,0.0034
3690.00,0.0034
3689.00,0.0034
3688.00,0.0034
3687.00,0.0035
3686.00,0.0035
3685.00,0.0035
3684.00,0.0035
3683.00,0.0036
3682.00,0.0036
3681.00,0.0036
3680.00,0.0037
3679.00,0.0037
3678.00,0.0037
3677.00,0.0037
3676.00,0.0037
3675.00,0.0037
3674.00,0.0037
3673.00,0.0037
3672.00,0.0036
3671.00,0.0036
3670.00,0.0036
3669.00,0.0036
3668.00,0.0037
3667.00,0.0037
3666.00,0.0037
3665.00,0.0037
3664.00,0.0037
3663.00,0.0037
3662.00,0.0038
3661.00,0.0038
3660.00,0.0038
3659.00,0.0038
3658.00,0.0038
3657.00,0.0038
3656.00,0.0038
3655.00,0.0039
3654.00,0.0038
3653.00,0.0038
3652.00,0.0038
3651.00,0.0038
3650.00,0.0038
3649.00,0.0038
3648.00,0.0039
3647.00,0.0039
3646.00,0.0039
3645.00,0.0039
3644.00,0.0039
3643.00,0.0039
3642.00,0.0040
3641.00,0.0040
3640.00,0.0040
3639.00,0.0040
3638.00,0.0040
3637.00,0.0040
3636.00,0.0040
3635.00,0.0040
3634.00,0.0040
3633.00,0.0040
3632.00,0.0041
3631.00,0.0041
3630.00,0.0041
3629.00,0.0041
3628.00,0.0042
3627.00,0.0042
3626.00,0.0041
3625.00,0.0041
3624.00,0.0041
3623.00,0.0041
3622.00,0.0041
3621.00,0.0042
3620.00,0.0042
3619.00,0.0043
3618.00,0.0043
3617.00,0.0043
3616.00,0.0043
3615.00,0.0043
3614.00,0.0043
3613.00,0.0044
3612.00,0.0044
3611.00,0.0044
3610.00,0.0044
3609.00,0.0045
3608.00,0.0045
3607.00,0.0046
3606.00,0.0046
3605.00,0.0046
3604.00,0.0046
3603.00,0.0046
3602.00,0.0046
3601.00,0.0047
3600.00,0.0047
3599.00,0.0047
3598.00,0.0047
3597.00,0.0047
3596.00,0.0047
3595.00,0.0047
3594.00,0.0048
3593.00,0.0048
3592.00,0.0049
3591.00,0.0049
3590.00,0.0049
3589.00,0.0049
3588.00,0.0049
3587.00,0.0050
3586.00,0.0050
3585.00,0.0050
3584.00,0.0051
3583.00,0.0051
3582.00,0.0051
3581.00,0.0052
3580.00,0.0052
3579.00,0.0052
3578.00,0.0052
3577.00,0.0053
3576.00,0.0054
3575.00,0.0054
3574.00,0.0054
3573.00,0.0055
3572.00,0.0055
3571.00,0.0055
3570.00,0.0055
3569.00,0.0055
3568.00,0.0055
3567.00,0.0056
3566.00,0.0056
3565.00,0.0057
3564.00,0.0057
3563.00,0.0057
3562.00,0.0058
3561.00,0.0058
3560.00,0.0058
3559.00,0.0059
3558.00,0.0059
3557.00,0.0059
3556.00,0.0059
3555.00,0.0059
3554.00,0.0060
3553.00,0.0060
3552.00,0.0061
3551.00,0.0061
3550.00,0.0061
3549.00,0.0062
3548.00,0.0062
3547.00,0.0062
3546.00,0.0062
3545.00,0.0063
3544.00,0.0064
3543.00,0.0064
3542.00,0.0064
3541.00,0.0064
3540.00,0.0065
3539.00,0.0065
3538.00,0.0065
3537.00,0.0065
3536.00,0.0066
3535.00,0.0066
3534.00,0.0066
3533.00,0.0066
3532.00,0.0067
3531.00,0.0067
3530.00,0.0067
3529.00,0.0068
3528.00,0.0068
3527.00,0.0069
3526.00,0.0069
3525.00,0.0070
3524.00,0.0070
3523.00,0.0070
3522.00,0.0070
3521.00,0.0070
3520.00,0.0071
3519.00,0.0071
3518.00,0.0071
3517.00,0.0071
3516.00,0.0071
3515.00,0.0072
3514.00,0.0072
3513.00,0.0072
3512.00,0.0072
3511.00,0.0073
3510.00,0.0074
3509.00,0.0074
3508.00,0.0075
3507.00,0.0075
3506.00,0.0075
3505.00,0.0075
3504.00,0.0076
3503.00,0.0076
3502.00,0.0077
3501.00,0.0077
3500.00,0.0077
3499.00,0.0078
3498.00,0.0078
3497.00,0.0078
3496.00,0.0078
3495.00,0.0079
3494.00,0.0079
3493.00,0.0080
3492.00,0.0080
3491.00,0.0080
3490.00,0.0080
3489.00,0.0081
3488.00,0.0081
3487.00,0.0082
3486.00,0.0082
3485.00,0.0082
3484.00,0.0083
3483.00,0.0083
3482.00,0.0083
3481.00,0.0084
3480.00,0.0084
3479.00,0.0085
3478.00,0.0085
3477.00,0.0085
3476.00,0.0086
3475.00,0.0086
3474.00,0.0086
3473.00,0.0087
3472.00,0.0087
3471.00,0.0088
3470.00,0.0088
3469.00,0.0089
3468.00,0.0089
3467.00,0.0090
3466.00,0.0090
3465.00,0.0090
3464.00,0.0090
3463.00,0.0090
3462.00,0.0091
3461.00,0.0091
3460.00,0.0091
3459.00,0.0091
3458.00,0.0091
3457.00,0.0092
3456.00,0.0092
3455.00,0.0092
3454.00,0.0092
3453.00,0.0093
3452.00,0.0093
3451.00,0.0094
3450.00,0.0094
3449.00,0.0094
3448.00,0.0094
3447.00,0.0094
3446.00,0.0095
3445.00,0.0095
3444.00,0.0095
3443.00,0.0096
3442.00,0.0097
3441.00,0.0097
3440.00,0.0097
3439.00,0.0098
3438.00,0.0098
3437.00,0.0099
3436.00,0.0099
3435.00,0.0099
3434.00,0.0100
3433.00,0.0100
3432.00,0.0100
3431.00,0.0100
3430.00,0.0100
3429.00,0.0100
3428.00,0.0100
3427.00,0.0100
3426.00,0.0101
3425.00,0.0101
3424.00,0.0101
3423.00,0.0102
3422.00,0.0102
3421.00,0.0103
3420.00,0.0103
3419.00,0.0103
3418.00,0.0103
3417.00,0.0104
3416.00,0.0104
3415.00,0.0104
3414.00,0.0105
3413.00,0.0105
3412.00,0.0106
3411.00,0.0106
3410.00,0.0106
3409.00,0.0106
3408.00,0.0107
3407.00,0.0108
3406.00,0.0108
3405.00,0.0108
3404.00,0.0108
3403.00,0.0108
3402.00,0.0109
3401.00,0.0109
3400.00,0.0109
3399.00,0.0110
3398.00,0.0110
3397.00,0.0111
3396.00,0.0111
3395.00,0.0112
3394.00,0.0112
3393.00,0.0113
3392.00,0.0113
3391.00,0.0113
3390.00,0.0114
3389.00,0.0114
3388.00,0.0115
3387.00,0.0116
3386.00,0.0116
3385.00,0.0116
3384.00,0.0117
3383.00,0.0117
3382.00,0.0117
3381.00,0.0118
3380.00,0.0118
3379.00,0.0119
3378.00,0.0119
3377.00,0.0120
3376.00,0.0121
3375.00,0.0122
3374.00,0.0122
3373.00,0.0122
3372.00,0.0122
3371.00,0.0122
3370.00,0.0122
3369.00,0.0122
3368.00,0.0123
3367.00,0.0123
3366.00,0.0124
3365.00,0.0125
3364.00,0.0126
3363.00,0.0127
3362.00,0.0127
3361.00,0.0128
3360.00,0.0128
3359.00,0.0129
3358.00,0.0130
3357.00,0.0130
3356.00,0.0131
3355.00,0.0131
3354.00,0.0132
3353.00,0.0132
3352.00,0.0132
3351.00,0.0132
3350.00,0.0133
3349.00,0.0134
3348.00,0.0135
3347.00,0.0135
3346.00,0.0135
3345.00,0.0136
3344.00,0.0136
3343.00,0.0136
3342.00,0.0136
3341.00,0.0137
3340.00,0.0137
3339.00,0.0138
3338.00,0.0139
3337.00,0.0140
3336.00,0.0140
3335.00,0.0141
3334.00,0.0142
3333.00,0.0143
3332.00,0.0143
3331.00,0.0144
3330.00,0.0144
3329.00,0.0145
3328.00,0.0145
3327.00,0.0145
3326.00,0.0145
3325.00,0.0146
3324.00,0.0147
3323.00,0.0147
3322.00,0.0148
3321.00,0.0148
3320.00,0.0149
3319.00,0.0149
3318.00,0.0150
3317.00,0.0151
3316.00,0.0152
3315.00,0.0152
3314.00,0.0153
3313.00,0.0153
3312.00,0.0153
3311.00,0.0153
3310.00,0.0153
3309.00,0.0153
3308.00,0.0152
3307.00,0.0152
3306.00,0.0153
3305.00,0.0154
3304.00,0.0155
3303.00,0.0157
3302.00,0.0158
3301.00,0.0158
3300.00,0.0158
3299.00,0.0159
3298.00,0.0159
3297.00,0.0159
3296.00,0.0159
3295.00,0.0160
3294.00,0.0160
3293.00,0.0160
3292.00,0.0161
3291.00,0.0162
3290.00,0.0163
3289.00,0.0163
3288.00,0.0164
3287.00,0.0164
3286.00,0.0164
3285.00,0.0164
3284.00,0.0164
3283.00,0.0165
3282.00,0.0165
3281.00,0.0166
3280.00,0.0166
3279.00,0.0167
3278.00,0.0167
3277.00,0.0167
3276.00,0.0167
3275.00,0.0167
3274.00,0.0167
3273.00,0.0167
3272.00,0.0168
3271.00,0.0168
3270.00,0.0169
3269.00,0.0170
3268.00,0.0170
3267.00,0.0171
3266.00,0.0171
3265.00,0.0171
3264.00,0.0171
3263.00,0.0171
3262.00,0.0172
3261.00,0.0172
3260.00,0.0172
3259.00,0.0172
3258.00,0.0173
3257.00,0.0173
3256.00,0.0173
3255.00,0.0174
3254.00,0.0175
3253.00,0.0175
3252.00,0.0175
3251.00,0.0175
3250.00,0.0175
3249.00,0.0176
3248.00,0.0176
3247.00,0.0176
3246.00,0.0176
3245.00,0.0177
3244.00,0.0177
3243.00,0.0177
3242.00,0.0177
3241.00,0.0177
3240.00,0.0177
3239.00,0.0178
3238.00,0.0178
3237.00,0.0178
3236.00,0.0178
3235.00,0.0178
3234.00,0.0178
3233.00,0.0178
3232.00,0.0178
3231.00,0.0179
3230.00,0.0179
3229.00,0.0180
3228.00,0.0180
3227.00,0.0180
3226.00,0.0180
3225.00,0.0180
3224.00,0.0180
3223.00,0.0180
3222.00,0.0180
3221.00,0.0180
3220.00,0.0180
3219.00,0.0181
3218.00,0.0181
3217.00,0.0181
3216.00,0.0180
3215.00,0.0180
3214.00,0.0180
3213.00,0.0180
3212.00,0.0180
3211.00,0.0180
3210.00,0.0180
3209.00,0.0180
3208.00,0.0181
3207.00,0.0181
3206.00,0.0181
3205.00,0.0181
3204.00,0.0181
3203.00,0.0181
3202.00,0.0181
3201.00,0.0181
3200.00,0.0181
3199.00,0.0181
3198.00,0.0182
3197.00,0.0182
3196.00,0.0182
3195.00,0.0182
3194.00,0.0182
3193.00,0.0182
3192.00,0.0182
3191.00,0.0182
3190.00,0.0182
3189.00,0.0182
3188.00,0.0182
3187.00,0.0182
3186.00,0.0182
3185.00,0.0182
3184.00,0.0182
3183.00,0.0182
3182.00,0.0182
3181.00,0.0182
3180.00,0.0182
3179.00,0.0182
3178.00,0.0182
3177.00,0.0182
3176.00,0.0182
3175.00,0.0182
3174.00,0.0182
3173.00,0.0182
3172.00,0.0182
3171.00,0.0181
3170.00,0.0181
3169.00,0.0181
3168.00,0.0181
3167.00,0.0180
3166.00,0.0180
3165.00,0.0180
3164.00,0.0179
3163.00,0.0179
3162.00,0.0179
3161.00,0.0179
3160.00,0.0178
3159.00,0.0178
3158.00,0.0177
3157.00,0.0177
3156.00,0.0177
3155.00,0.0177
3154.00,0.0177
3153.00,0.0177
3152.00,0.0176
3151.00,0.0176
3150.00,0.0176
3149.00,0.0175
3148.00,0.0175
3147.00,0.0175
3146.00,0.0175
3145.00,0.0175
3144.00,0.0174
3143.00,0.0174
3142.00,0.0173
3141.00,0.0173
3140.00,0.0172
3139.00,0.0172
3138.00,0.0172
3137.00,0.0171
3136.00,0.0171
3135.00,0.0171
3134.00,0.0171
3133.00,0.0170
3132.00,0.0170
3131.00,0.0170
3130.00,0.0170
3129.00,0.0170
3128.00,0.0170
3127.00,0.0170
3126.00,0.0170
3125.00,0.0170
3124.00,0.0170
3123.00,0.0169
3122.00,0.0169
3121.00,0.0169
3120.00,0.0168
3119.00,0.0168
3118.00,0.0167
3117.00,0.0167
3116.00,0.0167
3115.00,0.0166
3114.00,0.0166
3113.00,0.0165
3112.00,0.0165
3111.00,0.0164
3110.00,0.0164
3109.00,0.0163
3108.00,0.0162
3107.00,0.0162
3106.00,0.0161
3105.00,0.0160
3104.00,0.0160
3103.00,0.0160
3102.00,0.0159
3101.00,0.0159
3100.00,0.0158
3099.00,0.0158
3098.00,0.0158
3097.00,0.0158
3096.00,0.0158
3095.00,0.0157
3094.00,0.0157
3093.00,0.0157
3092.00,0.0156
3091.00,0.0156
3090.00,0.0156
3089.00,0.0157
3088.00,0.0157
3087.00,0.0157
3086.00,0.0158
3085.00,0.0158
3084.00,0.0159
3083.00,0.0159
3082.00,0.0159
3081.00,0.0159
3080.00,0.0159
3079.00,0.0159
3078.00,0.0159
3077.00,0.0159
3076.00,0.0158
3075.00,0.0158
3074.00,0.0157
3073.00,0.0157
3072.00,0.0156
3071.00,0.0156
3070.00,0.0155
3069.00,0.0154
3068.00,0.0153
3067.00,0.0153
3066.00,0.0152
3065.00,0.0152
3064.00,0.0151
3063.00,0.0151
3062.00,0.0150
3061.00,0.0150
3060.00,0.0149
3059.00,0.0148
3058.00,0.0148
3057.00,0.0147
3056.00,0.0147
3055.00,0.0147
3054.00,0.0147
3053.00,0.0147
3052.00,0.0146
3051.00,0.0146
3050.00,0.0146
3049.00,0.0145
3048.00,0.0145
3047.00,0.0145
3046.00,0.0145
3045.00,0.0144
3044.00,0.0144
3043.00,0.0143
3042.00,0.0143
3041.00,0.0142
3040.00,0.0142
3039.00,0.0142
3038.00,0.0141
3037.00,0.0141
3036.00,0.0141
3035.00,0.0140
3034.00,0.0140
3033.00,0.0140
3032.00,0.0139
3031.00,0.0139
3030.00,0.0138
3029.00,0.0138
3028.00,0.0137
3027.00,0.0137
3026.00,0.0136
3025.00,0.0135
3024.00,0.0135
3023.00,0.0134
3022.00,0.0133
3021.00,0.0133
3020.00,0.0133
3019.00,0.0132
3018.00,0.0132
3017.00,0.0132
3016.00,0.0132
3015.00,0.0133
3014.00,0.0133
3013.00,0.0133
3012.00,0.0134
3011.00,0.0135
3010.00,0.0136
3009.00,0.0137
3008.00,0.0138
3007.00,0.0140
3006.00,0.0141
3005.00,0.0143
3004.00,0.0145
3003.00,0.0148
3002.00,0.0151
3001.00,0.0154
3000.00,0.0158
2999.00,0.0162
2998.00,0.0166
2997.00,0.0171
2996.00,0.0176
2995.00,0.0182
2994.00,0.0188
2993.00,0.0194
2992.00,0.0200
2991.00,0.0207
2990.00,0.0214
2989.00,0.0221
2988.00,0.0228
2987.00,0.0235
2986.00,0.0241
2985.00,0.0247
2984.00,0.0253
2983.00,0.0258
2982.00,0.0263
2981.00,0.0268
2980.00,0.0272
2979.00,0.0276
2978.00,0.0280
2977.00,0.0283
2976.00,0.0286
2975.00,0.0289
2974.00,0.0291
2973.00,0.0294
2972.00,0.0297
2971.00,0.0300
2970.00,0.0303
2969.00,0.0307
2968.00,0.0311
2967.00,0.0315
2966.00,0.0319
2965.00,0.0324
2964.00,0.0328
2963.00,0.0333
2962.00,0.0338
2961.00,0.0342
2960.00,0.0346
2959.00,0.0350
2958.00,0.0353
2957.00,0.0356
2956.00,0.0358
2955.00,0.0360
2954.00,0.0360
2953.00,0.0360
2952.00,0.0360
2951.00,0.0358
2950.00,0.0357
2949.00,0.0355
2948.00,0.0353
2947.00,0.0352
2946.00,0.0352
2945.00,0.0352
2944.00,0.0354
2943.00,0.0357
2942.00,0.0361
2941.00,0.0365
2940.00,0.0371
2939.00,0.0377
2938.00,0.0383
2937.00,0.0389
2936.00,0.0396
2935.00,0.0403
2934.00,0.0409
2933.00,0.0416
2932.00,0.0422
2931.00,0.0427
2930.00,0.0432
2929.00,0.0435
2928.00,0.0438
2927.00,0.0439
2926.00,0.0439
2925.00,0.0438
2924.00,0.0437
2923.00,0.0434
2922.00,0.0430
2921.00,0.0425
2920.00,0.0420
2919.00,0.0414
2918.00,0.0407
2917.00,0.0400
2916.00,0.0393
2915.00,0.0385
2914.00,0.0377
2913.00,0.0369
2912.00,0.0362
2911.00,0.0354
2910.00,0.0347
2909.00,0.0340
2908.00,0.0333
2907.00,0.0327
2906.00,0.0321
2905.00,0.0316
2904.00,0.0311
2903.00,0.0306
2902.00,0.0302
2901.00,0.0299
2900.00,0.0296
2899.00,0.0293
2898.00,0.0291
2897.00,0.0289
2896.00,0.0287
2895.00,0.0285
2894.00,0.0283
2893.00,0.0281
2892.00,0.0280
2891.00,0.0278
2890.00,0.0276
2889.00,0.0275
2888.00,0.0274
2887.00,0.0272
2886.00,0.0271
2885.00,0.0271
2884.00,0.0270
2883.00,0.0270
2882.00,0.0271
2881.00,0.0272
2880.00,0.0273
2879.00,0.0275
2878.00,0.0278
2877.00,0.0281
2876.00,0.0284
2875.00,0.0287
2874.00,0.0291
2873.00,0.0295
2872.00,0.0298
2871.00,0.0300
2870.00,0.0301
2869.00,0.0302
2868.00,0.0302
2867.00,0.0302
2866.00,0.0302
2865.00,0.0303
2864.00,0.0304
2863.00,0.0306
2862.00,0.0309
2861.00,0.0312
2860.00,0.0314
2859.00,0.0317
2858.00,0.0318
2857.00,0.0317
2856.00,0.0315
2855.00,0.0311
2854.00,0.0306
2853.00,0.0300
2852.00,0.0293
2851.00,0.0285
2850.00,0.0277
2849.00,0.0268
2848.00,0.0259
2847.00,0.0251
2846.00,0.0243
2845.00,0.0234
2844.00,0.0226
2843.00,0.0218
2842.00,0.0210
2841.00,0.0203
2840.00,0.0196
2839.00,0.0191
2838.00,0.0186
2837.00,0.0181
2836.00,0.0178
2835.00,0.0174
2834.00,0.0171
2833.00,0.0168
2832.00,0.0164
2831.00,0.0162
2830.00,0.0159
2829.00,0.0156
2828.00,0.0154
2827.00,0.0152
2826.00,0.0150
2825.00,0.0147
2824.00,0.0145
2823.00,0.0142
2822.00,0.0140
2821.00,0.0138
2820.00,0.0137
2819.00,0.0135
2818.00,0.0133
2817.00,0.0132
2816.00,0.0130
2815.00,0.0129
2814.00,0.0127
2813.00,0.0126
2812.00,0.0125
2811.00,0.0123
2810.00,0.0122
2809.00,0.0121
2808.00,0.0120
2807.00,0.0119
2806.00,0.0118
2805.00,0.0118
2804.00,0.0117
2803.00,0.0116
2802.00,0.0115
2801.00,0.0114
2800.00,0.0113
2799.00,0.0112
2798.00,0.0112
2797.00,0.0111
2796.00,0.0110
2795.00,0.0110
2794.00,0.0109
2793.00,0.0109
2792.00,0.0108
2791.00,0.0107
2790.00,0.0107
2789.00,0.0107
2788.00,0.0106
2787.00,0.0106
2786.00,0.0106
2785.00,0.0105
2784.00,0.0105
2783.00,0.0104
2782.00,0.0104
2781.00,0.0104
2780.00,0.0103
2779.00,0.0103
2778.00,0.0102
2777.00,0.0101
2776.00,0.0101
2775.00,0.0101
2774.00,0.0101
2773.00,0.0100
2772.00,0.0100
2771.00,0.0100
2770.00,0.0099
2769.00,0.0099
2768.00,0.0098
2767.00,0.0098
2766.00,0.0098
2765.00,0.0098
2764.00,0.0097
2763.00,0.0097
2762.00,0.0097
2761.00,0.0097
2760.00,0.0097
2759.00,0.0097
2758.00,0.0097
2757.00,0.0097
2756.00,0.0097
2755.00,0.0097
2754.00,0.0097
2753.00,0.0097
2752.00,0.0098
2751.00,0.0098
2750.00,0.0098
2749.00,0.0098
2748.00,0.0099
2747.00,0.0099
2746.00,0.0099
2745.00,0.0099
2744.00,0.0099
2743.00,0.0100
2742.00,0.0100
2741.00,0.0100
2740.00,0.0100
2739.00,0.0100
2738.00,0.0100
2737.00,0.0101
2736.00,0.0101
2735.00,0.0101
2734.00,0.0101
2733.00,0.0101
2732.00,0.0101
2731.00,0.0101
2730.00,0.0100
2729.00,0.0100
2728.00,0.0100
2727.00,0.0099
2726.00,0.0099
2725.00,0.0098
2724.00,0.0098
2723.00,0.0097
2722.00,0.0096
2721.00,0.0096
2720.00,0.0096
2719.00,0.0095
2718.00,0.0095
2717.00,0.0095
2716.00,0.0095
2715.00,0.0094
2714.00,0.0094
2713.00,0.0093
2712.00,0.0093
2711.00,0.0092
2710.00,0.0091
2709.00,0.0091
2708.00,0.0090
2707.00,0.0089
2706.00,0.0089
2705.00,0.0088
2704.00,0.0087
2703.00,0.0087
2702.00,0.0086
2701.00,0.0086
2700.00,0.0085
2699.00,0.0085
2698.00,0.0085
2697.00,0.0084
2696.00,0.0084
2695.00,0.0084
2694.00,0.0084
2693.00,0.0084
2692.00,0.0083
2691.00,0.0083
2690.00,0.0083
2689.00,0.0082
2688.00,0.0082
2687.00,0.0082
2686.00,0.0082
2685.00,0.0082
2684.00,0.0082
2683.00,0.0082
2682.00,0.0082
2681.00,0.0082
2680.00,0.0082
2679.00,0.0082
2678.00,0.0082
2677.00,0.0082
2676.00,0.0082
2675.00,0.0082
2674.00,0.0081
2673.00,0.0081
2672.00,0.0081
2671.00,0.0081
2670.00,0.0080
2669.00,0.0080
2668.00,0.0080
2667.00,0.0081
2666.00,0.0081
2665.00,0.0081
2664.00,0.0082
2663.00,0.0082
2662.00,0.0082
2661.00,0.0083
2660.00,0.0083
2659.00,0.0083
2658.00,0.0083
2657.00,0.0083
2656.00,0.0083
2655.00,0.0083
2654.00,0.0082
2653.00,0.0082
2652.00,0.0082
2651.00,0.0081
2650.00,0.0081
2649.00,0.0081
2648.00,0.0082
2647.00,0.0082
2646.00,0.0082
2645.00,0.0082
2644.00,0.0082
2643.00,0.0082
2642.00,0.0082
2641.00,0.0081
2640.00,0.0081
2639.00,0.0081
2638.00,0.0080
2637.00,0.0080
2636.00,0.0080
2635.00,0.0080
2634.00,0.0080
2633.00,0.0080
2632.00,0.0080
2631.00,0.0080
2630.00,0.0080
2629.00,0.0080
2628.00,0.0080
2627.00,0.0080
2626.00,0.0080
2625.00,0.0080
2624.00,0.0080
2623.00,0.0080
2622.00,0.0079
2621.00,0.0079
2620.00,0.0079
2619.00,0.0079
2618.00,0.0079
2617.00,0.0079
2616.00,0.0079
2615.00,0.0079
2614.00,0.0079
2613.00,0.0079
2612.00,0.0079
2611.00,0.0079
2610.00,0.0079
2609.00,0.0078
2608.00,0.0078
2607.00,0.0078
2606.00,0.0078
2605.00,0.0078
2604.00,0.0078
2603.00,0.0078
2602.00,0.0077
2601.00,0.0077
2600.00,0.0077
2599.00,0.0077
2598.00,0.0076
2597.00,0.0076
2596.00,0.0076
2595.00,0.0075
2594.00,0.0075
2593.00,0.0074
2592.00,0.0073
2591.00,0.0073
2590.00,0.0072
2589.00,0.0072
2588.00,0.0071
2587.00,0.0071
2586.00,0.0071
2585.00,0.0071
2584.00,0.0071
2583.00,0.0071
2582.00,0.0071
2581.00,0.0071
2580.00,0.0071
2579.00,0.0071
2578.00,0.0071
2577.00,0.0071
2576.00,0.0071
2575.00,0.0072
2574.00,0.0072
2573.00,0.0072
2572.00,0.0072
2571.00,0.0071
2570.00,0.0071
2569.00,0.0071
2568.00,0.0071
2567.00,0.0071
2566.00,0.0071
2565.00,0.0071
2564.00,0.0070
2563.00,0.0070
2562.00,0.0070
2561.00,0.0070
2560.00,0.0070
2559.00,0.0069
2558.00,0.0069
2557.00,0.0069
2556.00,0.0068
2555.00,0.0068
2554.00,0.0067
2553.00,0.0067
2552.00,0.0067
2551.00,0.0067
2550.00,0.0066
2549.00,0.0066
2548.00,0.0066
2547.00,0.0065
2546.00,0.0065
2545.00,0.0065
2544.00,0.0064
2543.00,0.0064
2542.00,0.0064
2541.00,0.0064
2540.00,0.0064
2539.00,0.0064
2538.00,0.0064
2537.00,0.0064
2536.00,0.0064
2535.00,0.0063
2534.00,0.0063
2533.00,0.0062
2532.00,0.0062
2531.00,0.0062
2530.00,0.0062
2529.00,0.0062
2528.00,0.0063
2527.00,0.0063
2526.00,0.0062
2525.00,0.0062
2524.00,0.0062
2523.00,0.0062
2522.00,0.0061
2521.00,0.0061
2520.00,0.0061
2519.00,0.0061
2518.00,0.0061
2517.00,0.0061
2516.00,0.0061
2515.00,0.0060
2514.00,0.0060
2513.00,0.0060
2512.00,0.0059
2511.00,0.0059
2510.00,0.0058
2509.00,0.0059
2508.00,0.0059
2507.00,0.0059
2506.00,0.0059
2505.00,0.0059
2504.00,0.0059
2503.00,0.0059
2502.00,0.0059
2501.00,0.0059
2500.00,0.0059
2499.00,0.0059
2498.00,0.0059
2497.00,0.0059
2496.00,0.0059
2495.00,0.0058
2494.00,0.0058
2493.00,0.0058
2492.00,0.0059
2491.00,0.0059
2490.00,0.0059
2489.00,0.0058
2488.00,0.0058
2487.00,0.0059
2486.00,0.0059
2485.00,0.0059
2484.00,0.0059
2483.00,0.0059
2482.00,0.0059
2481.00,0.0059
2480.00,0.0058
2479.00,0.0058
2478.00,0.0058
2477.00,0.0058
2476.00,0.0058
2475.00,0.0058
2474.00,0.0058
2473.00,0.0057
2472.00,0.0057
2471.00,0.0057
2470.00,0.0057
2469.00,0.0057
2468.00,0.0057
2467.00,0.0057
2466.00,0.0058
2465.00,0.0058
2464.00,0.0059
2463.00,0.0059
2462.00,0.0059
2461.00,0.0059
2460.00,0.0059
2459.00,0.0059
2458.00,0.0059
2457.00,0.0059
2456.00,0.0059
2455.00,0.0059
2454.00,0.0059
2453.00,0.0060
2452.00,0.0060
2451.00,0.0060
2450.00,0.0060
2449.00,0.0059
2448.00,0.0059
2447.00,0.0058
2446.00,0.0057
2445.00,0.0057
2444.00,0.0057
2443.00,0.0057
2442.00,0.0057
2441.00,0.0057
2440.00,0.0057
2439.00,0.0057
2438.00,0.0057
2437.00,0.0057
2436.00,0.0057
2435.00,0.0056
2434.00,0.0056
2433.00,0.0056
2432.00,0.0056
2431.00,0.0056
2430.00,0.0056
2429.00,0.0056
2428.00,0.0056
2427.00,0.0056
2426.00,0.0055
2425.00,0.0055
2424.00,0.0055
2423.00,0.0055
2422.00,0.0055
2421.00,0.0055
2420.00,0.0055
2419.00,0.0055
2418.00,0.0055
2417.00,0.0055
2416.00,0.0055
2415.00,0.0054
2414.00,0.0054
2413.00,0.0054
2412.00,0.0055
2411.00,0.0055
2410.00,0.0055
2409.00,0.0054
2408.00,0.0054
2407.00,0.0054
2406.00,0.0054
2405.00,0.0053
2404.00,0.0053
2403.00,0.0053
2402.00,0.0052
2401.00,0.0052
2400.00,0.0053
2399.00,0.0053
2398.00,0.0052
2397.00,0.0052
2396.00,0.0052
2395.00,0.0052
2394.00,0.0052
2393.00,0.0052
2392.00,0.0052
2391.00,0.0052
2390.00,0.0051
2389.00,0.0051
2388.00,0.0051
2387.00,0.0051
2386.00,0.0050
2385.00,0.0050
2384.00,0.0049
2383.00,0.0048
2382.00,0.0046
2381.00,0.0046
2380.00,0.0045
2379.00,0.0045
2378.00,0.0045
2377.00,0.0045
2376.00,0.0046
2375.00,0.0046
2374.00,0.0046
2373.00,0.0046
2372.00,0.0046
2371.00,0.0045
2370.00,0.0045
2369.00,0.0045
2368.00,0.0045
2367.00,0.0044
2366.00,0.0044
2365.00,0.0043
2364.00,0.0043
2363.00,0.0043
2362.00,0.0043
2361.00,0.0044
2360.00,0.0045
2359.00,0.0045
2358.00,0.0045
2357.00,0.0045
2356.00,0.0045
2355.00,0.0045
2354.00,0.0045
2353.00,0.0045
2352.00,0.0045
2351.00,0.0045
2350.00,0.0045
2349.00,0.0046
2348.00,0.0046
2347.00,0.0047
2346.00,0.0047
2345.00,0.0047
2344.00,0.0047
2343.00,0.0047
2342.00,0.0047
2341.00,0.0048
2340.00,0.0049
2339.00,0.0049
2338.00,0.0049
2337.00,0.0050
2336.00,0.0050
2335.00,0.0050
2334.00,0.0050
2333.00,0.0050
2332.00,0.0049
2331.00,0.0049
2330.00,0.0050
2329.00,0.0052
2328.00,0.0055
2327.00,0.0059
2326.00,0.0062
2325.00,0.0063
2324.00,0.0062
2323.00,0.0060
2322.00,0.0058
2321.00,0.0057
2320.00,0.0056
2319.00,0.0055
2318.00,0.0054
2317.00,0.0054
2316.00,0.0054
2315.00,0.0054
2314.00,0.0053
2313.00,0.0053
2312.00,0.0053
2311.00,0.0052
2310.00,0.0052
2309.00,0.0051
2308.00,0.0052
2307.00,0.0052
2306.00,0.0052
2305.00,0.0053
2304.00,0.0053
2303.00,0.0053
2302.00,0.0054
2301.00,0.0054
2300.00,0.0054
2299.00,0.0055
2298.00,0.0055
2297.00,0.0056
2296.00,0.0057
2295.00,0.0058
2294.00,0.0059
2293.00,0.0060
2292.00,0.0060
2291.00,0.0061
2290.00,0.0062
2289.00,0.0062
2288.00,0.0063
2287.00,0.0062
2286.00,0.0062
2285.00,0.0062
2284.00,0.0061
2283.00,0.0061
2282.00,0.0061
2281.00,0.0060
2280.00,0.0059
2279.00,0.0058
2278.00,0.0058
2277.00,0.0058
2276.00,0.0059
2275.00,0.0058
2274.00,0.0057
2273.00,0.0056
2272.00,0.0056
2271.00,0.0056
2270.00,0.0056
2269.00,0.0056
2268.00,0.0056
2267.00,0.0056
2266.00,0.0055
2265.00,0.0054
2264.00,0.0054
2263.00,0.0053
2262.00,0.0053
2261.00,0.0054
2260.00,0.0054
2259.00,0.0054
2258.00,0.0053
2257.00,0.0053
2256.00,0.0052
2255.00,0.0051
2254.00,0.0051
2253.00,0.0051
2252.00,0.0052
2251.00,0.0052
2250.00,0.0052
2249.00,0.0053
2248.00,0.0054
2247.00,0.0054
2246.00,0.0055
2245.00,0.0054
2244.00,0.0054
2243.00,0.0054
2242.00,0.0054
2241.00,0.0054
2240.00,0.0055
2239.00,0.0055
2238.00,0.0055
2237.00,0.0054
2236.00,0.0054
2235.00,0.0055
2234.00,0.0055
2233.00,0.0054
2232.00,0.0055
2231.00,0.0055
2230.00,0.0055
2229.00,0.0054
2228.00,0.0054
2227.00,0.0054
2226.00,0.0054
2225.00,0.0054
2224.00,0.0054
2223.00,0.0054
2222.00,0.0054
2221.00,0.0053
2220.00,0.0053
2219.00,0.0053
2218.00,0.0052
2217.00,0.0052
2216.00,0.0052
2215.00,0.0052
2214.00,0.0052
2213.00,0.0053
2212.00,0.0053
2211.00,0.0053
2210.00,0.0052
2209.00,0.0051
2208.00,0.0051
2207.00,0.0050
2206.00,0.0050
2205.00,0.0050
2204.00,0.0051
2203.00,0.0052
2202.00,0.0053
2201.00,0.0054
2200.00,0.0054
2199.00,0.0054
2198.00,0.0053
2197.00,0.0052
2196.00,0.0052
2195.00,0.0052
2194.00,0.0052
2193.00,0.0052
2192.00,0.0052
2191.00,0.0053
2190.00,0.0054
2189.00,0.0054
2188.00,0.0054
2187.00,0.0055
2186.00,0.0054
2185.00,0.0053
2184.00,0.0051
2183.00,0.0049
2182.00,0.0047
2181.00,0.0048
2180.00,0.0049
2179.00,0.0051
2178.00,0.0050
2177.00,0.0049
2176.00,0.0048
2175.00,0.0048
2174.00,0.0049
2173.00,0.0050
2172.00,0.0052
2171.00,0.0054
2170.00,0.0055
2169.00,0.0056
2168.00,0.0057
2167.00,0.0059
2166.00,0.0061
2165.00,0.0063
2164.00,0.0065
2163.00,0.0064
2162.00,0.0059
2161.00,0.0049
2160.00,0.0036
2159.00,0.0024
2158.00,0.0018
2157.00,0.0017
2156.00,0.0020
2155.00,0.0023
2154.00,0.0026
2153.00,0.0029
2152.00,0.0030
2151.00,0.0031
2150.00,0.0030
2149.00,0.0030
2148.00,0.0030
2147.00,0.0030
2146.00,0.0030
2145.00,0.0031
2144.00,0.0032
2143.00,0.0033
2142.00,0.0033
2141.00,0.0035
2140.00,0.0036
2139.00,0.0035
2138.00,0.0033
2137.00,0.0030
2136.00,0.0028
2135.00,0.0025
2134.00,0.0025
2133.00,0.0026
2132.00,0.0028
2131.00,0.0030
2130.00,0.0032
2129.00,0.0034
2128.00,0.0035
2127.00,0.0036
2126.00,0.0036
2125.00,0.0036
2124.00,0.0037
2123.00,0.0039
2122.00,0.0040
2121.00,0.0041
2120.00,0.0042
2119.00,0.0043
2118.00,0.0044
2117.00,0.0045
2116.00,0.0045
2115.00,0.0046
2114.00,0.0046
2113.00,0.0046
2112.00,0.0046
2111.00,0.0045
2110.00,0.0045
2109.00,0.0045
2108.00,0.0045
2107.00,0.0046
2106.00,0.0046
2105.00,0.0046
2104.00,0.0046
2103.00,0.0045
2102.00,0.0045
2101.00,0.0046
2100.00,0.0046
2099.00,0.0046
2098.00,0.0045
2097.00,0.0043
2096.00,0.0041
2095.00,0.0040
2094.00,0.0040
2093.00,0.0041
2092.00,0.0043
2091.00,0.0044
2090.00,0.0044
2089.00,0.0045
2088.00,0.0046
2087.00,0.0047
2086.00,0.0047
2085.00,0.0048
2084.00,0.0048
2083.00,0.0047
2082.00,0.0047
2081.00,0.0048
2080.00,0.0049
2079.00,0.0049
2078.00,0.0049
2077.00,0.0050
2076.00,0.0050
2075.00,0.0049
2074.00,0.0048
2073.00,0.0047
2072.00,0.0046
2071.00,0.0045
2070.00,0.0045
2069.00,0.0044
2068.00,0.0044
2067.00,0.0044
2066.00,0.0043
2065.00,0.0044
2064.00,0.0045
2063.00,0.0045
2062.00,0.0046
2061.00,0.0046
2060.00,0.0047
2059.00,0.0047
2058.00,0.0046
2057.00,0.0046
2056.00,0.0047
2055.00,0.0048
2054.00,0.0051
2053.00,0.0055
2052.00,0.0059
2051.00,0.0058
2050.00,0.0055
2049.00,0.0051
2048.00,0.0049
2047.00,0.0048
2046.00,0.0047
2045.00,0.0047
2044.00,0.0047
2043.00,0.0047
2042.00,0.0047
2041.00,0.0048
2040.00,0.0049
2039.00,0.0050
2038.00,0.0050
2037.00,0.0049
2036.00,0.0047
2035.00,0.0045
2034.00,0.0043
2033.00,0.0041
2032.00,0.0040
2031.00,0.0040
2030.00,0.0040
2029.00,0.0042
2028.00,0.0044
2027.00,0.0045
2026.00,0.0045
2025.00,0.0044
2024.00,0.0042
2023.00,0.0041
2022.00,0.0040
2021.00,0.0039
2020.00,0.0038
2019.00,0.0037
2018.00,0.0036
2017.00,0.0037
2016.00,0.0039
2015.00,0.0041
2014.00,0.0042
2013.00,0.0043
2012.00,0.0044
2011.00,0.0043
2010.00,0.0041
2009.00,0.0039
2008.00,0.0037
2007.00,0.0035
2006.00,0.0032
2005.00,0.0032
2004.00,0.0033
2003.00,0.0035
2002.00,0.0036
2001.00,0.0037
2000.00,0.0039
1999.00,0.0040
1998.00,0.0041
1997.00,0.0043
1996.00,0.0045
1995.00,0.0047
1994.00,0.0047
1993.00,0.0047
1992.00,0.0047
1991.00,0.0048
1990.00,0.0048
1989.00,0.0048
1988.00,0.0048
1987.00,0.0048
1986.00,0.0047
1985.00,0.0048
1984.00,0.0050
1983.00,0.0053
1982.00,0.0056
1981.00,0.0057
1980.00,0.0055
1979.00,0.0049
1978.00,0.0043
1977.00,0.0039
1976.00,0.0039
1975.00,0.0039
1974.00,0.0038
1973.00,0.0037
1972.00,0.0036
1971.00,0.0035
1970.00,0.0034
1969.00,0.0035
1968.00,0.0038
1967.00,0.0039
1966.00,0.0039
1965.00,0.0037
1964.00,0.0036
1963.00,0.0035
1962.00,0.0033
1961.00,0.0032
1960.00,0.0032
1959.00,0.0032
1958.00,0.0032
1957.00,0.0033
1956.00,0.0035
1955.00,0.0036
1954.00,0.0036
1953.00,0.0036
1952.00,0.0037
1951.00,0.0038
1950.00,0.0038
1949.00,0.0038
1948.00,0.0039
1947.00,0.0040
1946.00,0.0040
1945.00,0.0040
1944.00,0.0040
1943.00,0.0040
1942.00,0.0039
1941.00,0.0039
1940.00,0.0039
1939.00,0.0039
1938.00,0.0039
1937.00,0.0040
1936.00,0.0041
1935.00,0.0042
1934.00,0.0042
1933.00,0.0042
1932.00,0.0041
1931.00,0.0041
1930.00,0.0041
1929.00,0.0041
1928.00,0.0041
1927.00,0.0041
1926.00,0.0041
1925.00,0.0041
1924.00,0.0043
1923.00,0.0044
1922.00,0.0044
1921.00,0.0043
1920.00,0.0043
1919.00,0.0043
1918.00,0.0043
1917.00,0.0043
1916.00,0.0043
1915.00,0.0043
1914.00,0.0043
1913.00,0.0044
1912.00,0.0045
1911.00,0.0045
1910.00,0.0046
1909.00,0.0047
1908.00,0.0047
1907.00,0.0047
1906.00,0.0046
1905.00,0.0045
1904.00,0.0045
1903.00,0.0045
1902.00,0.0045
1901.00,0.0045
1900.00,0.0046
1899.00,0.0046
1898.00,0.0046
1897.00,0.0046
1896.00,0.0047
1895.00,0.0047
1894.00,0.0046
1893.00,0.0045
1892.00,0.0045
1891.00,0.0046
1890.00,0.0047
1889.00,0.0047
1888.00,0.0046
1887.00,0.0046
1886.00,0.0045
1885.00,0.0046
1884.00,0.0046
1883.00,0.0046
1882.00,0.0045
1881.00,0.0045
1880.00,0.0046
1879.00,0.0046
1878.00,0.0046
1877.00,0.0045
1876.00,0.0045
1875.00,0.0045
1874.00,0.0045
1873.00,0.0045
1872.00,0.0045
1871.00,0.0045
1870.00,0.0045
1869.00,0.0045
1868.00,0.0045
1867.00,0.0044
1866.00,0.0044
1865.00,0.0044
1864.00,0.0045
1863.00,0.0046
1862.00,0.0046
1861.00,0.0047
1860.00,0.0047
1859.00,0.0047
1858.00,0.0046
1857.00,0.0046
1856.00,0.0045
1855.00,0.0044
1854.00,0.0044
1853.00,0.0044
1852.00,0.0044
1851.00,0.0045
1850.00,0.0046
1849.00,0.0047
1848.00,0.0048
1847.00,0.0047
1846.00,0.0047
1845.00,0.0046
1844.00,0.0046
1843.00,0.0046
1842.00,0.0045
1841.00,0.0046
1840.00,0.0046
1839.00,0.0047
1838.00,0.0047
1837.00,0.0046
1836.00,0.0046
1835.00,0.0046
1834.00,0.0046
1833.00,0.0045
1832.00,0.0045
1831.00,0.0045
1830.00,0.0044
1829.00,0.0043
1828.00,0.0043
1827.00,0.0043
1826.00,0.0044
1825.00,0.0046
1824.00,0.0046
1823.00,0.0046
1822.00,0.0045
1821.00,0.0044
1820.00,0.0044
1819.00,0.0043
1818.00,0.0043
1817.00,0.0043
1816.00,0.0043
1815.00,0.0044
1814.00,0.0044
1813.00,0.0045
1812.00,0.0046
1811.00,0.0046
1810.00,0.0045
1809.00,0.0045
1808.00,0.0045
1807.00,0.0045
1806.00,0.0044
1805.00,0.0044
1804.00,0.0045
1803.00,0.0046
1802.00,0.0047
1801.00,0.0047
1800.00,0.0046
1799.00,0.0045
1798.00,0.0046
1797.00,0.0047
1796.00,0.0048
1795.00,0.0048
1794.00,0.0048
1793.00,0.0048
1792.00,0.0049
1791.00,0.0049
1790.00,0.0049
1789.00,0.0050
1788.00,0.0051
1787.00,0.0052
1786.00,0.0053
1785.00,0.0054
1784.00,0.0054
1783.00,0.0054
1782.00,0.0054
1781.00,0.0055
1780.00,0.0056
1779.00,0.0057
1778.00,0.0056
1777.00,0.0056
1776.00,0.0056
1775.00,0.0055
1774.00,0.0053
1773.00,0.0050
1772.00,0.0047
1771.00,0.0043
1770.00,0.0041
1769.00,0.0040
1768.00,0.0041
1767.00,0.0039
1766.00,0.0036
1765.00,0.0033
1764.00,0.0032
1763.00,0.0030
1762.00,0.0027
1761.00,0.0023
1760.00,0.0018
1759.00,0.0014
1758.00,0.0009
1757.00,0.0003
1756.00,-0.0005
1755.00,-0.0012
1754.00,-0.0017
1753.00,-0.0017
1752.00,-0.0010
1751.00,-0.0001
1750.00,0.0009
1749.00,0.0020
1748.00,0.0030
1747.00,0.0038
1746.00,0.0045
1745.00,0.0050
1744.00,0.0055
1743.00,0.0057
1742.00,0.0057
1741.00,0.0057
1740.00,0.0058
1739.00,0.0058
1738.00,0.0059
1737.00,0.0059
1736.00,0.0062
1735.00,0.0066
1734.00,0.0070
1733.00,0.0071
1732.00,0.0072
1731.00,0.0074
1730.00,0.0076
1729.00,0.0078
1728.00,0.0080
1727.00,0.0081
1726.00,0.0083
1725.00,0.0085
1724.00,0.0089
1723.00,0.0092
1722.00,0.0093
1721.00,0.0094
1720.00,0.0097
1719.00,0.0101
1718.00,0.0106
1717.00,0.0110
1716.00,0.0113
1715.00,0.0115
1714.00,0.0116
1713.00,0.0119
1712.00,0.0123
1711.00,0.0127
1710.00,0.0130
1709.00,0.0134
1708.00,0.0138
1707.00,0.0142
1706.00,0.0148
1705.00,0.0155
1704.00,0.0162
1703.00,0.0168
1702.00,0.0176
1701.00,0.0192
1700.00,0.0216
1699.00,0.0241
1698.00,0.0268
1697.00,0.0306
1696.00,0.0364
1695.00,0.0428
1694.00,0.0485
1693.00,0.0537
1692.00,0.0591
1691.00,0.0648
1690.00,0.0705
1689.00,0.0759
1688.00,0.0804
1687.00,0.0841
1686.00,0.0875
1685.00,0.0915
1684.00,0.0962
1683.00,0.1001
1682.00,0.1026
1681.00,0.1045
1680.00,0.1061
1679.00,0.1073
1678.00,0.1079
1677.00,0.1081
1676.00,0.1085
1675.00,0.1090
1674.00,0.1094
1673.00,0.1097
1672.00,0.1100
1671.00,0.1105
1670.00,0.1115
1669.00,0.1132
1668.00,0.1152
1667.00,0.1171
1666.00,0.1188
1665.00,0.1204
1664.00,0.1223
1663.00,0.1247
1662.00,0.1271
1661.00,0.1293
1660.00,0.1310
1659.00,0.1323
1658.00,0.1332
1657.00,0.1336
1656.00,0.1335
1655.00,0.1329
1654.00,0.1319
1653.00,0.1311
1652.00,0.1302
1651.00,0.1287
1650.00,0.1264
1649.00,0.1234
1648.00,0.1198
1647.00,0.1156
1646.00,0.1112
1645.00,0.1070
1644.00,0.1029
1643.00,0.0987
1642.00,0.0944
1641.00,0.0900
1640.00,0.0856
1639.00,0.0814
1638.00,0.0774
1637.00,0.0733
1636.00,0.0692
1635.00,0.0656
1634.00,0.0628
1633.00,0.0607
1632.00,0.0591
1631.00,0.0576
1630.00,0.0565
1629.00,0.0560
1628.00,0.0562
1627.00,0.0572
1626.00,0.0587
1625.00,0.0610
1624.00,0.0642
1623.00,0.0681
1622.00,0.0719
1621.00,0.0748
1620.00,0.0768
1619.00,0.0780
1618.00,0.0781
1617.00,0.0773
1616.00,0.0758
1615.00,0.0742
1614.00,0.0726
1613.00,0.0712
1612.00,0.0701
1611.00,0.0692
1610.00,0.0679
1609.00,0.0655
1608.00,0.0619
1607.00,0.0571
1606.00,0.0523
1605.00,0.0484
1604.00,0.0458
1603.00,0.0439
1602.00,0.0421
1601.00,0.0401
1600.00,0.0382
1599.00,0.0366
1598.00,0.0354
1597.00,0.0347
1596.00,0.0346
1595.00,0.0353
1594.00,0.0368
1593.00,0.0390
1592.00,0.0421
1591.00,0.0458
1590.00,0.0500
1589.00,0.0544
1588.00,0.0584
1587.00,0.0617
1586.00,0.0638
1585.00,0.0645
1584.00,0.0639
1583.00,0.0620
1582.00,0.0593
1581.00,0.0560
1580.00,0.0527
1579.00,0.0496
1578.00,0.0467
1577.00,0.0439
1576.00,0.0413
1575.00,0.0392
1574.00,0.0375
1573.00,0.0362
1572.00,0.0350
1571.00,0.0338
1570.00,0.0325
1569.00,0.0313
1568.00,0.0303
1567.00,0.0295
1566.00,0.0287
1565.00,0.0278
1564.00,0.0270
1563.00,0.0262
1562.00,0.0255
1561.00,0.0246
1560.00,0.0236
1559.00,0.0226
1558.00,0.0217
1557.00,0.0213
1556.00,0.0213
1555.00,0.0214
1554.00,0.0213
1553.00,0.0211
1552.00,0.0209
1551.00,0.0208
1550.00,0.0206
1549.00,0.0203
1548.00,0.0199
1547.00,0.0196
1546.00,0.0194
1545.00,0.0193
1544.00,0.0190
1543.00,0.0185
1542.00,0.0180
1541.00,0.0177
1540.00,0.0177
1539.00,0.0177
1538.00,0.0178
1537.00,0.0178
1536.00,0.0178
1535.00,0.0178
1534.00,0.0178
1533.00,0.0179
1532.00,0.0180
1531.00,0.0181
1530.00,0.0182
1529.00,0.0184
1528.00,0.0187
1527.00,0.0190
1526.00,0.0192
1525.00,0.0194
1524.00,0.0195
1523.00,0.0200
1522.00,0.0207
1521.00,0.0216
1520.00,0.0222
1519.00,0.0226
1518.00,0.0232
1517.00,0.0240
1516.00,0.0247
1515.00,0.0252
1514.00,0.0255
1513.00,0.0258
1512.00,0.0260
1511.00,0.0261
1510.00,0.0262
1509.00,0.0263
1508.00,0.0264
1507.00,0.0265
1506.00,0.0265
1505.00,0.0269
1504.00,0.0278
1503.00,0.0291
1502.00,0.0307
1501.00,0.0327
1500.00,0.0350
1499.00,0.0376
1498.00,0.0405
1497.00,0.0432
1496.00,0.0452
1495.00,0.0461
1494.00,0.0460
1493.00,0.0452
1492.00,0.0439
1491.00,0.0423
1490.00,0.0404
1489.00,0.0382
1488.00,0.0360
1487.00,0.0340
1486.00,0.0322
1485.00,0.0306
1484.00,0.0293
1483.00,0.0281
1482.00,0.0270
1481.00,0.0260
1480.00,0.0253
1479.00,0.0249
1478.00,0.0247
1477.00,0.0249
1476.00,0.0255
1475.00,0.0262
1474.00,0.0275
1473.00,0.0295
1472.00,0.0321
1471.00,0.0351
1470.00,0.0382
1469.00,0.0415
1468.00,0.0449
1467.00,0.0484
1466.00,0.0521
1465.00,0.0558
1464.00,0.0590
1463.00,0.0612
1462.00,0.0624
1461.00,0.0627
1460.00,0.0624
1459.00,0.0613
1458.00,0.0596
1457.00,0.0575
1456.00,0.0554
1455.00,0.0538
1454.00,0.0529
1453.00,0.0524
1452.00,0.0525
1451.00,0.0529
1450.00,0.0538
1449.00,0.0553
1448.00,0.0574
1447.00,0.0598
1446.00,0.0622
1445.00,0.0646
1444.00,0.0670
1443.00,0.0693
1442.00,0.0713
1441.00,0.0731
1440.00,0.0747
1439.00,0.0761
1438.00,0.0778
1437.00,0.0800
1436.00,0.0824
1435.00,0.0844
1434.00,0.0861
1433.00,0.0875
1432.00,0.0889
1431.00,0.0903
1430.00,0.0918
1429.00,0.0933
1428.00,0.0949
1427.00,0.0964
1426.00,0.0981
1425.00,0.1000
1424.00,0.1017
1423.00,0.1028
1422.00,0.1029
1421.00,0.1020
1420.00,0.0998
1419.00,0.0964
1418.00,0.0921
1417.00,0.0877
1416.00,0.0834
1415.00,0.0793
1414.00,0.0757
1413.00,0.0729
1412.00,0.0708
1411.00,0.0696
1410.00,0.0691
1409.00,0.0693
1408.00,0.0701
1407.00,0.0713
1406.00,0.0730
1405.00,0.0751
1404.00,0.0771
1403.00,0.0785
1402.00,0.0793
1401.00,0.0793
1400.00,0.0783
1399.00,0.0762
1398.00,0.0732
1397.00,0.0697
1396.00,0.0656
1395.00,0.0614
1394.00,0.0572
1393.00,0.0537
1392.00,0.0508
1391.00,0.0485
1390.00,0.0469
1389.00,0.0458
1388.00,0.0453
1387.00,0.0453
1386.00,0.0458
1385.00,0.0468
1384.00,0.0481
1383.00,0.0497
1382.00,0.0516
1381.00,0.0532
1380.00,0.0544
1379.00,0.0550
1378.00,0.0550
1377.00,0.0544
1376.00,0.0534
1375.00,0.0521
1374.00,0.0509
1373.00,0.0498
1372.00,0.0488
1371.00,0.0479
1370.00,0.0474
1369.00,0.0470
1368.00,0.0468
1367.00,0.0469
1366.00,0.0474
1365.00,0.0486
1364.00,0.0505
1363.00,0.0528
1362.00,0.0550
1361.00,0.0565
1360.00,0.0567
1359.00,0.0556
1358.00,0.0535
1357.00,0.0507
1356.00,0.0476
1355.00,0.0447
1354.00,0.0422
1353.00,0.0402
1352.00,0.0387
1351.00,0.0376
1350.00,0.0369
1349.00,0.0363
1348.00,0.0359
1347.00,0.0355
1346.00,0.0353
1345.00,0.0351
1344.00,0.0349
1343.00,0.0348
1342.00,0.0349
1341.00,0.0350
1340.00,0.0353
1339.00,0.0354
1338.00,0.0356
1337.00,0.0356
1336.00,0.0358
1335.00,0.0360
1334.00,0.0363
1333.00,0.0367
1332.00,0.0370
1331.00,0.0374
1330.00,0.0377
1329.00,0.0380
1328.00,0.0384
1327.00,0.0389
1326.00,0.0395
1325.00,0.0402
1324.00,0.0410
1323.00,0.0419
1322.00,0.0428
1321.00,0.0436
1320.00,0.0443
1319.00,0.0447
1318.00,0.0448
1317.00,0.0445
1316.00,0.0438
1315.00,0.0428
1314.00,0.0415
1313.00,0.0399
1312.00,0.0381
1311.00,0.0362
1310.00,0.0344
1309.00,0.0330
1308.00,0.0319
1307.00,0.0314
1306.00,0.0316
1305.00,0.0326
1304.00,0.0342
1303.00,0.0365
1302.00,0.0393
1301.00,0.0426
1300.00,0.0463
1299.00,0.0504
1298.00,0.0548
1297.00,0.0597
1296.00,0.0650
1295.00,0.0707
1294.00,0.0767
1293.00,0.0828
1292.00,0.0888
1291.00,0.0944
1290.00,0.0993
1289.00,0.1036
1288.00,0.1069
1287.00,0.1094
1286.00,0.1110
1285.00,0.1116
1284.00,0.1112
1283.00,0.1099
1282.00,0.1080
1281.00,0.1056
1280.00,0.1030
1279.00,0.1006
1278.00,0.0984
1277.00,0.0968
1276.00,0.0956
1275.00,0.0948
1274.00,0.0942
1273.00,0.0936
1272.00,0.0928
1271.00,0.0916
1270.00,0.0899
1269.00,0.0877
1268.00,0.0849
1267.00,0.0817
1266.00,0.0783
1265.00,0.0746
1264.00,0.0710
1263.00,0.0674
1262.00,0.0640
1261.00,0.0608
1260.00,0.0577
1259.00,0.0547
1258.00,0.0520
1257.00,0.0497
1256.00,0.0477
1255.00,0.0462
1254.00,0.0451
1253.00,0.0442
1252.00,0.0437
1251.00,0.0434
1250.00,0.0434
1249.00,0.0438
1248.00,0.0445
1247.00,0.0458
1246.00,0.0474
1245.00,0.0494
1244.00,0.0516
1243.00,0.0540
1242.00,0.0563
1241.00,0.0583
1240.00,0.0601
1239.00,0.0615
1238.00,0.0626
1237.00,0.0634
1236.00,0.0639
1235.00,0.0643
1234.00,0.0646
1233.00,0.0647
1232.00,0.0646
1231.00,0.0644
1230.00,0.0643
1229.00,0.0644
1228.00,0.0647
1227.00,0.0651
1226.00,0.0656
1225.00,0.0660
1224.00,0.0663
1223.00,0.0662
1222.00,0.0658
1221.00,0.0651
1220.00,0.0642
1219.00,0.0632
1218.00,0.0621
1217.00,0.0612
1216.00,0.0602
1215.00,0.0591
1214.00,0.0578
1213.00,0.0562
1212.00,0.0543
1211.00,0.0522
1210.00,0.0503
1209.00,0.0485
1208.00,0.0470
1207.00,0.0460
1206.00,0.0455
1205.00,0.0454
1204.00,0.0460
1203.00,0.0472
1202.00,0.0490
1201.00,0.0513
1200.00,0.0541
1199.00,0.0573
1198.00,0.0607
1197.00,0.0643
1196.00,0.0678
1195.00,0.0709
1194.00,0.0733
1193.00,0.0743
1192.00,0.0735
1191.00,0.0709
1190.00,0.0666
1189.00,0.0612
1188.00,0.0555
1187.00,0.0501
1186.00,0.0457
1185.00,0.0426
1184.00,0.0407
1183.00,0.0395
1182.00,0.0389
1181.00,0.0384
1180.00,0.0379
1179.00,0.0375
1178.00,0.0372
1177.00,0.0371
1176.00,0.0371
1175.00,0.0372
1174.00,0.0374
1173.00,0.0376
1172.00,0.0379
1171.00,0.0382
1170.00,0.0384
1169.00,0.0387
1168.00,0.0390
1167.00,0.0395
1166.00,0.0402
1165.00,0.0412
1164.00,0.0428
1163.00,0.0450
1162.00,0.0477
1161.00,0.0509
1160.00,0.0544
1159.00,0.0577
1158.00,0.0605
1157.00,0.0625
1156.00,0.0633
1155.00,0.0630
1154.00,0.0615
1153.00,0.0592
1152.00,0.0562
1151.00,0.0529
1150.00,0.0494
1149.00,0.0460
1148.00,0.0427
1147.00,0.0399
1146.00,0.0375
1145.00,0.0355
1144.00,0.0339
1143.00,0.0326
1142.00,0.0317
1141.00,0.0311
1140.00,0.0309
1139.00,0.0311
1138.00,0.0317
1137.00,0.0329
1136.00,0.0350
1135.00,0.0382
1134.00,0.0426
1133.00,0.0478
1132.00,0.0531
1131.00,0.0579
1130.00,0.0611
1129.00,0.0624
1128.00,0.0613
1127.00,0.0583
1126.00,0.0539
1125.00,0.0489
1124.00,0.0442
1123.00,0.0400
1122.00,0.0367
1121.00,0.0341
1120.00,0.0322
1119.00,0.0307
1118.00,0.0297
1117.00,0.0291
1116.00,0.0287
1115.00,0.0285
1114.00,0.0285
1113.00,0.0287
1112.00,0.0289
1111.00,0.0292
1110.00,0.0295
1109.00,0.0300
1108.00,0.0306
1107.00,0.0313
1106.00,0.0324
1105.00,0.0338
1104.00,0.0355
1103.00,0.0374
1102.00,0.0392
1101.00,0.0407
1100.00,0.0416
1099.00,0.0418
1098.00,0.0413
1097.00,0.0402
1096.00,0.0386
1095.00,0.0368
1094.00,0.0349
1093.00,0.0331
1092.00,0.0315
1091.00,0.0301
1090.00,0.0290
1089.00,0.0283
1088.00,0.0278
1087.00,0.0274
1086.00,0.0273
1085.00,0.0272
1084.00,0.0272
1083.00,0.0273
1082.00,0.0276
1081.00,0.0279
1080.00,0.0284
1079.00,0.0291
1078.00,0.0298
1077.00,0.0307
1076.00,0.0316
1075.00,0.0326
1074.00,0.0338
1073.00,0.0353
1072.00,0.0370
1071.00,0.0390
1070.00,0.0416
1069.00,0.0446
1068.00,0.0483
1067.00,0.0525
1066.00,0.0574
1065.00,0.0628
1064.00,0.0687
1063.00,0.0749
1062.00,0.0812
1061.00,0.0874
1060.00,0.0931
1059.00,0.0977
1058.00,0.1008
1057.00,0.1020
1056.00,0.1012
1055.00,0.0982
1054.00,0.0935
1053.00,0.0875
1052.00,0.0807
1051.00,0.0740
1050.00,0.0676
1049.00,0.0621
1048.00,0.0576
1047.00,0.0540
1046.00,0.0513
1045.00,0.0494
1044.00,0.0482
1043.00,0.0474
1042.00,0.0471
1041.00,0.0471
1040.00,0.0472
1039.00,0.0473
1038.00,0.0475
1037.00,0.0478
1036.00,0.0483
1035.00,0.0490
1034.00,0.0500
1033.00,0.0513
1032.00,0.0527
1031.00,0.0538
1030.00,0.0543
1029.00,0.0539
1028.00,0.0525
1027.00,0.0505
1026.00,0.0481
1025.00,0.0457
1024.00,0.0436
1023.00,0.0419
1022.00,0.0406
1021.00,0.0396
1020.00,0.0388
1019.00,0.0382
1018.00,0.0377
1017.00,0.0372
1016.00,0.0366
1015.00,0.0358
1014.00,0.0348
1013.00,0.0339
1012.00,0.0330
1011.00,0.0324
1010.00,0.0322
1009.00,0.0324
1008.00,0.0330
1007.00,0.0340
1006.00,0.0351
1005.00,0.0363
1004.00,0.0372
1003.00,0.0378
1002.00,0.0380
1001.00,0.0377
1000.00,0.0371
999.00,0.0363
998.00,0.0355
997.00,0.0347
996.00,0.0339
995.00,0.0332
994.00,0.0325
993.00,0.0319
992.00,0.0312
991.00,0.0304
990.00,0.0296
989.00,0.0288
988.00,0.0280
987.00,0.0271
986.00,0.0262
985.00,0.0255
984.00,0.0249
983.00,0.0244
982.00,0.0242
981.00,0.0241
980.00,0.0241
979.00,0.0242
978.00,0.0245
977.00,0.0247
976.00,0.0249
975.00,0.0249
974.00,0.0247
973.00,0.0244
972.00,0.0239
971.00,0.0233
970.00,0.0228
969.00,0.0223
968.00,0.0220
967.00,0.0217
966.00,0.0216
965.00,0.0215
964.00,0.0214
963.00,0.0212
962.00,0.0210
961.00,0.0208
960.00,0.0206
959.00,0.0203
958.00,0.0200
957.00,0.0198
956.00,0.0195
955.00,0.0193
954.00,0.0191
953.00,0.0190
952.00,0.0189
951.00,0.0188
950.00,0.0188
949.00,0.0188
948.00,0.0189
947.00,0.0190
946.00,0.0193
945.00,0.0196
944.00,0.0200
943.00,0.0205
942.00,0.0212
941.00,0.0221
940.00,0.0231
939.00,0.0243
938.00,0.0257
937.00,0.0270
936.00,0.0282
935.00,0.0293
934.00,0.0300
933.00,0.0304
932.00,0.0305
931.00,0.0304
930.00,0.0302
929.00,0.0301
928.00,0.0302
927.00,0.0304
926.00,0.0307
925.00,0.0310
924.00,0.0312
923.00,0.0313
922.00,0.0312
921.00,0.0307
920.00,0.0297
919.00,0.0280
918.00,0.0258
917.00,0.0237
916.00,0.0220
915.00,0.0211
914.00,0.0209
913.00,0.0211
912.00,0.0215
911.00,0.0219
910.00,0.0222
909.00,0.0225
908.00,0.0229
907.00,0.0234
906.00,0.0241
905.00,0.0250
904.00,0.0260
903.00,0.0272
902.00,0.0285
901.00,0.0299
900.00,0.0312
899.00,0.0323
898.00,0.0332
897.00,0.0337
896.00,0.0337
895.00,0.0333
894.00,0.0325
893.00,0.0314
892.00,0.0303
891.00,0.0291
890.00,0.0281
889.00,0.0272
888.00,0.0266
887.00,0.0263
886.00,0.0263
885.00,0.0265
884.00,0.0270
883.00,0.0277
882.00,0.0286
881.00,0.0297
880.00,0.0311
879.00,0.0326
878.00,0.0343
877.00,0.0361
876.00,0.0379
875.00,0.0398
874.00,0.0415
873.00,0.0431
872.00,0.0444
871.00,0.0454
870.00,0.0459
869.00,0.0460
868.00,0.0458
867.00,0.0455
866.00,0.0452
865.00,0.0449
864.00,0.0446
863.00,0.0443
862.00,0.0441
861.00,0.0439
860.00,0.0437
859.00,0.0437
858.00,0.0438
857.00,0.0441
856.00,0.0446
855.00,0.0453
854.00,0.0460
853.00,0.0467
852.00,0.0475
851.00,0.0482
850.00,0.0489
849.00,0.0495
848.00,0.0501
847.00,0.0506
846.00,0.0509
845.00,0.0512
844.00,0.0513
843.00,0.0511
842.00,0.0508
841.00,0.0505
840.00,0.0504
839.00,0.0506
838.00,0.0510
837.00,0.0514
836.00,0.0519
835.00,0.0523
834.00,0.0527
833.00,0.0530
832.00,0.0533
831.00,0.0534
830.00,0.0535
829.00,0.0535
828.00,0.0534
827.00,0.0533
826.00,0.0533
825.00,0.0536
824.00,0.0540
823.00,0.0547
822.00,0.0556
821.00,0.0568
820.00,0.0582
819.00,0.0596
818.00,0.0609
817.00,0.0623
816.00,0.0634
815.00,0.0644
814.00,0.0650
813.00,0.0651
812.00,0.0644
811.00,0.0630
810.00,0.0606
809.00,0.0573
808.00,0.0534
807.00,0.0492
806.00,0.0451
805.00,0.0414
804.00,0.0383
803.00,0.0359
802.00,0.0341
801.00,0.0329
800.00,0.0320
799.00,0.0313
798.00,0.0308
797.00,0.0305
796.00,0.0303
795.00,0.0301
794.00,0.0300
793.00,0.0299
792.00,0.0297
791.00,0.0296
790.00,0.0296
789.00,0.0296
788.00,0.0298
787.00,0.0301
786.00,0.0304
785.00,0.0306
784.00,0.0309
783.00,0.0312
782.00,0.0317
781.00,0.0323
780.00,0.0331
779.00,0.0340
778.00,0.0348
777.00,0.0353
776.00,0.0353
775.00,0.0348
774.00,0.0339
773.00,0.0330
772.00,0.0323
771.00,0.0319
770.00,0.0318
769.00,0.0318
768.00,0.0319
767.00,0.0320
766.00,0.0322
765.00,0.0324
764.00,0.0326
763.00,0.0330
762.00,0.0336
761.00,0.0342
760.00,0.0351
759.00,0.0360
758.00,0.0370
757.00,0.0379
756.00,0.0387
755.00,0.0393
754.00,0.0399
753.00,0.0405
752.00,0.0411
751.00,0.0417
750.00,0.0423
749.00,0.0429
748.00,0.0435
747.00,0.0441
746.00,0.0448
745.00,0.0455
744.00,0.0465
743.00,0.0476
742.00,0.0491
741.00,0.0510
740.00,0.0531
739.00,0.0553
738.00,0.0571
737.00,0.0583
736.00,0.0586
735.00,0.0578
734.00,0.0563
733.00,0.0543
732.00,0.0521
731.00,0.0500
730.00,0.0481
729.00,0.0463
728.00,0.0448
727.00,0.0434
726.00,0.0421
725.00,0.0410
724.00,0.0400
723.00,0.0391
722.00,0.0383
721.00,0.0376
720.00,0.0370
719.00,0.0367
718.00,0.0365
717.00,0.0364
716.00,0.0364
715.00,0.0364
714.00,0.0364
713.00,0.0362
712.00,0.0360
711.00,0.0356
710.00,0.0351
709.00,0.0347
708.00,0.0343
707.00,0.0340
706.00,0.0338
705.00,0.0338
704.00,0.0339
703.00,0.0341
702.00,0.0343
701.00,0.0344
700.00,0.0347
699.00,0.0351
698.00,0.0357
697.00,0.0365
696.00,0.0377
695.00,0.0391
694.00,0.0406
693.00,0.0420
692.00,0.0432
691.00,0.0440
690.00,0.0446
689.00,0.0448
688.00,0.0445
687.00,0.0440
686.00,0.0433
685.00,0.0425
684.00,0.0417
683.00,0.0410
682.00,0.0404
681.00,0.0400
680.00,0.0398
679.00,0.0397
678.00,0.0397
677.00,0.0399
676.00,0.0401
675.00,0.0405
674.00,0.0411
673.00,0.0417
672.00,0.0424
671.00,0.0431
670.00,0.0437
669.00,0.0445
668.00,0.0455
667.00,0.0465
666.00,0.0472
665.00,0.0478
664.00,0.0487
663.00,0.0497
662.00,0.0509
661.00,0.0521
660.00,0.0532
659.00,0.0543
658.00,0.0552
657.00,0.0561
656.00,0.0570
655.00,0.0579
654.00,0.0586
653.00,0.0593
652.00,0.0599
651.00,0.0603
650.00,0.0606
649.00,0.0607
648.00,0.0607
647.00,0.0605
646.00,0.0601
645.00,0.0594
644.00,0.0585
643.00,0.0574
642.00,0.0561
641.00,0.0547
640.00,0.0533
639.00,0.0520
638.00,0.0506
637.00,0.0494
636.00,0.0483
635.00,0.0473
634.00,0.0464
633.00,0.0456
632.00,0.0450
631.00,0.0445
630.00,0.0442
629.00,0.0439
628.00,0.0438
627.00,0.0438
626.00,0.0439
625.00,0.0440
624.00,0.0440
623.00,0.0439
622.00,0.0437
621.00,0.0434
620.00,0.0430
619.00,0.0426
618.00,0.0421
617.00,0.0416
616.00,0.0412
615.00,0.0408
614.00,0.0405
613.00,0.0404
612.00,0.0404
611.00,0.0407
610.00,0.0411
609.00,0.0415
608.00,0.0420
607.00,0.0424
606.00,0.0429
605.00,0.0435
604.00,0.0440
603.00,0.0446
602.00,0.0451
601.00,0.0457
600.00,0.0461
599.00,0.0462
598.00,0.0461
597.00,0.0458
596.00,0.0454
595.00,0.0449
594.00,0.0444
593.00,0.0440
592.00,0.0438
591.00,0.0440
590.00,0.0446
589.00,0.0458
588.00,0.0476
587.00,0.0501
586.00,0.0531
585.00,0.0563
584.00,0.0592
583.00,0.0615
582.00,0.0631
581.00,0.0639
580.00,0.0640
579.00,0.0635
578.00,0.0627
577.00,0.0618
576.00,0.0610
575.00,0.0601
574.00,0.0594
573.00,0.0587
572.00,0.0581
571.00,0.0577
570.00,0.0573
569.00,0.0570
568.00,0.0567
567.00,0.0564
566.00,0.0560
565.00,0.0557
564.00,0.0552
563.00,0.0546
562.00,0.0539
561.00,0.0531
560.00,0.0524
559.00,0.0520
558.00,0.0517
557.00,0.0513
556.00,0.0507
555.00,0.0500
554.00,0.0491
553.00,0.0483
552.00,0.0477
551.00,0.0472
550.00,0.0469
549.00,0.0466
548.00,0.0463
547.00,0.0459
546.00,0.0454
545.00,0.0446
544.00,0.0438
543.00,0.0429
542.00,0.0421
541.00,0.0416
540.00,0.0414
539.00,0.0416
538.00,0.0422
537.00,0.0433
536.00,0.0446
535.00,0.0460
534.00,0.0474
533.00,0.0487
532.00,0.0496
531.00,0.0500
530.00,0.0498
529.00,0.0491
528.00,0.0480
527.00,0.0466
526.00,0.0450
525.00,0.0434
524.00,0.0419
523.00,0.0405
522.00,0.0394
521.00,0.0386
520.00,0.0380
519.00,0.0376
518.00,0.0372
517.00,0.0368
516.00,0.0364
515.00,0.0362
514.00,0.0362
513.00,0.0365
512.00,0.0370
511.00,0.0377
510.00,0.0385
509.00,0.0392
508.00,0.0396
507.00,0.0396
506.00,0.0393
505.00,0.0388
504.00,0.0382
503.00,0.0374
502.00,0.0367
501.00,0.0360
500.00,0.0355
499.00,0.0353
498.00,0.0353
497.00,0.0353
496.00,0.0353
495.00,0.0354
494.00,0.0356
493.00,0.0358
492.00,0.0361
491.00,0.0364
490.00,0.0367
489.00,0.0370
488.00,0.0373
487.00,0.0374
486.00,0.0375
485.00,0.0375
484.00,0.0373
483.00,0.0372
482.00,0.0372
481.00,0.0370
480.00,0.0367
479.00,0.0364
478.00,0.0364
477.00,0.0364
476.00,0.0364
475.00,0.0364
474.00,0.0363
473.00,0.0361
472.00,0.0359
471.00,0.0358
470.00,0.0359
469.00,0.0359
468.00,0.0358
467.00,0.0356
466.00,0.0354
465.00,0.0354
464.00,0.0354
463.00,0.0353
462.00,0.0353
461.00,0.0351
460.00,0.0349
459.00,0.0348
458.00,0.0350
457.00,0.0352
456.00,0.0352
455.00,0.0350
454.00,0.0346
453.00,0.0343
452.00,0.0340
451.00,0.0338
450.00,0.0338
449.00,0.0339
448.00,0.0339
447.00,0.0340
446.00,0.0340
445.00,0.0339
444.00,0.0337
443.00,0.0335
442.00,0.0332
441.00,0.0332
440.00,0.0333
439.00,0.0335
438.00,0.0338
437.00,0.0341
436.00,0.0342
435.00,0.0341
434.00,0.0336
433.00,0.0330
432.00,0.0324
431.00,0.0320
430.00,0.0319
429.00,0.0319
428.00,0.0321
427.00,0.0325
426.00,0.0330
425.00,0.0333
424.00,0.0329
423.00,0.0322
422.00,0.0314
421.00,0.0313
420.00,0.0320
419.00,0.0338
418.00,0.0356
417.00,0.0366
416.00,0.0371
415.00,0.0373
414.00,0.0374
413.00,0.0373
412.00,0.0370
411.00,0.0369
410.00,0.0370
409.00,0.0370
408.00,0.0368
407.00,0.0368
406.00,0.0372
405.00,0.0377
404.00,0.0378
403.00,0.0375
402.00,0.0372
401.00,0.0373
400.00,0.0378
