Created as New Dataset,Sample 406 By YargerLab Date Thursday, December 04 2025
cm-1,A
4000.00,0.0051
3999.00,0.0051
3998.00,0.0051
3997.00,0.0051
3996.00,0.0050
3995.00,0.0050
3994.00,0.0050
3993.00,0.0050
3992.00,0.0050
3991.00,0.0050
3990.00,0.0050
3989.00,0.0051
3988.00,0.0051
3987.00,0.0051
3986.00,0.0050
3985.00,0.0050
3984.00,0.0050
3983.00,0.0050
3982.00,0.0050
3981.00,0.0051
3980.00,0.0051
3979.00,0.0051
3978.00,0.0051
3977.00,0.0051
3976.00,0.0051
3975.00,0.0051
3974.00,0.0051
3973.00,0.0051
3972.00,0.0050
3971.00,0.0050
3970.00,0.0050
3969.00,0.0050
3968.00,0.0050
3967.00,0.0050
3966.00,0.0050
3965.00,0.0050
3964.00,0.0050
3963.00,0.0050
3962.00,0.0050
3961.00,0.0050
3960.00,0.0050
3959.00,0.0050
3958.00,0.0050
3957.00,0.0050
3956.00,0.0050
3955.00,0.0050
3954.00,0.0050
3953.00,0.0050
3952.00,0.0050
3951.00,0.0050
3950.00,0.0050
3949.00,0.0050
3948.00,0.0050
3947.00,0.0050
3946.00,0.0050
3945.00,0.0050
3944.00,0.0050
3943.00,0.0050
3942.00,0.0050
3941.00,0.0050
3940.00,0.0050
3939.00,0.0050
3938.00,0.0050
3937.00,0.0050
3936.00,0.0050
3935.00,0.0050
3934.00,0.0050
3933.00,0.0050
3932.00,0.0050
3931.00,0.0050
3930.00,0.0050
3929.00,0.0050
3928.00,0.0050
3927.00,0.0050
3926.00,0.0050
3925.00,0.0050
3924.00,0.0050
3923.00,0.0050
3922.00,0.0050
3921.00,0.0050
3920.00,0.0050
3919.00,0.0050
3918.00,0.0050
3917.00,0.0050
3916.00,0.0050
3915.00,0.0050
3914.00,0.0050
3913.00,0.0050
3912.00,0.0051
3911.00,0.0051
3910.00,0.0051
3909.00,0.0051
3908.00,0.0050
3907.00,0.0050
3906.00,0.0050
3905.00,0.0050
3904.00,0.0050
3903.00,0.0050
3902.00,0.0049
3901.00,0.0049
3900.00,0.0049
3899.00,0.0049
3898.00,0.0050
3897.00,0.0050
3896.00,0.0050
3895.00,0.0050
3894.00,0.0050
3893.00,0.0050
3892.00,0.0050
3891.00,0.0050
3890.00,0.0050
3889.00,0.0050
3888.00,0.0050
3887.00,0.0050
3886.00,0.0050
3885.00,0.0050
3884.00,0.0049
3883.00,0.0049
3882.00,0.0050
3881.00,0.0050
3880.00,0.0050
3879.00,0.0050
3878.00,0.0050
3877.00,0.0049
3876.00,0.0050
3875.00,0.0050
3874.00,0.0050
3873.00,0.0049
3872.00,0.0049
3871.00,0.0049
3870.00,0.0049
3869.00,0.0050
3868.00,0.0050
3867.00,0.0050
3866.00,0.0050
3865.00,0.0050
3864.00,0.0050
3863.00,0.0050
3862.00,0.0050
3861.00,0.0050
3860.00,0.0050
3859.00,0.0050
3858.00,0.0049
3857.00,0.0049
3856.00,0.0049
3855.00,0.0050
3854.00,0.0050
3853.00,0.0050
3852.00,0.0050
3851.00,0.0050
3850.00,0.0050
3849.00,0.0050
3848.00,0.0050
3847.00,0.0050
3846.00,0.0050
3845.00,0.0050
3844.00,0.0050
3843.00,0.0050
3842.00,0.0050
3841.00,0.0050
3840.00,0.0049
3839.00,0.0049
3838.00,0.0049
3837.00,0.0049
3836.00,0.0049
3835.00,0.0049
3834.00,0.0050
3833.00,0.0050
3832.00,0.0050
3831.00,0.0050
3830.00,0.0049
3829.00,0.0050
3828.00,0.0050
3827.00,0.0050
3826.00,0.0050
3825.00,0.0050
3824.00,0.0050
3823.00,0.0051
3822.00,0.0051
3821.00,0.0050
3820.00,0.0050
3819.00,0.0050
3818.00,0.0050
3817.00,0.0050
3816.00,0.0050
3815.00,0.0050
3814.00,0.0050
3813.00,0.0050
3812.00,0.0050
3811.00,0.0050
3810.00,0.0050
3809.00,0.0050
3808.00,0.0050
3807.00,0.0050
3806.00,0.0050
3805.00,0.0050
3804.00,0.0050
3803.00,0.0050
3802.00,0.0050
3801.00,0.0050
3800.00,0.0050
3799.00,0.0050
3798.00,0.0050
3797.00,0.0050
3796.00,0.0050
3795.00,0.0050
3794.00,0.0050
3793.00,0.0050
3792.00,0.0050
3791.00,0.0050
3790.00,0.0050
3789.00,0.0050
3788.00,0.0051
3787.00,0.0050
3786.00,0.0050
3785.00,0.0050
3784.00,0.0050
3783.00,0.0050
3782.00,0.0049
3781.00,0.0049
3780.00,0.0049
3779.00,0.0050
3778.00,0.0050
3777.00,0.0050
3776.00,0.0051
3775.00,0.0051
3774.00,0.0051
3773.00,0.0051
3772.00,0.0051
3771.00,0.0051
3770.00,0.0050
3769.00,0.0050
3768.00,0.0050
3767.00,0.0050
3766.00,0.0050
3765.00,0.0050
3764.00,0.0050
3763.00,0.0050
3762.00,0.0050
3761.00,0.0050
3760.00,0.0050
3759.00,0.0050
3758.00,0.0050
3757.00,0.0049
3756.00,0.0049
3755.00,0.0049
3754.00,0.0050
3753.00,0.0050
3752.00,0.0050
3751.00,0.0050
3750.00,0.0050
3749.00,0.0050
3748.00,0.0050
3747.00,0.0051
3746.00,0.0051
3745.00,0.0051
3744.00,0.0051
3743.00,0.0050
3742.00,0.0050
3741.00,0.0050
3740.00,0.0050
3739.00,0.0050
3738.00,0.0049
3737.00,0.0049
3736.00,0.0048
3735.00,0.0048
3734.00,0.0048
3733.00,0.0048
3732.00,0.0048
3731.00,0.0048
3730.00,0.0047
3729.00,0.0048
3728.00,0.0048
3727.00,0.0048
3726.00,0.0048
3725.00,0.0048
3724.00,0.0048
3723.00,0.0048
3722.00,0.0049
3721.00,0.0048
3720.00,0.0048
3719.00,0.0048
3718.00,0.0048
3717.00,0.0048
3716.00,0.0048
3715.00,0.0049
3714.00,0.0049
3713.00,0.0049
3712.00,0.0049
3711.00,0.0049
3710.00,0.0049
3709.00,0.0049
3708.00,0.0049
3707.00,0.0048
3706.00,0.0048
3705.00,0.0048
3704.00,0.0048
3703.00,0.0048
3702.00,0.0049
3701.00,0.0049
3700.00,0.0049
3699.00,0.0048
3698.00,0.0048
3697.00,0.0048
3696.00,0.0049
3695.00,0.0049
3694.00,0.0049
3693.00,0.0049
3692.00,0.0049
3691.00,0.0049
3690.00,0.0049
3689.00,0.0050
3688.00,0.0050
3687.00,0.0050
3686.00,0.0050
3685.00,0.0050
3684.00,0.0050
3683.00,0.0051
3682.00,0.0051
3681.00,0.0051
3680.00,0.0051
3679.00,0.0051
3678.00,0.0051
3677.00,0.0051
3676.00,0.0051
3675.00,0.0051
3674.00,0.0050
3673.00,0.0050
3672.00,0.0050
3671.00,0.0051
3670.00,0.0051
3669.00,0.0051
3668.00,0.0051
3667.00,0.0051
3666.00,0.0050
3665.00,0.0050
3664.00,0.0051
3663.00,0.0051
3662.00,0.0051
3661.00,0.0052
3660.00,0.0052
3659.00,0.0052
3658.00,0.0052
3657.00,0.0052
3656.00,0.0052
3655.00,0.0052
3654.00,0.0052
3653.00,0.0052
3652.00,0.0053
3651.00,0.0053
3650.00,0.0053
3649.00,0.0054
3648.00,0.0054
3647.00,0.0054
3646.00,0.0054
3645.00,0.0055
3644.00,0.0055
3643.00,0.0055
3642.00,0.0055
3641.00,0.0056
3640.00,0.0056
3639.00,0.0056
3638.00,0.0056
3637.00,0.0056
3636.00,0.0057
3635.00,0.0057
3634.00,0.0057
3633.00,0.0058
3632.00,0.0058
3631.00,0.0058
3630.00,0.0058
3629.00,0.0058
3628.00,0.0058
3627.00,0.0058
3626.00,0.0059
3625.00,0.0059
3624.00,0.0060
3623.00,0.0060
3622.00,0.0061
3621.00,0.0061
3620.00,0.0061
3619.00,0.0062
3618.00,0.0062
3617.00,0.0062
3616.00,0.0062
3615.00,0.0063
3614.00,0.0063
3613.00,0.0064
3612.00,0.0064
3611.00,0.0065
3610.00,0.0065
3609.00,0.0065
3608.00,0.0066
3607.00,0.0066
3606.00,0.0067
3605.00,0.0067
3604.00,0.0067
3603.00,0.0067
3602.00,0.0068
3601.00,0.0068
3600.00,0.0069
3599.00,0.0069
3598.00,0.0069
3597.00,0.0069
3596.00,0.0070
3595.00,0.0070
3594.00,0.0071
3593.00,0.0072
3592.00,0.0072
3591.00,0.0073
3590.00,0.0074
3589.00,0.0075
3588.00,0.0075
3587.00,0.0076
3586.00,0.0077
3585.00,0.0077
3584.00,0.0077
3583.00,0.0078
3582.00,0.0078
3581.00,0.0079
3580.00,0.0079
3579.00,0.0079
3578.00,0.0080
3577.00,0.0081
3576.00,0.0081
3575.00,0.0082
3574.00,0.0083
3573.00,0.0083
3572.00,0.0084
3571.00,0.0084
3570.00,0.0085
3569.00,0.0085
3568.00,0.0086
3567.00,0.0087
3566.00,0.0088
3565.00,0.0089
3564.00,0.0089
3563.00,0.0089
3562.00,0.0090
3561.00,0.0090
3560.00,0.0091
3559.00,0.0091
3558.00,0.0092
3557.00,0.0092
3556.00,0.0092
3555.00,0.0093
3554.00,0.0094
3553.00,0.0095
3552.00,0.0095
3551.00,0.0096
3550.00,0.0096
3549.00,0.0097
3548.00,0.0097
3547.00,0.0098
3546.00,0.0099
3545.00,0.0099
3544.00,0.0099
3543.00,0.0100
3542.00,0.0100
3541.00,0.0100
3540.00,0.0100
3539.00,0.0101
3538.00,0.0101
3537.00,0.0101
3536.00,0.0102
3535.00,0.0102
3534.00,0.0103
3533.00,0.0103
3532.00,0.0103
3531.00,0.0104
3530.00,0.0104
3529.00,0.0104
3528.00,0.0105
3527.00,0.0105
3526.00,0.0105
3525.00,0.0106
3524.00,0.0107
3523.00,0.0107
3522.00,0.0108
3521.00,0.0108
3520.00,0.0108
3519.00,0.0109
3518.00,0.0109
3517.00,0.0110
3516.00,0.0110
3515.00,0.0111
3514.00,0.0111
3513.00,0.0111
3512.00,0.0111
3511.00,0.0112
3510.00,0.0112
3509.00,0.0112
3508.00,0.0113
3507.00,0.0113
3506.00,0.0113
3505.00,0.0114
3504.00,0.0114
3503.00,0.0115
3502.00,0.0115
3501.00,0.0116
3500.00,0.0116
3499.00,0.0117
3498.00,0.0117
3497.00,0.0117
3496.00,0.0118
3495.00,0.0118
3494.00,0.0119
3493.00,0.0119
3492.00,0.0119
3491.00,0.0120
3490.00,0.0120
3489.00,0.0120
3488.00,0.0121
3487.00,0.0121
3486.00,0.0122
3485.00,0.0122
3484.00,0.0123
3483.00,0.0124
3482.00,0.0124
3481.00,0.0125
3480.00,0.0125
3479.00,0.0126
3478.00,0.0126
3477.00,0.0126
3476.00,0.0127
3475.00,0.0127
3474.00,0.0127
3473.00,0.0127
3472.00,0.0128
3471.00,0.0128
3470.00,0.0128
3469.00,0.0129
3468.00,0.0129
3467.00,0.0130
3466.00,0.0130
3465.00,0.0130
3464.00,0.0130
3463.00,0.0131
3462.00,0.0131
3461.00,0.0132
3460.00,0.0132
3459.00,0.0132
3458.00,0.0132
3457.00,0.0133
3456.00,0.0133
3455.00,0.0133
3454.00,0.0133
3453.00,0.0133
3452.00,0.0134
3451.00,0.0134
3450.00,0.0134
3449.00,0.0134
3448.00,0.0135
3447.00,0.0135
3446.00,0.0135
3445.00,0.0136
3444.00,0.0136
3443.00,0.0136
3442.00,0.0136
3441.00,0.0136
3440.00,0.0137
3439.00,0.0137
3438.00,0.0137
3437.00,0.0137
3436.00,0.0137
3435.00,0.0137
3434.00,0.0137
3433.00,0.0137
3432.00,0.0138
3431.00,0.0138
3430.00,0.0138
3429.00,0.0139
3428.00,0.0139
3427.00,0.0139
3426.00,0.0139
3425.00,0.0139
3424.00,0.0140
3423.00,0.0140
3422.00,0.0140
3421.00,0.0140
3420.00,0.0140
3419.00,0.0141
3418.00,0.0141
3417.00,0.0141
3416.00,0.0141
3415.00,0.0141
3414.00,0.0141
3413.00,0.0141
3412.00,0.0141
3411.00,0.0142
3410.00,0.0142
3409.00,0.0142
3408.00,0.0143
3407.00,0.0143
3406.00,0.0143
3405.00,0.0143
3404.00,0.0143
3403.00,0.0143
3402.00,0.0143
3401.00,0.0143
3400.00,0.0144
3399.00,0.0144
3398.00,0.0145
3397.00,0.0145
3396.00,0.0145
3395.00,0.0145
3394.00,0.0145
3393.00,0.0145
3392.00,0.0146
3391.00,0.0146
3390.00,0.0147
3389.00,0.0148
3388.00,0.0148
3387.00,0.0149
3386.00,0.0149
3385.00,0.0149
3384.00,0.0149
3383.00,0.0150
3382.00,0.0150
3381.00,0.0150
3380.00,0.0150
3379.00,0.0150
3378.00,0.0150
3377.00,0.0151
3376.00,0.0151
3375.00,0.0152
3374.00,0.0152
3373.00,0.0151
3372.00,0.0150
3371.00,0.0150
3370.00,0.0149
3369.00,0.0149
3368.00,0.0150
3367.00,0.0152
3366.00,0.0153
3365.00,0.0154
3364.00,0.0155
3363.00,0.0155
3362.00,0.0155
3361.00,0.0156
3360.00,0.0156
3359.00,0.0157
3358.00,0.0157
3357.00,0.0158
3356.00,0.0158
3355.00,0.0158
3354.00,0.0157
3353.00,0.0157
3352.00,0.0156
3351.00,0.0156
3350.00,0.0157
3349.00,0.0158
3348.00,0.0159
3347.00,0.0160
3346.00,0.0160
3345.00,0.0160
3344.00,0.0159
3343.00,0.0159
3342.00,0.0159
3341.00,0.0158
3340.00,0.0158
3339.00,0.0158
3338.00,0.0159
3337.00,0.0160
3336.00,0.0161
3335.00,0.0162
3334.00,0.0162
3333.00,0.0162
3332.00,0.0162
3331.00,0.0162
3330.00,0.0162
3329.00,0.0162
3328.00,0.0161
3327.00,0.0160
3326.00,0.0160
3325.00,0.0160
3324.00,0.0161
3323.00,0.0162
3322.00,0.0162
3321.00,0.0163
3320.00,0.0163
3319.00,0.0163
3318.00,0.0163
3317.00,0.0164
3316.00,0.0164
3315.00,0.0164
3314.00,0.0164
3313.00,0.0164
3312.00,0.0163
3311.00,0.0162
3310.00,0.0161
3309.00,0.0160
3308.00,0.0159
3307.00,0.0158
3306.00,0.0159
3305.00,0.0160
3304.00,0.0162
3303.00,0.0163
3302.00,0.0164
3301.00,0.0165
3300.00,0.0165
3299.00,0.0164
3298.00,0.0164
3297.00,0.0163
3296.00,0.0163
3295.00,0.0163
3294.00,0.0163
3293.00,0.0163
3292.00,0.0164
3291.00,0.0165
3290.00,0.0166
3289.00,0.0166
3288.00,0.0166
3287.00,0.0166
3286.00,0.0166
3285.00,0.0166
3284.00,0.0166
3283.00,0.0166
3282.00,0.0166
3281.00,0.0166
3280.00,0.0166
3279.00,0.0166
3278.00,0.0166
3277.00,0.0165
3276.00,0.0165
3275.00,0.0165
3274.00,0.0165
3273.00,0.0164
3272.00,0.0164
3271.00,0.0164
3270.00,0.0164
3269.00,0.0165
3268.00,0.0165
3267.00,0.0165
3266.00,0.0166
3265.00,0.0166
3264.00,0.0165
3263.00,0.0165
3262.00,0.0165
3261.00,0.0165
3260.00,0.0165
3259.00,0.0165
3258.00,0.0164
3257.00,0.0164
3256.00,0.0164
3255.00,0.0164
3254.00,0.0164
3253.00,0.0165
3252.00,0.0165
3251.00,0.0165
3250.00,0.0165
3249.00,0.0164
3248.00,0.0164
3247.00,0.0164
3246.00,0.0164
3245.00,0.0164
3244.00,0.0164
3243.00,0.0164
3242.00,0.0164
3241.00,0.0164
3240.00,0.0165
3239.00,0.0164
3238.00,0.0164
3237.00,0.0164
3236.00,0.0163
3235.00,0.0163
3234.00,0.0163
3233.00,0.0163
3232.00,0.0164
3231.00,0.0164
3230.00,0.0164
3229.00,0.0164
3228.00,0.0164
3227.00,0.0164
3226.00,0.0164
3225.00,0.0164
3224.00,0.0164
3223.00,0.0164
3222.00,0.0164
3221.00,0.0163
3220.00,0.0163
3219.00,0.0162
3218.00,0.0162
3217.00,0.0162
3216.00,0.0162
3215.00,0.0162
3214.00,0.0162
3213.00,0.0162
3212.00,0.0162
3211.00,0.0162
3210.00,0.0162
3209.00,0.0161
3208.00,0.0161
3207.00,0.0161
3206.00,0.0161
3205.00,0.0160
3204.00,0.0160
3203.00,0.0160
3202.00,0.0160
3201.00,0.0159
3200.00,0.0159
3199.00,0.0159
3198.00,0.0159
3197.00,0.0159
3196.00,0.0159
3195.00,0.0158
3194.00,0.0158
3193.00,0.0158
3192.00,0.0157
3191.00,0.0157
3190.00,0.0157
3189.00,0.0157
3188.00,0.0157
3187.00,0.0157
3186.00,0.0157
3185.00,0.0157
3184.00,0.0157
3183.00,0.0157
3182.00,0.0156
3181.00,0.0156
3180.00,0.0156
3179.00,0.0156
3178.00,0.0156
3177.00,0.0156
3176.00,0.0156
3175.00,0.0155
3174.00,0.0155
3173.00,0.0155
3172.00,0.0155
3171.00,0.0155
3170.00,0.0155
3169.00,0.0155
3168.00,0.0154
3167.00,0.0154
3166.00,0.0154
3165.00,0.0153
3164.00,0.0153
3163.00,0.0152
3162.00,0.0152
3161.00,0.0152
3160.00,0.0152
3159.00,0.0152
3158.00,0.0152
3157.00,0.0152
3156.00,0.0151
3155.00,0.0151
3154.00,0.0150
3153.00,0.0150
3152.00,0.0150
3151.00,0.0150
3150.00,0.0150
3149.00,0.0149
3148.00,0.0149
3147.00,0.0149
3146.00,0.0149
3145.00,0.0148
3144.00,0.0148
3143.00,0.0148
3142.00,0.0148
3141.00,0.0147
3140.00,0.0147
3139.00,0.0147
3138.00,0.0147
3137.00,0.0147
3136.00,0.0147
3135.00,0.0147
3134.00,0.0146
3133.00,0.0146
3132.00,0.0146
3131.00,0.0146
3130.00,0.0146
3129.00,0.0147
3128.00,0.0147
3127.00,0.0147
3126.00,0.0147
3125.00,0.0146
3124.00,0.0146
3123.00,0.0146
3122.00,0.0145
3121.00,0.0145
3120.00,0.0145
3119.00,0.0145
3118.00,0.0145
3117.00,0.0145
3116.00,0.0145
3115.00,0.0145
3114.00,0.0144
3113.00,0.0144
3112.00,0.0144
3111.00,0.0143
3110.00,0.0143
3109.00,0.0143
3108.00,0.0143
3107.00,0.0143
3106.00,0.0142
3105.00,0.0142
3104.00,0.0142
3103.00,0.0142
3102.00,0.0141
3101.00,0.0141
3100.00,0.0141
3099.00,0.0141
3098.00,0.0141
3097.00,0.0140
3096.00,0.0140
3095.00,0.0141
3094.00,0.0141
3093.00,0.0141
3092.00,0.0141
3091.00,0.0141
3090.00,0.0141
3089.00,0.0140
3088.00,0.0140
3087.00,0.0140
3086.00,0.0140
3085.00,0.0140
3084.00,0.0140
3083.00,0.0140
3082.00,0.0140
3081.00,0.0140
3080.00,0.0140
3079.00,0.0140
3078.00,0.0141
3077.00,0.0140
3076.00,0.0140
3075.00,0.0140
3074.00,0.0140
3073.00,0.0140
3072.00,0.0140
3071.00,0.0140
3070.00,0.0139
3069.00,0.0139
3068.00,0.0139
3067.00,0.0138
3066.00,0.0138
3065.00,0.0138
3064.00,0.0137
3063.00,0.0137
3062.00,0.0136
3061.00,0.0136
3060.00,0.0136
3059.00,0.0135
3058.00,0.0135
3057.00,0.0135
3056.00,0.0134
3055.00,0.0134
3054.00,0.0134
3053.00,0.0134
3052.00,0.0134
3051.00,0.0134
3050.00,0.0134
3049.00,0.0134
3048.00,0.0134
3047.00,0.0133
3046.00,0.0133
3045.00,0.0133
3044.00,0.0133
3043.00,0.0132
3042.00,0.0132
3041.00,0.0132
3040.00,0.0132
3039.00,0.0132
3038.00,0.0132
3037.00,0.0132
3036.00,0.0132
3035.00,0.0132
3034.00,0.0132
3033.00,0.0132
3032.00,0.0131
3031.00,0.0131
3030.00,0.0131
3029.00,0.0131
3028.00,0.0131
3027.00,0.0130
3026.00,0.0130
3025.00,0.0130
3024.00,0.0130
3023.00,0.0130
3022.00,0.0130
3021.00,0.0130
3020.00,0.0131
3019.00,0.0131
3018.00,0.0131
3017.00,0.0132
3016.00,0.0132
3015.00,0.0132
3014.00,0.0133
3013.00,0.0134
3012.00,0.0135
3011.00,0.0137
3010.00,0.0138
3009.00,0.0140
3008.00,0.0142
3007.00,0.0144
3006.00,0.0146
3005.00,0.0148
3004.00,0.0150
3003.00,0.0153
3002.00,0.0156
3001.00,0.0159
3000.00,0.0162
2999.00,0.0166
2998.00,0.0170
2997.00,0.0175
2996.00,0.0180
2995.00,0.0185
2994.00,0.0190
2993.00,0.0195
2992.00,0.0201
2991.00,0.0207
2990.00,0.0213
2989.00,0.0219
2988.00,0.0225
2987.00,0.0230
2986.00,0.0236
2985.00,0.0240
2984.00,0.0245
2983.00,0.0249
2982.00,0.0253
2981.00,0.0258
2980.00,0.0262
2979.00,0.0266
2978.00,0.0270
2977.00,0.0274
2976.00,0.0277
2975.00,0.0280
2974.00,0.0284
2973.00,0.0286
2972.00,0.0289
2971.00,0.0292
2970.00,0.0296
2969.00,0.0299
2968.00,0.0303
2967.00,0.0307
2966.00,0.0311
2965.00,0.0315
2964.00,0.0320
2963.00,0.0324
2962.00,0.0328
2961.00,0.0332
2960.00,0.0336
2959.00,0.0340
2958.00,0.0344
2957.00,0.0347
2956.00,0.0350
2955.00,0.0352
2954.00,0.0354
2953.00,0.0355
2952.00,0.0356
2951.00,0.0356
2950.00,0.0356
2949.00,0.0355
2948.00,0.0355
2947.00,0.0354
2946.00,0.0354
2945.00,0.0354
2944.00,0.0355
2943.00,0.0355
2942.00,0.0356
2941.00,0.0358
2940.00,0.0359
2939.00,0.0361
2938.00,0.0363
2937.00,0.0366
2936.00,0.0369
2935.00,0.0372
2934.00,0.0375
2933.00,0.0378
2932.00,0.0381
2931.00,0.0384
2930.00,0.0387
2929.00,0.0390
2928.00,0.0392
2927.00,0.0393
2926.00,0.0394
2925.00,0.0395
2924.00,0.0394
2923.00,0.0393
2922.00,0.0392
2921.00,0.0389
2920.00,0.0386
2919.00,0.0382
2918.00,0.0378
2917.00,0.0373
2916.00,0.0368
2915.00,0.0362
2914.00,0.0356
2913.00,0.0350
2912.00,0.0344
2911.00,0.0339
2910.00,0.0333
2909.00,0.0328
2908.00,0.0322
2907.00,0.0317
2906.00,0.0313
2905.00,0.0309
2904.00,0.0305
2903.00,0.0302
2902.00,0.0300
2901.00,0.0298
2900.00,0.0296
2899.00,0.0295
2898.00,0.0294
2897.00,0.0293
2896.00,0.0292
2895.00,0.0292
2894.00,0.0291
2893.00,0.0290
2892.00,0.0290
2891.00,0.0289
2890.00,0.0289
2889.00,0.0288
2888.00,0.0288
2887.00,0.0287
2886.00,0.0287
2885.00,0.0287
2884.00,0.0287
2883.00,0.0287
2882.00,0.0288
2881.00,0.0289
2880.00,0.0290
2879.00,0.0291
2878.00,0.0292
2877.00,0.0293
2876.00,0.0294
2875.00,0.0295
2874.00,0.0296
2873.00,0.0298
2872.00,0.0299
2871.00,0.0299
2870.00,0.0299
2869.00,0.0299
2868.00,0.0298
2867.00,0.0296
2866.00,0.0296
2865.00,0.0295
2864.00,0.0295
2863.00,0.0295
2862.00,0.0295
2861.00,0.0295
2860.00,0.0296
2859.00,0.0295
2858.00,0.0295
2857.00,0.0293
2856.00,0.0290
2855.00,0.0287
2854.00,0.0282
2853.00,0.0277
2852.00,0.0272
2851.00,0.0265
2850.00,0.0259
2849.00,0.0253
2848.00,0.0246
2847.00,0.0240
2846.00,0.0234
2845.00,0.0228
2844.00,0.0222
2843.00,0.0217
2842.00,0.0211
2841.00,0.0206
2840.00,0.0201
2839.00,0.0197
2838.00,0.0194
2837.00,0.0191
2836.00,0.0188
2835.00,0.0185
2834.00,0.0182
2833.00,0.0179
2832.00,0.0176
2831.00,0.0174
2830.00,0.0171
2829.00,0.0169
2828.00,0.0166
2827.00,0.0164
2826.00,0.0162
2825.00,0.0160
2824.00,0.0157
2823.00,0.0155
2822.00,0.0154
2821.00,0.0152
2820.00,0.0150
2819.00,0.0148
2818.00,0.0147
2817.00,0.0145
2816.00,0.0144
2815.00,0.0142
2814.00,0.0140
2813.00,0.0139
2812.00,0.0137
2811.00,0.0136
2810.00,0.0134
2809.00,0.0133
2808.00,0.0132
2807.00,0.0131
2806.00,0.0130
2805.00,0.0129
2804.00,0.0128
2803.00,0.0127
2802.00,0.0126
2801.00,0.0125
2800.00,0.0124
2799.00,0.0123
2798.00,0.0122
2797.00,0.0122
2796.00,0.0121
2795.00,0.0120
2794.00,0.0119
2793.00,0.0118
2792.00,0.0117
2791.00,0.0117
2790.00,0.0116
2789.00,0.0115
2788.00,0.0115
2787.00,0.0115
2786.00,0.0114
2785.00,0.0114
2784.00,0.0114
2783.00,0.0113
2782.00,0.0112
2781.00,0.0112
2780.00,0.0111
2779.00,0.0110
2778.00,0.0110
2777.00,0.0110
2776.00,0.0109
2775.00,0.0109
2774.00,0.0109
2773.00,0.0108
2772.00,0.0108
2771.00,0.0107
2770.00,0.0107
2769.00,0.0107
2768.00,0.0106
2767.00,0.0106
2766.00,0.0106
2765.00,0.0105
2764.00,0.0105
2763.00,0.0105
2762.00,0.0105
2761.00,0.0105
2760.00,0.0105
2759.00,0.0105
2758.00,0.0105
2757.00,0.0105
2756.00,0.0105
2755.00,0.0105
2754.00,0.0105
2753.00,0.0105
2752.00,0.0105
2751.00,0.0105
2750.00,0.0104
2749.00,0.0104
2748.00,0.0104
2747.00,0.0105
2746.00,0.0105
2745.00,0.0105
2744.00,0.0105
2743.00,0.0105
2742.00,0.0105
2741.00,0.0105
2740.00,0.0105
2739.00,0.0105
2738.00,0.0105
2737.00,0.0105
2736.00,0.0105
2735.00,0.0105
2734.00,0.0105
2733.00,0.0105
2732.00,0.0105
2731.00,0.0105
2730.00,0.0104
2729.00,0.0104
2728.00,0.0104
2727.00,0.0104
2726.00,0.0104
2725.00,0.0103
2724.00,0.0103
2723.00,0.0103
2722.00,0.0102
2721.00,0.0102
2720.00,0.0102
2719.00,0.0102
2718.00,0.0102
2717.00,0.0101
2716.00,0.0101
2715.00,0.0101
2714.00,0.0101
2713.00,0.0101
2712.00,0.0100
2711.00,0.0100
2710.00,0.0100
2709.00,0.0100
2708.00,0.0100
2707.00,0.0099
2706.00,0.0099
2705.00,0.0099
2704.00,0.0099
2703.00,0.0098
2702.00,0.0098
2701.00,0.0098
2700.00,0.0098
2699.00,0.0097
2698.00,0.0097
2697.00,0.0097
2696.00,0.0097
2695.00,0.0096
2694.00,0.0096
2693.00,0.0096
2692.00,0.0096
2691.00,0.0095
2690.00,0.0095
2689.00,0.0095
2688.00,0.0095
2687.00,0.0095
2686.00,0.0095
2685.00,0.0095
2684.00,0.0095
2683.00,0.0094
2682.00,0.0094
2681.00,0.0094
2680.00,0.0094
2679.00,0.0094
2678.00,0.0093
2677.00,0.0093
2676.00,0.0093
2675.00,0.0093
2674.00,0.0093
2673.00,0.0093
2672.00,0.0093
2671.00,0.0093
2670.00,0.0093
2669.00,0.0093
2668.00,0.0093
2667.00,0.0093
2666.00,0.0093
2665.00,0.0094
2664.00,0.0094
2663.00,0.0094
2662.00,0.0094
2661.00,0.0094
2660.00,0.0095
2659.00,0.0095
2658.00,0.0095
2657.00,0.0095
2656.00,0.0095
2655.00,0.0095
2654.00,0.0095
2653.00,0.0095
2652.00,0.0095
2651.00,0.0095
2650.00,0.0094
2649.00,0.0094
2648.00,0.0094
2647.00,0.0094
2646.00,0.0094
2645.00,0.0094
2644.00,0.0094
2643.00,0.0094
2642.00,0.0093
2641.00,0.0093
2640.00,0.0093
2639.00,0.0092
2638.00,0.0092
2637.00,0.0092
2636.00,0.0092
2635.00,0.0092
2634.00,0.0092
2633.00,0.0092
2632.00,0.0092
2631.00,0.0092
2630.00,0.0092
2629.00,0.0092
2628.00,0.0091
2627.00,0.0091
2626.00,0.0091
2625.00,0.0090
2624.00,0.0090
2623.00,0.0090
2622.00,0.0090
2621.00,0.0090
2620.00,0.0090
2619.00,0.0089
2618.00,0.0089
2617.00,0.0089
2616.00,0.0089
2615.00,0.0089
2614.00,0.0089
2613.00,0.0089
2612.00,0.0089
2611.00,0.0089
2610.00,0.0088
2609.00,0.0088
2608.00,0.0088
2607.00,0.0088
2606.00,0.0088
2605.00,0.0088
2604.00,0.0088
2603.00,0.0088
2602.00,0.0088
2601.00,0.0088
2600.00,0.0088
2599.00,0.0087
2598.00,0.0087
2597.00,0.0086
2596.00,0.0086
2595.00,0.0086
2594.00,0.0086
2593.00,0.0086
2592.00,0.0086
2591.00,0.0085
2590.00,0.0085
2589.00,0.0085
2588.00,0.0085
2587.00,0.0086
2586.00,0.0086
2585.00,0.0086
2584.00,0.0086
2583.00,0.0086
2582.00,0.0085
2581.00,0.0086
2580.00,0.0086
2579.00,0.0086
2578.00,0.0086
2577.00,0.0086
2576.00,0.0086
2575.00,0.0085
2574.00,0.0085
2573.00,0.0085
2572.00,0.0085
2571.00,0.0085
2570.00,0.0085
2569.00,0.0085
2568.00,0.0085
2567.00,0.0084
2566.00,0.0084
2565.00,0.0084
2564.00,0.0084
2563.00,0.0083
2562.00,0.0083
2561.00,0.0083
2560.00,0.0083
2559.00,0.0083
2558.00,0.0082
2557.00,0.0082
2556.00,0.0082
2555.00,0.0082
2554.00,0.0082
2553.00,0.0082
2552.00,0.0081
2551.00,0.0081
2550.00,0.0081
2549.00,0.0081
2548.00,0.0081
2547.00,0.0081
2546.00,0.0081
2545.00,0.0080
2544.00,0.0080
2543.00,0.0080
2542.00,0.0080
2541.00,0.0079
2540.00,0.0079
2539.00,0.0079
2538.00,0.0079
2537.00,0.0079
2536.00,0.0079
2535.00,0.0078
2534.00,0.0078
2533.00,0.0077
2532.00,0.0077
2531.00,0.0077
2530.00,0.0077
2529.00,0.0077
2528.00,0.0077
2527.00,0.0077
2526.00,0.0076
2525.00,0.0076
2524.00,0.0076
2523.00,0.0076
2522.00,0.0075
2521.00,0.0075
2520.00,0.0075
2519.00,0.0074
2518.00,0.0074
2517.00,0.0074
2516.00,0.0074
2515.00,0.0074
2514.00,0.0074
2513.00,0.0074
2512.00,0.0074
2511.00,0.0074
2510.00,0.0074
2509.00,0.0074
2508.00,0.0074
2507.00,0.0074
2506.00,0.0073
2505.00,0.0073
2504.00,0.0073
2503.00,0.0072
2502.00,0.0072
2501.00,0.0072
2500.00,0.0072
2499.00,0.0072
2498.00,0.0072
2497.00,0.0072
2496.00,0.0072
2495.00,0.0071
2494.00,0.0071
2493.00,0.0071
2492.00,0.0071
2491.00,0.0071
2490.00,0.0071
2489.00,0.0072
2488.00,0.0071
2487.00,0.0071
2486.00,0.0071
2485.00,0.0071
2484.00,0.0070
2483.00,0.0070
2482.00,0.0070
2481.00,0.0070
2480.00,0.0070
2479.00,0.0070
2478.00,0.0070
2477.00,0.0070
2476.00,0.0070
2475.00,0.0070
2474.00,0.0070
2473.00,0.0070
2472.00,0.0070
2471.00,0.0070
2470.00,0.0070
2469.00,0.0070
2468.00,0.0070
2467.00,0.0070
2466.00,0.0070
2465.00,0.0069
2464.00,0.0069
2463.00,0.0070
2462.00,0.0070
2461.00,0.0070
2460.00,0.0069
2459.00,0.0069
2458.00,0.0069
2457.00,0.0070
2456.00,0.0070
2455.00,0.0071
2454.00,0.0071
2453.00,0.0071
2452.00,0.0071
2451.00,0.0071
2450.00,0.0071
2449.00,0.0071
2448.00,0.0070
2447.00,0.0070
2446.00,0.0070
2445.00,0.0070
2444.00,0.0070
2443.00,0.0070
2442.00,0.0070
2441.00,0.0069
2440.00,0.0069
2439.00,0.0069
2438.00,0.0069
2437.00,0.0068
2436.00,0.0068
2435.00,0.0068
2434.00,0.0068
2433.00,0.0068
2432.00,0.0069
2431.00,0.0069
2430.00,0.0069
2429.00,0.0069
2428.00,0.0069
2427.00,0.0068
2426.00,0.0068
2425.00,0.0068
2424.00,0.0067
2423.00,0.0067
2422.00,0.0067
2421.00,0.0067
2420.00,0.0067
2419.00,0.0068
2418.00,0.0068
2417.00,0.0068
2416.00,0.0068
2415.00,0.0068
2414.00,0.0067
2413.00,0.0067
2412.00,0.0067
2411.00,0.0067
2410.00,0.0067
2409.00,0.0066
2408.00,0.0066
2407.00,0.0065
2406.00,0.0065
2405.00,0.0065
2404.00,0.0065
2403.00,0.0065
2402.00,0.0065
2401.00,0.0065
2400.00,0.0065
2399.00,0.0065
2398.00,0.0065
2397.00,0.0065
2396.00,0.0065
2395.00,0.0065
2394.00,0.0064
2393.00,0.0064
2392.00,0.0064
2391.00,0.0064
2390.00,0.0064
2389.00,0.0064
2388.00,0.0064
2387.00,0.0063
2386.00,0.0063
2385.00,0.0062
2384.00,0.0061
2383.00,0.0061
2382.00,0.0060
2381.00,0.0059
2380.00,0.0059
2379.00,0.0058
2378.00,0.0058
2377.00,0.0058
2376.00,0.0058
2375.00,0.0058
2374.00,0.0058
2373.00,0.0058
2372.00,0.0058
2371.00,0.0057
2370.00,0.0057
2369.00,0.0056
2368.00,0.0056
2367.00,0.0056
2366.00,0.0056
2365.00,0.0056
2364.00,0.0056
2363.00,0.0056
2362.00,0.0056
2361.00,0.0057
2360.00,0.0057
2359.00,0.0057
2358.00,0.0057
2357.00,0.0057
2356.00,0.0057
2355.00,0.0057
2354.00,0.0057
2353.00,0.0057
2352.00,0.0057
2351.00,0.0058
2350.00,0.0058
2349.00,0.0058
2348.00,0.0059
2347.00,0.0059
2346.00,0.0059
2345.00,0.0058
2344.00,0.0058
2343.00,0.0059
2342.00,0.0059
2341.00,0.0060
2340.00,0.0061
2339.00,0.0061
2338.00,0.0062
2337.00,0.0062
2336.00,0.0062
2335.00,0.0062
2334.00,0.0062
2333.00,0.0062
2332.00,0.0062
2331.00,0.0062
2330.00,0.0063
2329.00,0.0065
2328.00,0.0069
2327.00,0.0073
2326.00,0.0075
2325.00,0.0076
2324.00,0.0074
2323.00,0.0072
2322.00,0.0070
2321.00,0.0069
2320.00,0.0068
2319.00,0.0068
2318.00,0.0067
2317.00,0.0067
2316.00,0.0067
2315.00,0.0067
2314.00,0.0067
2313.00,0.0066
2312.00,0.0065
2311.00,0.0064
2310.00,0.0064
2309.00,0.0064
2308.00,0.0065
2307.00,0.0066
2306.00,0.0066
2305.00,0.0067
2304.00,0.0067
2303.00,0.0067
2302.00,0.0066
2301.00,0.0066
2300.00,0.0067
2299.00,0.0067
2298.00,0.0068
2297.00,0.0068
2296.00,0.0069
2295.00,0.0069
2294.00,0.0070
2293.00,0.0071
2292.00,0.0072
2291.00,0.0072
2290.00,0.0073
2289.00,0.0074
2288.00,0.0074
2287.00,0.0074
2286.00,0.0074
2285.00,0.0074
2284.00,0.0073
2283.00,0.0072
2282.00,0.0072
2281.00,0.0071
2280.00,0.0071
2279.00,0.0071
2278.00,0.0070
2277.00,0.0070
2276.00,0.0069
2275.00,0.0068
2274.00,0.0068
2273.00,0.0068
2272.00,0.0068
2271.00,0.0067
2270.00,0.0067
2269.00,0.0066
2268.00,0.0066
2267.00,0.0065
2266.00,0.0065
2265.00,0.0066
2264.00,0.0066
2263.00,0.0067
2262.00,0.0067
2261.00,0.0067
2260.00,0.0067
2259.00,0.0066
2258.00,0.0065
2257.00,0.0064
2256.00,0.0064
2255.00,0.0063
2254.00,0.0063
2253.00,0.0063
2252.00,0.0064
2251.00,0.0064
2250.00,0.0064
2249.00,0.0063
2248.00,0.0063
2247.00,0.0063
2246.00,0.0063
2245.00,0.0063
2244.00,0.0064
2243.00,0.0065
2242.00,0.0065
2241.00,0.0065
2240.00,0.0065
2239.00,0.0065
2238.00,0.0065
2237.00,0.0065
2236.00,0.0065
2235.00,0.0065
2234.00,0.0064
2233.00,0.0064
2232.00,0.0064
2231.00,0.0063
2230.00,0.0063
2229.00,0.0063
2228.00,0.0064
2227.00,0.0064
2226.00,0.0064
2225.00,0.0064
2224.00,0.0064
2223.00,0.0065
2222.00,0.0065
2221.00,0.0065
2220.00,0.0065
2219.00,0.0065
2218.00,0.0064
2217.00,0.0064
2216.00,0.0065
2215.00,0.0065
2214.00,0.0064
2213.00,0.0064
2212.00,0.0064
2211.00,0.0063
2210.00,0.0062
2209.00,0.0062
2208.00,0.0062
2207.00,0.0062
2206.00,0.0062
2205.00,0.0062
2204.00,0.0063
2203.00,0.0062
2202.00,0.0062
2201.00,0.0062
2200.00,0.0062
2199.00,0.0063
2198.00,0.0063
2197.00,0.0064
2196.00,0.0064
2195.00,0.0064
2194.00,0.0064
2193.00,0.0064
2192.00,0.0065
2191.00,0.0066
2190.00,0.0066
2189.00,0.0067
2188.00,0.0067
2187.00,0.0066
2186.00,0.0064
2185.00,0.0062
2184.00,0.0061
2183.00,0.0060
2182.00,0.0059
2181.00,0.0060
2180.00,0.0062
2179.00,0.0062
2178.00,0.0061
2177.00,0.0060
2176.00,0.0060
2175.00,0.0060
2174.00,0.0061
2173.00,0.0063
2172.00,0.0065
2171.00,0.0067
2170.00,0.0068
2169.00,0.0069
2168.00,0.0069
2167.00,0.0069
2166.00,0.0070
2165.00,0.0072
2164.00,0.0075
2163.00,0.0075
2162.00,0.0069
2161.00,0.0057
2160.00,0.0042
2159.00,0.0030
2158.00,0.0025
2157.00,0.0027
2156.00,0.0032
2155.00,0.0036
2154.00,0.0040
2153.00,0.0043
2152.00,0.0045
2151.00,0.0046
2150.00,0.0046
2149.00,0.0045
2148.00,0.0044
2147.00,0.0044
2146.00,0.0043
2145.00,0.0043
2144.00,0.0043
2143.00,0.0043
2142.00,0.0044
2141.00,0.0044
2140.00,0.0045
2139.00,0.0045
2138.00,0.0044
2137.00,0.0041
2136.00,0.0039
2135.00,0.0038
2134.00,0.0038
2133.00,0.0040
2132.00,0.0043
2131.00,0.0046
2130.00,0.0047
2129.00,0.0048
2128.00,0.0048
2127.00,0.0049
2126.00,0.0050
2125.00,0.0050
2124.00,0.0052
2123.00,0.0053
2122.00,0.0054
2121.00,0.0055
2120.00,0.0056
2119.00,0.0056
2118.00,0.0056
2117.00,0.0057
2116.00,0.0058
2115.00,0.0058
2114.00,0.0059
2113.00,0.0059
2112.00,0.0059
2111.00,0.0058
2110.00,0.0058
2109.00,0.0057
2108.00,0.0057
2107.00,0.0057
2106.00,0.0058
2105.00,0.0058
2104.00,0.0059
2103.00,0.0059
2102.00,0.0058
2101.00,0.0058
2100.00,0.0058
2099.00,0.0058
2098.00,0.0057
2097.00,0.0056
2096.00,0.0055
2095.00,0.0054
2094.00,0.0054
2093.00,0.0055
2092.00,0.0056
2091.00,0.0057
2090.00,0.0057
2089.00,0.0057
2088.00,0.0057
2087.00,0.0057
2086.00,0.0057
2085.00,0.0057
2084.00,0.0058
2083.00,0.0059
2082.00,0.0059
2081.00,0.0060
2080.00,0.0060
2079.00,0.0060
2078.00,0.0060
2077.00,0.0060
2076.00,0.0060
2075.00,0.0059
2074.00,0.0059
2073.00,0.0058
2072.00,0.0058
2071.00,0.0057
2070.00,0.0056
2069.00,0.0056
2068.00,0.0056
2067.00,0.0057
2066.00,0.0057
2065.00,0.0058
2064.00,0.0058
2063.00,0.0057
2062.00,0.0056
2061.00,0.0056
2060.00,0.0057
2059.00,0.0057
2058.00,0.0058
2057.00,0.0057
2056.00,0.0057
2055.00,0.0057
2054.00,0.0058
2053.00,0.0062
2052.00,0.0065
2051.00,0.0065
2050.00,0.0062
2049.00,0.0060
2048.00,0.0058
2047.00,0.0057
2046.00,0.0057
2045.00,0.0057
2044.00,0.0058
2043.00,0.0058
2042.00,0.0056
2041.00,0.0056
2040.00,0.0056
2039.00,0.0056
2038.00,0.0056
2037.00,0.0055
2036.00,0.0054
2035.00,0.0052
2034.00,0.0049
2033.00,0.0049
2032.00,0.0050
2031.00,0.0050
2030.00,0.0050
2029.00,0.0051
2028.00,0.0052
2027.00,0.0053
2026.00,0.0052
2025.00,0.0052
2024.00,0.0053
2023.00,0.0053
2022.00,0.0052
2021.00,0.0051
2020.00,0.0051
2019.00,0.0050
2018.00,0.0049
2017.00,0.0048
2016.00,0.0049
2015.00,0.0048
2014.00,0.0048
2013.00,0.0049
2012.00,0.0051
2011.00,0.0051
2010.00,0.0049
2009.00,0.0047
2008.00,0.0046
2007.00,0.0044
2006.00,0.0044
2005.00,0.0045
2004.00,0.0047
2003.00,0.0047
2002.00,0.0047
2001.00,0.0048
2000.00,0.0049
1999.00,0.0049
1998.00,0.0048
1997.00,0.0048
1996.00,0.0049
1995.00,0.0049
1994.00,0.0049
1993.00,0.0049
1992.00,0.0051
1991.00,0.0053
1990.00,0.0055
1989.00,0.0057
1988.00,0.0058
1987.00,0.0059
1986.00,0.0059
1985.00,0.0060
1984.00,0.0063
1983.00,0.0065
1982.00,0.0067
1981.00,0.0068
1980.00,0.0066
1979.00,0.0059
1978.00,0.0052
1977.00,0.0047
1976.00,0.0046
1975.00,0.0045
1974.00,0.0044
1973.00,0.0044
1972.00,0.0045
1971.00,0.0044
1970.00,0.0043
1969.00,0.0044
1968.00,0.0046
1967.00,0.0048
1966.00,0.0048
1965.00,0.0048
1964.00,0.0049
1963.00,0.0048
1962.00,0.0046
1961.00,0.0044
1960.00,0.0043
1959.00,0.0042
1958.00,0.0042
1957.00,0.0044
1956.00,0.0046
1955.00,0.0047
1954.00,0.0047
1953.00,0.0047
1952.00,0.0047
1951.00,0.0047
1950.00,0.0047
1949.00,0.0048
1948.00,0.0049
1947.00,0.0049
1946.00,0.0049
1945.00,0.0049
1944.00,0.0050
1943.00,0.0050
1942.00,0.0050
1941.00,0.0050
1940.00,0.0050
1939.00,0.0050
1938.00,0.0049
1937.00,0.0049
1936.00,0.0049
1935.00,0.0048
1934.00,0.0048
1933.00,0.0048
1932.00,0.0049
1931.00,0.0050
1930.00,0.0050
1929.00,0.0050
1928.00,0.0050
1927.00,0.0050
1926.00,0.0049
1925.00,0.0050
1924.00,0.0051
1923.00,0.0053
1922.00,0.0053
1921.00,0.0054
1920.00,0.0054
1919.00,0.0054
1918.00,0.0053
1917.00,0.0052
1916.00,0.0052
1915.00,0.0051
1914.00,0.0051
1913.00,0.0052
1912.00,0.0053
1911.00,0.0053
1910.00,0.0053
1909.00,0.0053
1908.00,0.0053
1907.00,0.0053
1906.00,0.0052
1905.00,0.0052
1904.00,0.0052
1903.00,0.0051
1902.00,0.0051
1901.00,0.0052
1900.00,0.0053
1899.00,0.0053
1898.00,0.0053
1897.00,0.0053
1896.00,0.0054
1895.00,0.0054
1894.00,0.0053
1893.00,0.0053
1892.00,0.0054
1891.00,0.0054
1890.00,0.0053
1889.00,0.0053
1888.00,0.0053
1887.00,0.0053
1886.00,0.0053
1885.00,0.0053
1884.00,0.0054
1883.00,0.0054
1882.00,0.0054
1881.00,0.0054
1880.00,0.0054
1879.00,0.0054
1878.00,0.0053
1877.00,0.0053
1876.00,0.0053
1875.00,0.0052
1874.00,0.0052
1873.00,0.0052
1872.00,0.0053
1871.00,0.0054
1870.00,0.0054
1869.00,0.0054
1868.00,0.0054
1867.00,0.0054
1866.00,0.0054
1865.00,0.0054
1864.00,0.0054
1863.00,0.0054
1862.00,0.0053
1861.00,0.0053
1860.00,0.0053
1859.00,0.0053
1858.00,0.0053
1857.00,0.0053
1856.00,0.0053
1855.00,0.0053
1854.00,0.0052
1853.00,0.0053
1852.00,0.0053
1851.00,0.0053
1850.00,0.0053
1849.00,0.0054
1848.00,0.0054
1847.00,0.0055
1846.00,0.0056
1845.00,0.0056
1844.00,0.0055
1843.00,0.0054
1842.00,0.0053
1841.00,0.0053
1840.00,0.0053
1839.00,0.0053
1838.00,0.0053
1837.00,0.0053
1836.00,0.0053
1835.00,0.0054
1834.00,0.0054
1833.00,0.0054
1832.00,0.0054
1831.00,0.0054
1830.00,0.0053
1829.00,0.0052
1828.00,0.0052
1827.00,0.0053
1826.00,0.0053
1825.00,0.0053
1824.00,0.0053
1823.00,0.0053
1822.00,0.0053
1821.00,0.0053
1820.00,0.0052
1819.00,0.0051
1818.00,0.0050
1817.00,0.0050
1816.00,0.0050
1815.00,0.0051
1814.00,0.0051
1813.00,0.0052
1812.00,0.0052
1811.00,0.0053
1810.00,0.0053
1809.00,0.0053
1808.00,0.0053
1807.00,0.0053
1806.00,0.0053
1805.00,0.0053
1804.00,0.0054
1803.00,0.0055
1802.00,0.0055
1801.00,0.0056
1800.00,0.0055
1799.00,0.0055
1798.00,0.0054
1797.00,0.0055
1796.00,0.0056
1795.00,0.0057
1794.00,0.0057
1793.00,0.0056
1792.00,0.0056
1791.00,0.0055
1790.00,0.0055
1789.00,0.0055
1788.00,0.0056
1787.00,0.0056
1786.00,0.0056
1785.00,0.0056
1784.00,0.0056
1783.00,0.0056
1782.00,0.0057
1781.00,0.0057
1780.00,0.0057
1779.00,0.0057
1778.00,0.0057
1777.00,0.0057
1776.00,0.0058
1775.00,0.0058
1774.00,0.0059
1773.00,0.0059
1772.00,0.0059
1771.00,0.0058
1770.00,0.0058
1769.00,0.0059
1768.00,0.0060
1767.00,0.0060
1766.00,0.0060
1765.00,0.0060
1764.00,0.0061
1763.00,0.0061
1762.00,0.0061
1761.00,0.0060
1760.00,0.0061
1759.00,0.0062
1758.00,0.0063
1757.00,0.0064
1756.00,0.0064
1755.00,0.0064
1754.00,0.0065
1753.00,0.0066
1752.00,0.0068
1751.00,0.0069
1750.00,0.0070
1749.00,0.0071
1748.00,0.0072
1747.00,0.0073
1746.00,0.0073
1745.00,0.0073
1744.00,0.0075
1743.00,0.0076
1742.00,0.0076
1741.00,0.0076
1740.00,0.0076
1739.00,0.0075
1738.00,0.0075
1737.00,0.0077
1736.00,0.0080
1735.00,0.0083
1734.00,0.0083
1733.00,0.0084
1732.00,0.0087
1731.00,0.0090
1730.00,0.0091
1729.00,0.0092
1728.00,0.0094
1727.00,0.0096
1726.00,0.0097
1725.00,0.0100
1724.00,0.0104
1723.00,0.0107
1722.00,0.0109
1721.00,0.0113
1720.00,0.0117
1719.00,0.0123
1718.00,0.0129
1717.00,0.0137
1716.00,0.0147
1715.00,0.0155
1714.00,0.0162
1713.00,0.0170
1712.00,0.0180
1711.00,0.0191
1710.00,0.0203
1709.00,0.0217
1708.00,0.0234
1707.00,0.0253
1706.00,0.0275
1705.00,0.0300
1704.00,0.0323
1703.00,0.0344
1702.00,0.0370
1701.00,0.0411
1700.00,0.0462
1699.00,0.0507
1698.00,0.0545
1697.00,0.0592
1696.00,0.0653
1695.00,0.0718
1694.00,0.0770
1693.00,0.0813
1692.00,0.0856
1691.00,0.0906
1690.00,0.0960
1689.00,0.1014
1688.00,0.1058
1687.00,0.1094
1686.00,0.1135
1685.00,0.1200
1684.00,0.1281
1683.00,0.1347
1682.00,0.1382
1681.00,0.1404
1680.00,0.1425
1679.00,0.1442
1678.00,0.1454
1677.00,0.1465
1676.00,0.1485
1675.00,0.1511
1674.00,0.1527
1673.00,0.1527
1672.00,0.1521
1671.00,0.1519
1670.00,0.1527
1669.00,0.1541
1668.00,0.1548
1667.00,0.1544
1666.00,0.1533
1665.00,0.1524
1664.00,0.1522
1663.00,0.1531
1662.00,0.1543
1661.00,0.1548
1660.00,0.1546
1659.00,0.1539
1658.00,0.1528
1657.00,0.1509
1656.00,0.1484
1655.00,0.1463
1654.00,0.1465
1653.00,0.1488
1652.00,0.1495
1651.00,0.1468
1650.00,0.1423
1649.00,0.1373
1648.00,0.1329
1647.00,0.1295
1646.00,0.1263
1645.00,0.1223
1644.00,0.1176
1643.00,0.1125
1642.00,0.1075
1641.00,0.1025
1640.00,0.0978
1639.00,0.0932
1638.00,0.0889
1637.00,0.0848
1636.00,0.0813
1635.00,0.0781
1634.00,0.0749
1633.00,0.0718
1632.00,0.0689
1631.00,0.0663
1630.00,0.0641
1629.00,0.0625
1628.00,0.0613
1627.00,0.0607
1626.00,0.0605
1625.00,0.0608
1624.00,0.0619
1623.00,0.0635
1622.00,0.0650
1621.00,0.0659
1620.00,0.0661
1619.00,0.0659
1618.00,0.0654
1617.00,0.0649
1616.00,0.0640
1615.00,0.0627
1614.00,0.0611
1613.00,0.0595
1612.00,0.0581
1611.00,0.0569
1610.00,0.0558
1609.00,0.0544
1608.00,0.0526
1607.00,0.0505
1606.00,0.0482
1605.00,0.0456
1604.00,0.0430
1603.00,0.0406
1602.00,0.0384
1601.00,0.0365
1600.00,0.0348
1599.00,0.0335
1598.00,0.0324
1597.00,0.0317
1596.00,0.0314
1595.00,0.0316
1594.00,0.0322
1593.00,0.0332
1592.00,0.0347
1591.00,0.0366
1590.00,0.0388
1589.00,0.0411
1588.00,0.0431
1587.00,0.0447
1586.00,0.0456
1585.00,0.0457
1584.00,0.0451
1583.00,0.0439
1582.00,0.0422
1581.00,0.0403
1580.00,0.0383
1579.00,0.0365
1578.00,0.0349
1577.00,0.0335
1576.00,0.0323
1575.00,0.0312
1574.00,0.0302
1573.00,0.0292
1572.00,0.0283
1571.00,0.0275
1570.00,0.0268
1569.00,0.0261
1568.00,0.0254
1567.00,0.0249
1566.00,0.0244
1565.00,0.0238
1564.00,0.0233
1563.00,0.0228
1562.00,0.0224
1561.00,0.0220
1560.00,0.0215
1559.00,0.0212
1558.00,0.0209
1557.00,0.0204
1556.00,0.0201
1555.00,0.0200
1554.00,0.0199
1553.00,0.0196
1552.00,0.0194
1551.00,0.0193
1550.00,0.0192
1549.00,0.0190
1548.00,0.0188
1547.00,0.0186
1546.00,0.0185
1545.00,0.0184
1544.00,0.0184
1543.00,0.0184
1542.00,0.0184
1541.00,0.0184
1540.00,0.0185
1539.00,0.0186
1538.00,0.0186
1537.00,0.0187
1536.00,0.0187
1535.00,0.0188
1534.00,0.0189
1533.00,0.0190
1532.00,0.0191
1531.00,0.0192
1530.00,0.0193
1529.00,0.0193
1528.00,0.0193
1527.00,0.0193
1526.00,0.0194
1525.00,0.0194
1524.00,0.0194
1523.00,0.0195
1522.00,0.0198
1521.00,0.0201
1520.00,0.0204
1519.00,0.0206
1518.00,0.0208
1517.00,0.0212
1516.00,0.0215
1515.00,0.0217
1514.00,0.0219
1513.00,0.0221
1512.00,0.0222
1511.00,0.0225
1510.00,0.0228
1509.00,0.0232
1508.00,0.0239
1507.00,0.0250
1506.00,0.0259
1505.00,0.0265
1504.00,0.0272
1503.00,0.0282
1502.00,0.0296
1501.00,0.0314
1500.00,0.0333
1499.00,0.0355
1498.00,0.0378
1497.00,0.0401
1496.00,0.0419
1495.00,0.0430
1494.00,0.0432
1493.00,0.0429
1492.00,0.0421
1491.00,0.0410
1490.00,0.0397
1489.00,0.0381
1488.00,0.0362
1487.00,0.0341
1486.00,0.0320
1485.00,0.0302
1484.00,0.0285
1483.00,0.0271
1482.00,0.0260
1481.00,0.0252
1480.00,0.0246
1479.00,0.0242
1478.00,0.0242
1477.00,0.0245
1476.00,0.0250
1475.00,0.0259
1474.00,0.0273
1473.00,0.0295
1472.00,0.0322
1471.00,0.0350
1470.00,0.0378
1469.00,0.0409
1468.00,0.0442
1467.00,0.0479
1466.00,0.0521
1465.00,0.0568
1464.00,0.0612
1463.00,0.0645
1462.00,0.0668
1461.00,0.0680
1460.00,0.0685
1459.00,0.0682
1458.00,0.0673
1457.00,0.0659
1456.00,0.0637
1455.00,0.0610
1454.00,0.0584
1453.00,0.0562
1452.00,0.0545
1451.00,0.0535
1450.00,0.0532
1449.00,0.0538
1448.00,0.0551
1447.00,0.0569
1446.00,0.0589
1445.00,0.0610
1444.00,0.0633
1443.00,0.0659
1442.00,0.0684
1441.00,0.0709
1440.00,0.0732
1439.00,0.0754
1438.00,0.0781
1437.00,0.0817
1436.00,0.0856
1435.00,0.0885
1434.00,0.0903
1433.00,0.0917
1432.00,0.0931
1431.00,0.0946
1430.00,0.0963
1429.00,0.0982
1428.00,0.1002
1427.00,0.1023
1426.00,0.1047
1425.00,0.1076
1424.00,0.1107
1423.00,0.1130
1422.00,0.1139
1421.00,0.1137
1420.00,0.1125
1419.00,0.1102
1418.00,0.1066
1417.00,0.1017
1416.00,0.0960
1415.00,0.0900
1414.00,0.0843
1413.00,0.0792
1412.00,0.0749
1411.00,0.0713
1410.00,0.0685
1409.00,0.0664
1408.00,0.0648
1407.00,0.0638
1406.00,0.0633
1405.00,0.0632
1404.00,0.0631
1403.00,0.0628
1402.00,0.0621
1401.00,0.0610
1400.00,0.0595
1399.00,0.0576
1398.00,0.0554
1397.00,0.0530
1396.00,0.0504
1395.00,0.0479
1394.00,0.0456
1393.00,0.0437
1392.00,0.0420
1391.00,0.0408
1390.00,0.0400
1389.00,0.0396
1388.00,0.0398
1387.00,0.0403
1386.00,0.0411
1385.00,0.0420
1384.00,0.0430
1383.00,0.0442
1382.00,0.0456
1381.00,0.0468
1380.00,0.0480
1379.00,0.0489
1378.00,0.0495
1377.00,0.0498
1376.00,0.0498
1375.00,0.0498
1374.00,0.0497
1373.00,0.0494
1372.00,0.0489
1371.00,0.0483
1370.00,0.0476
1369.00,0.0471
1368.00,0.0466
1367.00,0.0462
1366.00,0.0460
1365.00,0.0459
1364.00,0.0462
1363.00,0.0467
1362.00,0.0471
1361.00,0.0471
1360.00,0.0464
1359.00,0.0452
1358.00,0.0436
1357.00,0.0417
1356.00,0.0398
1355.00,0.0379
1354.00,0.0364
1353.00,0.0351
1352.00,0.0340
1351.00,0.0332
1350.00,0.0325
1349.00,0.0320
1348.00,0.0316
1347.00,0.0312
1346.00,0.0309
1345.00,0.0307
1344.00,0.0304
1343.00,0.0303
1342.00,0.0302
1341.00,0.0303
1340.00,0.0305
1339.00,0.0307
1338.00,0.0310
1337.00,0.0311
1336.00,0.0313
1335.00,0.0315
1334.00,0.0318
1333.00,0.0322
1332.00,0.0327
1331.00,0.0332
1330.00,0.0339
1329.00,0.0346
1328.00,0.0354
1327.00,0.0363
1326.00,0.0374
1325.00,0.0385
1324.00,0.0397
1323.00,0.0409
1322.00,0.0422
1321.00,0.0434
1320.00,0.0445
1319.00,0.0454
1318.00,0.0460
1317.00,0.0464
1316.00,0.0464
1315.00,0.0462
1314.00,0.0458
1313.00,0.0453
1312.00,0.0448
1311.00,0.0443
1310.00,0.0439
1309.00,0.0437
1308.00,0.0436
1307.00,0.0438
1306.00,0.0442
1305.00,0.0447
1304.00,0.0456
1303.00,0.0467
1302.00,0.0481
1301.00,0.0501
1300.00,0.0525
1299.00,0.0556
1298.00,0.0594
1297.00,0.0639
1296.00,0.0691
1295.00,0.0749
1294.00,0.0810
1293.00,0.0873
1292.00,0.0937
1291.00,0.1000
1290.00,0.1059
1289.00,0.1113
1288.00,0.1159
1287.00,0.1196
1286.00,0.1221
1285.00,0.1233
1284.00,0.1232
1283.00,0.1221
1282.00,0.1201
1281.00,0.1177
1280.00,0.1151
1279.00,0.1128
1278.00,0.1110
1277.00,0.1099
1276.00,0.1095
1275.00,0.1096
1274.00,0.1101
1273.00,0.1106
1272.00,0.1110
1271.00,0.1109
1270.00,0.1102
1269.00,0.1087
1268.00,0.1065
1267.00,0.1036
1266.00,0.1002
1265.00,0.0964
1264.00,0.0924
1263.00,0.0884
1262.00,0.0843
1261.00,0.0804
1260.00,0.0766
1259.00,0.0730
1258.00,0.0697
1257.00,0.0667
1256.00,0.0639
1255.00,0.0613
1254.00,0.0591
1253.00,0.0572
1252.00,0.0556
1251.00,0.0543
1250.00,0.0534
1249.00,0.0529
1248.00,0.0527
1247.00,0.0528
1246.00,0.0532
1245.00,0.0539
1244.00,0.0548
1243.00,0.0558
1242.00,0.0568
1241.00,0.0578
1240.00,0.0586
1239.00,0.0593
1238.00,0.0599
1237.00,0.0604
1236.00,0.0609
1235.00,0.0613
1234.00,0.0617
1233.00,0.0620
1232.00,0.0622
1231.00,0.0622
1230.00,0.0622
1229.00,0.0620
1228.00,0.0619
1227.00,0.0617
1226.00,0.0615
1225.00,0.0613
1224.00,0.0611
1223.00,0.0610
1222.00,0.0609
1221.00,0.0608
1220.00,0.0607
1219.00,0.0605
1218.00,0.0601
1217.00,0.0595
1216.00,0.0586
1215.00,0.0574
1214.00,0.0560
1213.00,0.0544
1212.00,0.0528
1211.00,0.0511
1210.00,0.0495
1209.00,0.0480
1208.00,0.0467
1207.00,0.0456
1206.00,0.0447
1205.00,0.0441
1204.00,0.0438
1203.00,0.0438
1202.00,0.0441
1201.00,0.0446
1200.00,0.0454
1199.00,0.0463
1198.00,0.0474
1197.00,0.0485
1196.00,0.0495
1195.00,0.0502
1194.00,0.0506
1193.00,0.0505
1192.00,0.0498
1191.00,0.0487
1190.00,0.0473
1189.00,0.0457
1188.00,0.0440
1187.00,0.0425
1186.00,0.0411
1185.00,0.0399
1184.00,0.0388
1183.00,0.0379
1182.00,0.0373
1181.00,0.0367
1180.00,0.0363
1179.00,0.0361
1178.00,0.0360
1177.00,0.0360
1176.00,0.0362
1175.00,0.0365
1174.00,0.0369
1173.00,0.0373
1172.00,0.0377
1171.00,0.0382
1170.00,0.0386
1169.00,0.0389
1168.00,0.0392
1167.00,0.0395
1166.00,0.0398
1165.00,0.0402
1164.00,0.0407
1163.00,0.0414
1162.00,0.0423
1161.00,0.0434
1160.00,0.0446
1159.00,0.0456
1158.00,0.0465
1157.00,0.0469
1156.00,0.0468
1155.00,0.0462
1154.00,0.0451
1153.00,0.0437
1152.00,0.0420
1151.00,0.0403
1150.00,0.0385
1149.00,0.0367
1148.00,0.0350
1147.00,0.0334
1146.00,0.0320
1145.00,0.0308
1144.00,0.0297
1143.00,0.0288
1142.00,0.0281
1141.00,0.0276
1140.00,0.0273
1139.00,0.0273
1138.00,0.0278
1137.00,0.0287
1136.00,0.0300
1135.00,0.0318
1134.00,0.0340
1133.00,0.0365
1132.00,0.0388
1131.00,0.0408
1130.00,0.0420
1129.00,0.0422
1128.00,0.0413
1127.00,0.0397
1126.00,0.0376
1125.00,0.0355
1124.00,0.0336
1123.00,0.0320
1122.00,0.0308
1121.00,0.0299
1120.00,0.0293
1119.00,0.0289
1118.00,0.0287
1117.00,0.0286
1116.00,0.0285
1115.00,0.0286
1114.00,0.0287
1113.00,0.0287
1112.00,0.0288
1111.00,0.0290
1110.00,0.0292
1109.00,0.0294
1108.00,0.0297
1107.00,0.0302
1106.00,0.0308
1105.00,0.0316
1104.00,0.0324
1103.00,0.0333
1102.00,0.0342
1101.00,0.0347
1100.00,0.0350
1099.00,0.0348
1098.00,0.0344
1097.00,0.0338
1096.00,0.0330
1095.00,0.0321
1094.00,0.0313
1093.00,0.0304
1092.00,0.0296
1091.00,0.0289
1090.00,0.0283
1089.00,0.0278
1088.00,0.0274
1087.00,0.0272
1086.00,0.0270
1085.00,0.0270
1084.00,0.0270
1083.00,0.0271
1082.00,0.0273
1081.00,0.0276
1080.00,0.0281
1079.00,0.0286
1078.00,0.0292
1077.00,0.0299
1076.00,0.0306
1075.00,0.0313
1074.00,0.0321
1073.00,0.0329
1072.00,0.0339
1071.00,0.0351
1070.00,0.0364
1069.00,0.0380
1068.00,0.0398
1067.00,0.0420
1066.00,0.0445
1065.00,0.0473
1064.00,0.0504
1063.00,0.0537
1062.00,0.0569
1061.00,0.0599
1060.00,0.0625
1059.00,0.0644
1058.00,0.0655
1057.00,0.0654
1056.00,0.0643
1055.00,0.0621
1054.00,0.0592
1053.00,0.0559
1052.00,0.0525
1051.00,0.0493
1050.00,0.0466
1049.00,0.0445
1048.00,0.0428
1047.00,0.0418
1046.00,0.0412
1045.00,0.0409
1044.00,0.0410
1043.00,0.0412
1042.00,0.0416
1041.00,0.0421
1040.00,0.0425
1039.00,0.0429
1038.00,0.0433
1037.00,0.0437
1036.00,0.0440
1035.00,0.0444
1034.00,0.0448
1033.00,0.0452
1032.00,0.0455
1031.00,0.0456
1030.00,0.0454
1029.00,0.0448
1028.00,0.0439
1027.00,0.0428
1026.00,0.0416
1025.00,0.0405
1024.00,0.0395
1023.00,0.0388
1022.00,0.0383
1021.00,0.0380
1020.00,0.0378
1019.00,0.0376
1018.00,0.0373
1017.00,0.0370
1016.00,0.0363
1015.00,0.0355
1014.00,0.0345
1013.00,0.0334
1012.00,0.0323
1011.00,0.0315
1010.00,0.0309
1009.00,0.0306
1008.00,0.0306
1007.00,0.0310
1006.00,0.0316
1005.00,0.0323
1004.00,0.0329
1003.00,0.0334
1002.00,0.0336
1001.00,0.0335
1000.00,0.0332
999.00,0.0327
998.00,0.0321
997.00,0.0314
996.00,0.0307
995.00,0.0301
994.00,0.0295
993.00,0.0289
992.00,0.0283
991.00,0.0277
990.00,0.0272
989.00,0.0266
988.00,0.0260
987.00,0.0254
986.00,0.0248
985.00,0.0243
984.00,0.0238
983.00,0.0234
982.00,0.0232
981.00,0.0230
980.00,0.0229
979.00,0.0228
978.00,0.0228
977.00,0.0227
976.00,0.0225
975.00,0.0223
974.00,0.0220
973.00,0.0217
972.00,0.0214
971.00,0.0211
970.00,0.0209
969.00,0.0206
968.00,0.0204
967.00,0.0202
966.00,0.0200
965.00,0.0198
964.00,0.0196
963.00,0.0195
962.00,0.0194
961.00,0.0194
960.00,0.0192
959.00,0.0192
958.00,0.0191
957.00,0.0191
956.00,0.0190
955.00,0.0189
954.00,0.0187
953.00,0.0186
952.00,0.0184
951.00,0.0183
950.00,0.0182
949.00,0.0181
948.00,0.0181
947.00,0.0180
946.00,0.0181
945.00,0.0182
944.00,0.0183
943.00,0.0186
942.00,0.0189
941.00,0.0195
940.00,0.0202
939.00,0.0210
938.00,0.0219
937.00,0.0229
936.00,0.0238
935.00,0.0247
934.00,0.0254
933.00,0.0259
932.00,0.0260
931.00,0.0259
930.00,0.0255
929.00,0.0252
928.00,0.0250
927.00,0.0248
926.00,0.0247
925.00,0.0246
924.00,0.0243
923.00,0.0240
922.00,0.0237
921.00,0.0234
920.00,0.0230
919.00,0.0227
918.00,0.0224
917.00,0.0220
916.00,0.0216
915.00,0.0212
914.00,0.0209
913.00,0.0207
912.00,0.0205
911.00,0.0204
910.00,0.0203
909.00,0.0204
908.00,0.0206
907.00,0.0209
906.00,0.0214
905.00,0.0220
904.00,0.0227
903.00,0.0234
902.00,0.0242
901.00,0.0250
900.00,0.0258
899.00,0.0264
898.00,0.0269
897.00,0.0272
896.00,0.0272
895.00,0.0271
894.00,0.0268
893.00,0.0263
892.00,0.0257
891.00,0.0251
890.00,0.0245
889.00,0.0241
888.00,0.0238
887.00,0.0236
886.00,0.0235
885.00,0.0235
884.00,0.0236
883.00,0.0239
882.00,0.0243
881.00,0.0248
880.00,0.0254
879.00,0.0261
878.00,0.0269
877.00,0.0278
876.00,0.0287
875.00,0.0296
874.00,0.0305
873.00,0.0313
872.00,0.0319
871.00,0.0324
870.00,0.0327
869.00,0.0328
868.00,0.0329
867.00,0.0328
866.00,0.0329
865.00,0.0329
864.00,0.0330
863.00,0.0332
862.00,0.0335
861.00,0.0338
860.00,0.0341
859.00,0.0345
858.00,0.0350
857.00,0.0355
856.00,0.0361
855.00,0.0368
854.00,0.0376
853.00,0.0384
852.00,0.0392
851.00,0.0401
850.00,0.0409
849.00,0.0416
848.00,0.0423
847.00,0.0429
846.00,0.0434
845.00,0.0437
844.00,0.0439
843.00,0.0439
842.00,0.0439
841.00,0.0438
840.00,0.0437
839.00,0.0437
838.00,0.0437
837.00,0.0436
836.00,0.0436
835.00,0.0435
834.00,0.0435
833.00,0.0436
832.00,0.0436
831.00,0.0435
830.00,0.0433
829.00,0.0431
828.00,0.0428
827.00,0.0425
826.00,0.0423
825.00,0.0421
824.00,0.0419
823.00,0.0418
822.00,0.0419
821.00,0.0420
820.00,0.0421
819.00,0.0423
818.00,0.0424
817.00,0.0425
816.00,0.0426
815.00,0.0425
814.00,0.0422
813.00,0.0417
812.00,0.0409
811.00,0.0398
810.00,0.0384
809.00,0.0367
808.00,0.0349
807.00,0.0331
806.00,0.0314
805.00,0.0299
804.00,0.0286
803.00,0.0275
802.00,0.0267
801.00,0.0261
800.00,0.0257
799.00,0.0254
798.00,0.0253
797.00,0.0252
796.00,0.0251
795.00,0.0252
794.00,0.0252
793.00,0.0253
792.00,0.0254
791.00,0.0255
790.00,0.0257
789.00,0.0258
788.00,0.0259
787.00,0.0260
786.00,0.0260
785.00,0.0261
784.00,0.0261
783.00,0.0262
782.00,0.0263
781.00,0.0266
780.00,0.0269
779.00,0.0272
778.00,0.0274
777.00,0.0275
776.00,0.0274
775.00,0.0271
774.00,0.0268
773.00,0.0266
772.00,0.0265
771.00,0.0265
770.00,0.0266
769.00,0.0267
768.00,0.0270
767.00,0.0272
766.00,0.0276
765.00,0.0280
764.00,0.0284
763.00,0.0289
762.00,0.0294
761.00,0.0300
760.00,0.0305
759.00,0.0311
758.00,0.0317
757.00,0.0323
756.00,0.0329
755.00,0.0334
754.00,0.0339
753.00,0.0345
752.00,0.0350
751.00,0.0356
750.00,0.0362
749.00,0.0368
748.00,0.0373
747.00,0.0379
746.00,0.0385
745.00,0.0392
744.00,0.0400
743.00,0.0410
742.00,0.0421
741.00,0.0433
740.00,0.0447
739.00,0.0460
738.00,0.0471
737.00,0.0478
736.00,0.0479
735.00,0.0476
734.00,0.0470
733.00,0.0461
732.00,0.0451
731.00,0.0441
730.00,0.0430
729.00,0.0419
728.00,0.0407
727.00,0.0396
726.00,0.0386
725.00,0.0376
724.00,0.0367
723.00,0.0359
722.00,0.0352
721.00,0.0346
720.00,0.0342
719.00,0.0339
718.00,0.0337
717.00,0.0336
716.00,0.0336
715.00,0.0335
714.00,0.0334
713.00,0.0333
712.00,0.0330
711.00,0.0327
710.00,0.0324
709.00,0.0321
708.00,0.0319
707.00,0.0317
706.00,0.0316
705.00,0.0315
704.00,0.0315
703.00,0.0316
702.00,0.0317
701.00,0.0318
700.00,0.0320
699.00,0.0323
698.00,0.0328
697.00,0.0334
696.00,0.0343
695.00,0.0352
694.00,0.0361
693.00,0.0369
692.00,0.0377
691.00,0.0383
690.00,0.0387
689.00,0.0391
688.00,0.0392
687.00,0.0392
686.00,0.0391
685.00,0.0390
684.00,0.0388
683.00,0.0387
682.00,0.0387
681.00,0.0388
680.00,0.0390
679.00,0.0393
678.00,0.0395
677.00,0.0399
676.00,0.0403
675.00,0.0409
674.00,0.0416
673.00,0.0423
672.00,0.0429
671.00,0.0434
670.00,0.0441
669.00,0.0451
668.00,0.0468
667.00,0.0484
666.00,0.0493
665.00,0.0497
664.00,0.0502
663.00,0.0510
662.00,0.0520
661.00,0.0531
660.00,0.0543
659.00,0.0554
658.00,0.0566
657.00,0.0578
656.00,0.0590
655.00,0.0601
654.00,0.0612
653.00,0.0622
652.00,0.0631
651.00,0.0638
650.00,0.0644
649.00,0.0647
648.00,0.0647
647.00,0.0646
646.00,0.0642
645.00,0.0636
644.00,0.0628
643.00,0.0618
642.00,0.0606
641.00,0.0594
640.00,0.0582
639.00,0.0570
638.00,0.0559
637.00,0.0548
636.00,0.0538
635.00,0.0529
634.00,0.0521
633.00,0.0513
632.00,0.0507
631.00,0.0500
630.00,0.0495
629.00,0.0489
628.00,0.0484
627.00,0.0479
626.00,0.0476
625.00,0.0475
624.00,0.0474
623.00,0.0473
622.00,0.0471
621.00,0.0468
620.00,0.0464
619.00,0.0460
618.00,0.0456
617.00,0.0453
616.00,0.0451
615.00,0.0449
614.00,0.0448
613.00,0.0447
612.00,0.0446
611.00,0.0445
610.00,0.0447
609.00,0.0449
608.00,0.0453
607.00,0.0457
606.00,0.0460
605.00,0.0462
604.00,0.0464
603.00,0.0466
602.00,0.0469
601.00,0.0473
600.00,0.0476
599.00,0.0478
598.00,0.0479
597.00,0.0479
596.00,0.0479
595.00,0.0479
594.00,0.0479
593.00,0.0480
592.00,0.0482
591.00,0.0486
590.00,0.0493
589.00,0.0504
588.00,0.0519
587.00,0.0538
586.00,0.0560
585.00,0.0581
584.00,0.0601
583.00,0.0618
582.00,0.0630
581.00,0.0639
580.00,0.0646
579.00,0.0651
578.00,0.0654
577.00,0.0657
576.00,0.0659
575.00,0.0660
574.00,0.0659
573.00,0.0658
572.00,0.0658
571.00,0.0658
570.00,0.0657
569.00,0.0656
568.00,0.0653
567.00,0.0650
566.00,0.0645
565.00,0.0637
564.00,0.0627
563.00,0.0616
562.00,0.0604
561.00,0.0595
560.00,0.0587
559.00,0.0581
558.00,0.0574
557.00,0.0567
556.00,0.0560
555.00,0.0552
554.00,0.0545
553.00,0.0538
552.00,0.0531
551.00,0.0526
550.00,0.0520
549.00,0.0514
548.00,0.0507
547.00,0.0500
546.00,0.0492
545.00,0.0485
544.00,0.0477
543.00,0.0471
542.00,0.0466
541.00,0.0463
540.00,0.0461
539.00,0.0462
538.00,0.0466
537.00,0.0471
536.00,0.0477
535.00,0.0482
534.00,0.0488
533.00,0.0492
532.00,0.0495
531.00,0.0495
530.00,0.0493
529.00,0.0489
528.00,0.0483
527.00,0.0476
526.00,0.0469
525.00,0.0461
524.00,0.0454
523.00,0.0447
522.00,0.0442
521.00,0.0438
520.00,0.0435
519.00,0.0433
518.00,0.0431
517.00,0.0430
516.00,0.0427
515.00,0.0423
514.00,0.0420
513.00,0.0420
512.00,0.0421
511.00,0.0424
510.00,0.0429
509.00,0.0433
508.00,0.0435
507.00,0.0435
506.00,0.0434
505.00,0.0431
504.00,0.0428
503.00,0.0426
502.00,0.0424
501.00,0.0422
500.00,0.0421
499.00,0.0419
498.00,0.0419
497.00,0.0419
496.00,0.0419
495.00,0.0420
494.00,0.0420
493.00,0.0422
492.00,0.0423
491.00,0.0426
490.00,0.0428
489.00,0.0431
488.00,0.0434
487.00,0.0436
486.00,0.0438
485.00,0.0438
484.00,0.0436
483.00,0.0434
482.00,0.0433
481.00,0.0434
480.00,0.0435
479.00,0.0437
478.00,0.0438
477.00,0.0440
476.00,0.0443
475.00,0.0447
474.00,0.0452
473.00,0.0456
472.00,0.0456
471.00,0.0452
470.00,0.0447
469.00,0.0442
468.00,0.0438
467.00,0.0437
466.00,0.0436
465.00,0.0435
464.00,0.0434
463.00,0.0434
462.00,0.0434
461.00,0.0434
460.00,0.0431
459.00,0.0428
458.00,0.0424
457.00,0.0421
456.00,0.0418
455.00,0.0416
454.00,0.0414
453.00,0.0413
452.00,0.0410
451.00,0.0407
450.00,0.0405
449.00,0.0404
448.00,0.0405
447.00,0.0407
446.00,0.0408
445.00,0.0408
444.00,0.0407
443.00,0.0405
442.00,0.0402
441.00,0.0398
440.00,0.0393
439.00,0.0390
438.00,0.0390
437.00,0.0393
436.00,0.0397
435.00,0.0399
434.00,0.0398
433.00,0.0395
432.00,0.0389
431.00,0.0385
430.00,0.0383
429.00,0.0383
428.00,0.0382
427.00,0.0382
426.00,0.0384
425.00,0.0387
424.00,0.0391
423.00,0.0394
422.00,0.0396
421.00,0.0398
420.00,0.0402
419.00,0.0408
418.00,0.0414
417.00,0.0413
416.00,0.0409
415.00,0.0408
414.00,0.0412
413.00,0.0417
412.00,0.0419
411.00,0.0417
410.00,0.0414
409.00,0.0413
408.00,0.0413
407.00,0.0415
406.00,0.0413
405.00,0.0407
404.00,0.0397
403.00,0.0393
402.00,0.0396
401.00,0.0404
400.00,0.0413
