Created as New Dataset,Sample 185 By YargerLab Date Saturday, October 04 2025
cm-1,A
4000.00,0.0117
3999.00,0.0117
3998.00,0.0117
3997.00,0.0117
3996.00,0.0117
3995.00,0.0116
3994.00,0.0116
3993.00,0.0117
3992.00,0.0117
3991.00,0.0117
3990.00,0.0117
3989.00,0.0117
3988.00,0.0116
3987.00,0.0116
3986.00,0.0116
3985.00,0.0116
3984.00,0.0116
3983.00,0.0117
3982.00,0.0117
3981.00,0.0117
3980.00,0.0117
3979.00,0.0117
3978.00,0.0118
3977.00,0.0118
3976.00,0.0118
3975.00,0.0118
3974.00,0.0118
3973.00,0.0118
3972.00,0.0118
3971.00,0.0119
3970.00,0.0119
3969.00,0.0119
3968.00,0.0118
3967.00,0.0118
3966.00,0.0118
3965.00,0.0118
3964.00,0.0118
3963.00,0.0118
3962.00,0.0118
3961.00,0.0118
3960.00,0.0117
3959.00,0.0117
3958.00,0.0117
3957.00,0.0117
3956.00,0.0117
3955.00,0.0116
3954.00,0.0116
3953.00,0.0117
3952.00,0.0117
3951.00,0.0117
3950.00,0.0117
3949.00,0.0117
3948.00,0.0117
3947.00,0.0117
3946.00,0.0116
3945.00,0.0116
3944.00,0.0116
3943.00,0.0116
3942.00,0.0116
3941.00,0.0116
3940.00,0.0116
3939.00,0.0116
3938.00,0.0116
3937.00,0.0116
3936.00,0.0116
3935.00,0.0116
3934.00,0.0116
3933.00,0.0116
3932.00,0.0116
3931.00,0.0116
3930.00,0.0116
3929.00,0.0116
3928.00,0.0116
3927.00,0.0116
3926.00,0.0116
3925.00,0.0116
3924.00,0.0116
3923.00,0.0117
3922.00,0.0117
3921.00,0.0117
3920.00,0.0116
3919.00,0.0116
3918.00,0.0116
3917.00,0.0116
3916.00,0.0116
3915.00,0.0116
3914.00,0.0116
3913.00,0.0116
3912.00,0.0116
3911.00,0.0116
3910.00,0.0116
3909.00,0.0116
3908.00,0.0116
3907.00,0.0116
3906.00,0.0115
3905.00,0.0115
3904.00,0.0115
3903.00,0.0114
3902.00,0.0114
3901.00,0.0114
3900.00,0.0114
3899.00,0.0115
3898.00,0.0115
3897.00,0.0115
3896.00,0.0115
3895.00,0.0115
3894.00,0.0115
3893.00,0.0115
3892.00,0.0115
3891.00,0.0115
3890.00,0.0115
3889.00,0.0114
3888.00,0.0114
3887.00,0.0114
3886.00,0.0114
3885.00,0.0114
3884.00,0.0114
3883.00,0.0114
3882.00,0.0114
3881.00,0.0114
3880.00,0.0114
3879.00,0.0114
3878.00,0.0114
3877.00,0.0114
3876.00,0.0114
3875.00,0.0114
3874.00,0.0114
3873.00,0.0114
3872.00,0.0114
3871.00,0.0114
3870.00,0.0114
3869.00,0.0114
3868.00,0.0114
3867.00,0.0114
3866.00,0.0114
3865.00,0.0114
3864.00,0.0114
3863.00,0.0114
3862.00,0.0114
3861.00,0.0114
3860.00,0.0114
3859.00,0.0114
3858.00,0.0115
3857.00,0.0115
3856.00,0.0115
3855.00,0.0115
3854.00,0.0115
3853.00,0.0115
3852.00,0.0115
3851.00,0.0114
3850.00,0.0114
3849.00,0.0114
3848.00,0.0114
3847.00,0.0114
3846.00,0.0113
3845.00,0.0113
3844.00,0.0113
3843.00,0.0113
3842.00,0.0113
3841.00,0.0113
3840.00,0.0113
3839.00,0.0113
3838.00,0.0113
3837.00,0.0114
3836.00,0.0113
3835.00,0.0113
3834.00,0.0113
3833.00,0.0112
3832.00,0.0112
3831.00,0.0112
3830.00,0.0112
3829.00,0.0113
3828.00,0.0113
3827.00,0.0113
3826.00,0.0112
3825.00,0.0112
3824.00,0.0112
3823.00,0.0112
3822.00,0.0112
3821.00,0.0112
3820.00,0.0112
3819.00,0.0112
3818.00,0.0113
3817.00,0.0113
3816.00,0.0113
3815.00,0.0113
3814.00,0.0113
3813.00,0.0113
3812.00,0.0113
3811.00,0.0112
3810.00,0.0112
3809.00,0.0113
3808.00,0.0113
3807.00,0.0112
3806.00,0.0112
3805.00,0.0112
3804.00,0.0112
3803.00,0.0112
3802.00,0.0112
3801.00,0.0112
3800.00,0.0112
3799.00,0.0112
3798.00,0.0112
3797.00,0.0112
3796.00,0.0112
3795.00,0.0111
3794.00,0.0111
3793.00,0.0111
3792.00,0.0112
3791.00,0.0112
3790.00,0.0112
3789.00,0.0112
3788.00,0.0112
3787.00,0.0112
3786.00,0.0112
3785.00,0.0111
3784.00,0.0111
3783.00,0.0111
3782.00,0.0111
3781.00,0.0111
3780.00,0.0112
3779.00,0.0112
3778.00,0.0112
3777.00,0.0112
3776.00,0.0112
3775.00,0.0112
3774.00,0.0112
3773.00,0.0112
3772.00,0.0112
3771.00,0.0112
3770.00,0.0111
3769.00,0.0111
3768.00,0.0111
3767.00,0.0111
3766.00,0.0111
3765.00,0.0112
3764.00,0.0112
3763.00,0.0111
3762.00,0.0111
3761.00,0.0111
3760.00,0.0111
3759.00,0.0111
3758.00,0.0111
3757.00,0.0111
3756.00,0.0111
3755.00,0.0111
3754.00,0.0111
3753.00,0.0112
3752.00,0.0112
3751.00,0.0112
3750.00,0.0112
3749.00,0.0112
3748.00,0.0112
3747.00,0.0111
3746.00,0.0111
3745.00,0.0111
3744.00,0.0111
3743.00,0.0111
3742.00,0.0110
3741.00,0.0110
3740.00,0.0110
3739.00,0.0109
3738.00,0.0109
3737.00,0.0109
3736.00,0.0109
3735.00,0.0108
3734.00,0.0108
3733.00,0.0108
3732.00,0.0108
3731.00,0.0109
3730.00,0.0109
3729.00,0.0109
3728.00,0.0109
3727.00,0.0109
3726.00,0.0109
3725.00,0.0108
3724.00,0.0108
3723.00,0.0108
3722.00,0.0108
3721.00,0.0108
3720.00,0.0109
3719.00,0.0109
3718.00,0.0109
3717.00,0.0109
3716.00,0.0109
3715.00,0.0109
3714.00,0.0108
3713.00,0.0108
3712.00,0.0107
3711.00,0.0107
3710.00,0.0106
3709.00,0.0106
3708.00,0.0107
3707.00,0.0107
3706.00,0.0107
3705.00,0.0107
3704.00,0.0107
3703.00,0.0107
3702.00,0.0107
3701.00,0.0107
3700.00,0.0107
3699.00,0.0107
3698.00,0.0107
3697.00,0.0107
3696.00,0.0107
3695.00,0.0107
3694.00,0.0107
3693.00,0.0107
3692.00,0.0107
3691.00,0.0107
3690.00,0.0107
3689.00,0.0107
3688.00,0.0107
3687.00,0.0107
3686.00,0.0107
3685.00,0.0107
3684.00,0.0107
3683.00,0.0107
3682.00,0.0107
3681.00,0.0107
3680.00,0.0107
3679.00,0.0107
3678.00,0.0107
3677.00,0.0107
3676.00,0.0107
3675.00,0.0106
3674.00,0.0106
3673.00,0.0106
3672.00,0.0106
3671.00,0.0106
3670.00,0.0106
3669.00,0.0106
3668.00,0.0106
3667.00,0.0107
3666.00,0.0107
3665.00,0.0107
3664.00,0.0107
3663.00,0.0107
3662.00,0.0107
3661.00,0.0107
3660.00,0.0108
3659.00,0.0108
3658.00,0.0108
3657.00,0.0108
3656.00,0.0108
3655.00,0.0107
3654.00,0.0107
3653.00,0.0106
3652.00,0.0106
3651.00,0.0106
3650.00,0.0105
3649.00,0.0105
3648.00,0.0105
3647.00,0.0105
3646.00,0.0106
3645.00,0.0106
3644.00,0.0106
3643.00,0.0106
3642.00,0.0107
3641.00,0.0107
3640.00,0.0107
3639.00,0.0107
3638.00,0.0107
3637.00,0.0107
3636.00,0.0107
3635.00,0.0106
3634.00,0.0106
3633.00,0.0106
3632.00,0.0106
3631.00,0.0106
3630.00,0.0106
3629.00,0.0106
3628.00,0.0106
3627.00,0.0106
3626.00,0.0106
3625.00,0.0106
3624.00,0.0106
3623.00,0.0106
3622.00,0.0107
3621.00,0.0107
3620.00,0.0107
3619.00,0.0107
3618.00,0.0107
3617.00,0.0108
3616.00,0.0108
3615.00,0.0108
3614.00,0.0108
3613.00,0.0108
3612.00,0.0107
3611.00,0.0107
3610.00,0.0107
3609.00,0.0107
3608.00,0.0107
3607.00,0.0107
3606.00,0.0107
3605.00,0.0108
3604.00,0.0108
3603.00,0.0108
3602.00,0.0108
3601.00,0.0107
3600.00,0.0107
3599.00,0.0107
3598.00,0.0107
3597.00,0.0107
3596.00,0.0107
3595.00,0.0107
3594.00,0.0107
3593.00,0.0107
3592.00,0.0107
3591.00,0.0108
3590.00,0.0108
3589.00,0.0108
3588.00,0.0108
3587.00,0.0108
3586.00,0.0108
3585.00,0.0108
3584.00,0.0108
3583.00,0.0108
3582.00,0.0108
3581.00,0.0109
3580.00,0.0109
3579.00,0.0109
3578.00,0.0109
3577.00,0.0110
3576.00,0.0110
3575.00,0.0110
3574.00,0.0110
3573.00,0.0110
3572.00,0.0110
3571.00,0.0110
3570.00,0.0110
3569.00,0.0110
3568.00,0.0110
3567.00,0.0110
3566.00,0.0111
3565.00,0.0111
3564.00,0.0111
3563.00,0.0112
3562.00,0.0112
3561.00,0.0113
3560.00,0.0113
3559.00,0.0113
3558.00,0.0113
3557.00,0.0114
3556.00,0.0114
3555.00,0.0114
3554.00,0.0115
3553.00,0.0115
3552.00,0.0116
3551.00,0.0116
3550.00,0.0116
3549.00,0.0117
3548.00,0.0117
3547.00,0.0117
3546.00,0.0118
3545.00,0.0118
3544.00,0.0119
3543.00,0.0119
3542.00,0.0120
3541.00,0.0120
3540.00,0.0120
3539.00,0.0121
3538.00,0.0121
3537.00,0.0122
3536.00,0.0122
3535.00,0.0122
3534.00,0.0123
3533.00,0.0123
3532.00,0.0124
3531.00,0.0125
3530.00,0.0125
3529.00,0.0126
3528.00,0.0126
3527.00,0.0127
3526.00,0.0127
3525.00,0.0127
3524.00,0.0128
3523.00,0.0129
3522.00,0.0129
3521.00,0.0130
3520.00,0.0131
3519.00,0.0132
3518.00,0.0132
3517.00,0.0133
3516.00,0.0134
3515.00,0.0134
3514.00,0.0135
3513.00,0.0136
3512.00,0.0137
3511.00,0.0138
3510.00,0.0139
3509.00,0.0140
3508.00,0.0141
3507.00,0.0142
3506.00,0.0143
3505.00,0.0144
3504.00,0.0145
3503.00,0.0146
3502.00,0.0147
3501.00,0.0148
3500.00,0.0149
3499.00,0.0151
3498.00,0.0152
3497.00,0.0154
3496.00,0.0155
3495.00,0.0156
3494.00,0.0158
3493.00,0.0159
3492.00,0.0160
3491.00,0.0161
3490.00,0.0163
3489.00,0.0164
3488.00,0.0166
3487.00,0.0168
3486.00,0.0170
3485.00,0.0172
3484.00,0.0174
3483.00,0.0175
3482.00,0.0177
3481.00,0.0179
3480.00,0.0181
3479.00,0.0183
3478.00,0.0186
3477.00,0.0188
3476.00,0.0191
3475.00,0.0193
3474.00,0.0195
3473.00,0.0198
3472.00,0.0200
3471.00,0.0203
3470.00,0.0205
3469.00,0.0208
3468.00,0.0210
3467.00,0.0213
3466.00,0.0215
3465.00,0.0217
3464.00,0.0220
3463.00,0.0223
3462.00,0.0225
3461.00,0.0228
3460.00,0.0231
3459.00,0.0234
3458.00,0.0237
3457.00,0.0240
3456.00,0.0243
3455.00,0.0246
3454.00,0.0248
3453.00,0.0251
3452.00,0.0254
3451.00,0.0257
3450.00,0.0260
3449.00,0.0263
3448.00,0.0267
3447.00,0.0270
3446.00,0.0273
3445.00,0.0277
3444.00,0.0280
3443.00,0.0284
3442.00,0.0288
3441.00,0.0291
3440.00,0.0295
3439.00,0.0299
3438.00,0.0304
3437.00,0.0308
3436.00,0.0312
3435.00,0.0317
3434.00,0.0321
3433.00,0.0326
3432.00,0.0330
3431.00,0.0335
3430.00,0.0340
3429.00,0.0345
3428.00,0.0351
3427.00,0.0356
3426.00,0.0361
3425.00,0.0367
3424.00,0.0372
3423.00,0.0377
3422.00,0.0383
3421.00,0.0388
3420.00,0.0394
3419.00,0.0399
3418.00,0.0405
3417.00,0.0410
3416.00,0.0415
3415.00,0.0420
3414.00,0.0425
3413.00,0.0429
3412.00,0.0434
3411.00,0.0438
3410.00,0.0442
3409.00,0.0446
3408.00,0.0449
3407.00,0.0451
3406.00,0.0454
3405.00,0.0456
3404.00,0.0458
3403.00,0.0460
3402.00,0.0462
3401.00,0.0462
3400.00,0.0463
3399.00,0.0462
3398.00,0.0461
3397.00,0.0460
3396.00,0.0459
3395.00,0.0458
3394.00,0.0456
3393.00,0.0455
3392.00,0.0452
3391.00,0.0450
3390.00,0.0447
3389.00,0.0444
3388.00,0.0441
3387.00,0.0437
3386.00,0.0434
3385.00,0.0431
3384.00,0.0428
3383.00,0.0425
3382.00,0.0422
3381.00,0.0418
3380.00,0.0415
3379.00,0.0412
3378.00,0.0408
3377.00,0.0405
3376.00,0.0402
3375.00,0.0399
3374.00,0.0395
3373.00,0.0392
3372.00,0.0389
3371.00,0.0387
3370.00,0.0384
3369.00,0.0381
3368.00,0.0379
3367.00,0.0376
3366.00,0.0373
3365.00,0.0371
3364.00,0.0368
3363.00,0.0366
3362.00,0.0363
3361.00,0.0361
3360.00,0.0360
3359.00,0.0358
3358.00,0.0356
3357.00,0.0354
3356.00,0.0353
3355.00,0.0351
3354.00,0.0350
3353.00,0.0348
3352.00,0.0347
3351.00,0.0346
3350.00,0.0345
3349.00,0.0343
3348.00,0.0342
3347.00,0.0341
3346.00,0.0340
3345.00,0.0339
3344.00,0.0338
3343.00,0.0338
3342.00,0.0338
3341.00,0.0338
3340.00,0.0337
3339.00,0.0337
3338.00,0.0337
3337.00,0.0336
3336.00,0.0336
3335.00,0.0335
3334.00,0.0335
3333.00,0.0335
3332.00,0.0335
3331.00,0.0336
3330.00,0.0336
3329.00,0.0336
3328.00,0.0337
3327.00,0.0337
3326.00,0.0338
3325.00,0.0339
3324.00,0.0340
3323.00,0.0340
3322.00,0.0341
3321.00,0.0342
3320.00,0.0343
3319.00,0.0344
3318.00,0.0345
3317.00,0.0346
3316.00,0.0347
3315.00,0.0349
3314.00,0.0350
3313.00,0.0351
3312.00,0.0352
3311.00,0.0354
3310.00,0.0355
3309.00,0.0356
3308.00,0.0358
3307.00,0.0360
3306.00,0.0362
3305.00,0.0363
3304.00,0.0365
3303.00,0.0366
3302.00,0.0368
3301.00,0.0369
3300.00,0.0371
3299.00,0.0373
3298.00,0.0375
3297.00,0.0377
3296.00,0.0379
3295.00,0.0381
3294.00,0.0383
3293.00,0.0385
3292.00,0.0387
3291.00,0.0389
3290.00,0.0391
3289.00,0.0393
3288.00,0.0395
3287.00,0.0397
3286.00,0.0399
3285.00,0.0401
3284.00,0.0403
3283.00,0.0405
3282.00,0.0407
3281.00,0.0409
3280.00,0.0411
3279.00,0.0414
3278.00,0.0416
3277.00,0.0418
3276.00,0.0421
3275.00,0.0423
3274.00,0.0425
3273.00,0.0427
3272.00,0.0429
3271.00,0.0431
3270.00,0.0433
3269.00,0.0435
3268.00,0.0437
3267.00,0.0439
3266.00,0.0441
3265.00,0.0443
3264.00,0.0445
3263.00,0.0447
3262.00,0.0449
3261.00,0.0452
3260.00,0.0454
3259.00,0.0456
3258.00,0.0458
3257.00,0.0460
3256.00,0.0462
3255.00,0.0464
3254.00,0.0466
3253.00,0.0468
3252.00,0.0470
3251.00,0.0472
3250.00,0.0474
3249.00,0.0475
3248.00,0.0477
3247.00,0.0478
3246.00,0.0480
3245.00,0.0482
3244.00,0.0483
3243.00,0.0485
3242.00,0.0486
3241.00,0.0487
3240.00,0.0488
3239.00,0.0488
3238.00,0.0489
3237.00,0.0489
3236.00,0.0489
3235.00,0.0489
3234.00,0.0489
3233.00,0.0490
3232.00,0.0490
3231.00,0.0491
3230.00,0.0491
3229.00,0.0491
3228.00,0.0491
3227.00,0.0490
3226.00,0.0490
3225.00,0.0490
3224.00,0.0489
3223.00,0.0489
3222.00,0.0488
3221.00,0.0487
3220.00,0.0486
3219.00,0.0484
3218.00,0.0483
3217.00,0.0481
3216.00,0.0480
3215.00,0.0478
3214.00,0.0477
3213.00,0.0475
3212.00,0.0473
3211.00,0.0471
3210.00,0.0468
3209.00,0.0466
3208.00,0.0464
3207.00,0.0462
3206.00,0.0459
3205.00,0.0457
3204.00,0.0455
3203.00,0.0452
3202.00,0.0449
3201.00,0.0447
3200.00,0.0444
3199.00,0.0441
3198.00,0.0438
3197.00,0.0435
3196.00,0.0432
3195.00,0.0430
3194.00,0.0427
3193.00,0.0424
3192.00,0.0421
3191.00,0.0418
3190.00,0.0415
3189.00,0.0412
3188.00,0.0409
3187.00,0.0405
3186.00,0.0402
3185.00,0.0400
3184.00,0.0397
3183.00,0.0394
3182.00,0.0391
3181.00,0.0388
3180.00,0.0385
3179.00,0.0382
3178.00,0.0379
3177.00,0.0376
3176.00,0.0373
3175.00,0.0370
3174.00,0.0367
3173.00,0.0364
3172.00,0.0361
3171.00,0.0359
3170.00,0.0355
3169.00,0.0352
3168.00,0.0349
3167.00,0.0346
3166.00,0.0342
3165.00,0.0339
3164.00,0.0336
3163.00,0.0333
3162.00,0.0330
3161.00,0.0327
3160.00,0.0324
3159.00,0.0321
3158.00,0.0318
3157.00,0.0315
3156.00,0.0312
3155.00,0.0309
3154.00,0.0305
3153.00,0.0302
3152.00,0.0300
3151.00,0.0297
3150.00,0.0295
3149.00,0.0293
3148.00,0.0290
3147.00,0.0288
3146.00,0.0286
3145.00,0.0283
3144.00,0.0281
3143.00,0.0278
3142.00,0.0276
3141.00,0.0273
3140.00,0.0271
3139.00,0.0268
3138.00,0.0266
3137.00,0.0264
3136.00,0.0262
3135.00,0.0260
3134.00,0.0258
3133.00,0.0257
3132.00,0.0255
3131.00,0.0253
3130.00,0.0251
3129.00,0.0250
3128.00,0.0249
3127.00,0.0247
3126.00,0.0246
3125.00,0.0244
3124.00,0.0243
3123.00,0.0242
3122.00,0.0240
3121.00,0.0239
3120.00,0.0237
3119.00,0.0236
3118.00,0.0235
3117.00,0.0233
3116.00,0.0231
3115.00,0.0230
3114.00,0.0228
3113.00,0.0227
3112.00,0.0225
3111.00,0.0223
3110.00,0.0221
3109.00,0.0219
3108.00,0.0217
3107.00,0.0216
3106.00,0.0214
3105.00,0.0212
3104.00,0.0211
3103.00,0.0209
3102.00,0.0208
3101.00,0.0207
3100.00,0.0207
3099.00,0.0206
3098.00,0.0205
3097.00,0.0205
3096.00,0.0204
3095.00,0.0204
3094.00,0.0204
3093.00,0.0204
3092.00,0.0205
3091.00,0.0206
3090.00,0.0207
3089.00,0.0208
3088.00,0.0209
3087.00,0.0209
3086.00,0.0209
3085.00,0.0209
3084.00,0.0209
3083.00,0.0209
3082.00,0.0208
3081.00,0.0208
3080.00,0.0207
3079.00,0.0206
3078.00,0.0206
3077.00,0.0205
3076.00,0.0204
3075.00,0.0203
3074.00,0.0203
3073.00,0.0202
3072.00,0.0202
3071.00,0.0201
3070.00,0.0200
3069.00,0.0200
3068.00,0.0200
3067.00,0.0200
3066.00,0.0200
3065.00,0.0200
3064.00,0.0200
3063.00,0.0201
3062.00,0.0201
3061.00,0.0202
3060.00,0.0202
3059.00,0.0203
3058.00,0.0203
3057.00,0.0204
3056.00,0.0204
3055.00,0.0204
3054.00,0.0205
3053.00,0.0205
3052.00,0.0205
3051.00,0.0204
3050.00,0.0204
3049.00,0.0203
3048.00,0.0202
3047.00,0.0202
3046.00,0.0201
3045.00,0.0201
3044.00,0.0201
3043.00,0.0201
3042.00,0.0201
3041.00,0.0202
3040.00,0.0204
3039.00,0.0206
3038.00,0.0209
3037.00,0.0211
3036.00,0.0213
3035.00,0.0215
3034.00,0.0217
3033.00,0.0218
3032.00,0.0218
3031.00,0.0218
3030.00,0.0217
3029.00,0.0215
3028.00,0.0213
3027.00,0.0210
3026.00,0.0208
3025.00,0.0205
3024.00,0.0202
3023.00,0.0199
3022.00,0.0196
3021.00,0.0194
3020.00,0.0192
3019.00,0.0190
3018.00,0.0189
3017.00,0.0187
3016.00,0.0186
3015.00,0.0186
3014.00,0.0185
3013.00,0.0186
3012.00,0.0186
3011.00,0.0187
3010.00,0.0188
3009.00,0.0189
3008.00,0.0191
3007.00,0.0193
3006.00,0.0195
3005.00,0.0198
3004.00,0.0202
3003.00,0.0207
3002.00,0.0212
3001.00,0.0218
3000.00,0.0224
2999.00,0.0232
2998.00,0.0240
2997.00,0.0250
2996.00,0.0260
2995.00,0.0270
2994.00,0.0279
2993.00,0.0287
2992.00,0.0293
2991.00,0.0298
2990.00,0.0302
2989.00,0.0306
2988.00,0.0311
2987.00,0.0317
2986.00,0.0326
2985.00,0.0337
2984.00,0.0351
2983.00,0.0369
2982.00,0.0389
2981.00,0.0409
2980.00,0.0428
2979.00,0.0441
2978.00,0.0449
2977.00,0.0452
2976.00,0.0455
2975.00,0.0463
2974.00,0.0478
2973.00,0.0500
2972.00,0.0526
2971.00,0.0550
2970.00,0.0570
2969.00,0.0584
2968.00,0.0593
2967.00,0.0600
2966.00,0.0608
2965.00,0.0618
2964.00,0.0631
2963.00,0.0646
2962.00,0.0660
2961.00,0.0670
2960.00,0.0675
2959.00,0.0673
2958.00,0.0663
2957.00,0.0645
2956.00,0.0622
2955.00,0.0596
2954.00,0.0570
2953.00,0.0545
2952.00,0.0524
2951.00,0.0506
2950.00,0.0494
2949.00,0.0486
2948.00,0.0483
2947.00,0.0485
2946.00,0.0492
2945.00,0.0502
2944.00,0.0515
2943.00,0.0530
2942.00,0.0547
2941.00,0.0566
2940.00,0.0588
2939.00,0.0614
2938.00,0.0645
2937.00,0.0680
2936.00,0.0721
2935.00,0.0767
2934.00,0.0816
2933.00,0.0868
2932.00,0.0921
2931.00,0.0973
2930.00,0.1020
2929.00,0.1061
2928.00,0.1093
2927.00,0.1113
2926.00,0.1121
2925.00,0.1117
2924.00,0.1104
2923.00,0.1083
2922.00,0.1056
2921.00,0.1026
2920.00,0.0994
2919.00,0.0960
2918.00,0.0925
2917.00,0.0890
2916.00,0.0855
2915.00,0.0821
2914.00,0.0789
2913.00,0.0759
2912.00,0.0732
2911.00,0.0707
2910.00,0.0684
2909.00,0.0663
2908.00,0.0643
2907.00,0.0625
2906.00,0.0608
2905.00,0.0592
2904.00,0.0576
2903.00,0.0561
2902.00,0.0546
2901.00,0.0532
2900.00,0.0518
2899.00,0.0505
2898.00,0.0493
2897.00,0.0481
2896.00,0.0470
2895.00,0.0461
2894.00,0.0452
2893.00,0.0443
2892.00,0.0435
2891.00,0.0428
2890.00,0.0421
2889.00,0.0414
2888.00,0.0407
2887.00,0.0402
2886.00,0.0396
2885.00,0.0392
2884.00,0.0389
2883.00,0.0388
2882.00,0.0389
2881.00,0.0392
2880.00,0.0399
2879.00,0.0409
2878.00,0.0422
2877.00,0.0438
2876.00,0.0455
2875.00,0.0472
2874.00,0.0486
2873.00,0.0497
2872.00,0.0502
2871.00,0.0504
2870.00,0.0501
2869.00,0.0498
2868.00,0.0495
2867.00,0.0494
2866.00,0.0499
2865.00,0.0510
2864.00,0.0527
2863.00,0.0553
2862.00,0.0586
2861.00,0.0626
2860.00,0.0668
2859.00,0.0710
2858.00,0.0748
2857.00,0.0777
2856.00,0.0798
2855.00,0.0809
2854.00,0.0813
2853.00,0.0810
2852.00,0.0799
2851.00,0.0779
2850.00,0.0749
2849.00,0.0711
2848.00,0.0667
2847.00,0.0623
2846.00,0.0580
2845.00,0.0539
2844.00,0.0503
2843.00,0.0471
2842.00,0.0442
2841.00,0.0417
2840.00,0.0396
2839.00,0.0377
2838.00,0.0361
2837.00,0.0347
2836.00,0.0335
2835.00,0.0325
2834.00,0.0316
2833.00,0.0307
2832.00,0.0299
2831.00,0.0292
2830.00,0.0286
2829.00,0.0280
2828.00,0.0275
2827.00,0.0270
2826.00,0.0265
2825.00,0.0260
2824.00,0.0256
2823.00,0.0252
2822.00,0.0248
2821.00,0.0245
2820.00,0.0242
2819.00,0.0239
2818.00,0.0236
2817.00,0.0234
2816.00,0.0232
2815.00,0.0230
2814.00,0.0228
2813.00,0.0226
2812.00,0.0224
2811.00,0.0221
2810.00,0.0220
2809.00,0.0218
2808.00,0.0217
2807.00,0.0215
2806.00,0.0214
2805.00,0.0213
2804.00,0.0212
2803.00,0.0211
2802.00,0.0209
2801.00,0.0208
2800.00,0.0207
2799.00,0.0205
2798.00,0.0204
2797.00,0.0202
2796.00,0.0201
2795.00,0.0200
2794.00,0.0199
2793.00,0.0197
2792.00,0.0196
2791.00,0.0195
2790.00,0.0193
2789.00,0.0192
2788.00,0.0191
2787.00,0.0191
2786.00,0.0189
2785.00,0.0188
2784.00,0.0187
2783.00,0.0186
2782.00,0.0186
2781.00,0.0185
2780.00,0.0184
2779.00,0.0183
2778.00,0.0182
2777.00,0.0181
2776.00,0.0181
2775.00,0.0180
2774.00,0.0180
2773.00,0.0179
2772.00,0.0179
2771.00,0.0179
2770.00,0.0178
2769.00,0.0178
2768.00,0.0178
2767.00,0.0177
2766.00,0.0177
2765.00,0.0177
2764.00,0.0177
2763.00,0.0177
2762.00,0.0177
2761.00,0.0177
2760.00,0.0177
2759.00,0.0177
2758.00,0.0176
2757.00,0.0176
2756.00,0.0176
2755.00,0.0176
2754.00,0.0176
2753.00,0.0176
2752.00,0.0176
2751.00,0.0176
2750.00,0.0176
2749.00,0.0177
2748.00,0.0177
2747.00,0.0177
2746.00,0.0178
2745.00,0.0178
2744.00,0.0178
2743.00,0.0179
2742.00,0.0179
2741.00,0.0180
2740.00,0.0181
2739.00,0.0181
2738.00,0.0182
2737.00,0.0184
2736.00,0.0185
2735.00,0.0187
2734.00,0.0189
2733.00,0.0190
2732.00,0.0192
2731.00,0.0192
2730.00,0.0193
2729.00,0.0193
2728.00,0.0192
2727.00,0.0192
2726.00,0.0191
2725.00,0.0189
2724.00,0.0188
2723.00,0.0187
2722.00,0.0186
2721.00,0.0185
2720.00,0.0185
2719.00,0.0184
2718.00,0.0183
2717.00,0.0182
2716.00,0.0182
2715.00,0.0181
2714.00,0.0180
2713.00,0.0180
2712.00,0.0180
2711.00,0.0179
2710.00,0.0179
2709.00,0.0179
2708.00,0.0179
2707.00,0.0179
2706.00,0.0179
2705.00,0.0179
2704.00,0.0178
2703.00,0.0178
2702.00,0.0178
2701.00,0.0177
2700.00,0.0177
2699.00,0.0176
2698.00,0.0176
2697.00,0.0175
2696.00,0.0174
2695.00,0.0174
2694.00,0.0173
2693.00,0.0173
2692.00,0.0173
2691.00,0.0172
2690.00,0.0171
2689.00,0.0171
2688.00,0.0170
2687.00,0.0170
2686.00,0.0169
2685.00,0.0169
2684.00,0.0169
2683.00,0.0168
2682.00,0.0168
2681.00,0.0167
2680.00,0.0167
2679.00,0.0167
2678.00,0.0167
2677.00,0.0167
2676.00,0.0168
2675.00,0.0168
2674.00,0.0168
2673.00,0.0168
2672.00,0.0169
2671.00,0.0169
2670.00,0.0169
2669.00,0.0170
2668.00,0.0170
2667.00,0.0171
2666.00,0.0172
2665.00,0.0172
2664.00,0.0173
2663.00,0.0174
2662.00,0.0175
2661.00,0.0175
2660.00,0.0175
2659.00,0.0175
2658.00,0.0176
2657.00,0.0176
2656.00,0.0176
2655.00,0.0176
2654.00,0.0176
2653.00,0.0176
2652.00,0.0176
2651.00,0.0176
2650.00,0.0176
2649.00,0.0176
2648.00,0.0176
2647.00,0.0176
2646.00,0.0175
2645.00,0.0175
2644.00,0.0175
2643.00,0.0175
2642.00,0.0175
2641.00,0.0175
2640.00,0.0175
2639.00,0.0174
2638.00,0.0173
2637.00,0.0172
2636.00,0.0171
2635.00,0.0170
2634.00,0.0169
2633.00,0.0168
2632.00,0.0167
2631.00,0.0167
2630.00,0.0166
2629.00,0.0165
2628.00,0.0164
2627.00,0.0164
2626.00,0.0163
2625.00,0.0162
2624.00,0.0161
2623.00,0.0161
2622.00,0.0161
2621.00,0.0160
2620.00,0.0160
2619.00,0.0160
2618.00,0.0160
2617.00,0.0159
2616.00,0.0159
2615.00,0.0159
2614.00,0.0158
2613.00,0.0158
2612.00,0.0158
2611.00,0.0158
2610.00,0.0159
2609.00,0.0159
2608.00,0.0160
2607.00,0.0160
2606.00,0.0160
2605.00,0.0160
2604.00,0.0160
2603.00,0.0161
2602.00,0.0161
2601.00,0.0161
2600.00,0.0161
2599.00,0.0162
2598.00,0.0162
2597.00,0.0163
2596.00,0.0163
2595.00,0.0164
2594.00,0.0164
2593.00,0.0164
2592.00,0.0165
2591.00,0.0165
2590.00,0.0165
2589.00,0.0164
2588.00,0.0164
2587.00,0.0164
2586.00,0.0164
2585.00,0.0163
2584.00,0.0163
2583.00,0.0163
2582.00,0.0163
2581.00,0.0163
2580.00,0.0162
2579.00,0.0162
2578.00,0.0161
2577.00,0.0160
2576.00,0.0160
2575.00,0.0159
2574.00,0.0159
2573.00,0.0159
2572.00,0.0159
2571.00,0.0159
2570.00,0.0159
2569.00,0.0159
2568.00,0.0159
2567.00,0.0160
2566.00,0.0160
2565.00,0.0160
2564.00,0.0159
2563.00,0.0159
2562.00,0.0158
2561.00,0.0156
2560.00,0.0155
2559.00,0.0154
2558.00,0.0154
2557.00,0.0153
2556.00,0.0153
2555.00,0.0152
2554.00,0.0152
2553.00,0.0151
2552.00,0.0151
2551.00,0.0150
2550.00,0.0150
2549.00,0.0150
2548.00,0.0151
2547.00,0.0151
2546.00,0.0151
2545.00,0.0151
2544.00,0.0150
2543.00,0.0150
2542.00,0.0150
2541.00,0.0151
2540.00,0.0151
2539.00,0.0151
2538.00,0.0152
2537.00,0.0152
2536.00,0.0152
2535.00,0.0152
2534.00,0.0152
2533.00,0.0152
2532.00,0.0152
2531.00,0.0152
2530.00,0.0152
2529.00,0.0151
2528.00,0.0151
2527.00,0.0150
2526.00,0.0150
2525.00,0.0149
2524.00,0.0149
2523.00,0.0148
2522.00,0.0148
2521.00,0.0148
2520.00,0.0147
2519.00,0.0147
2518.00,0.0147
2517.00,0.0146
2516.00,0.0146
2515.00,0.0146
2514.00,0.0146
2513.00,0.0146
2512.00,0.0145
2511.00,0.0145
2510.00,0.0144
2509.00,0.0143
2508.00,0.0142
2507.00,0.0142
2506.00,0.0141
2505.00,0.0141
2504.00,0.0141
2503.00,0.0141
2502.00,0.0141
2501.00,0.0141
2500.00,0.0140
2499.00,0.0140
2498.00,0.0140
2497.00,0.0140
2496.00,0.0140
2495.00,0.0139
2494.00,0.0139
2493.00,0.0139
2492.00,0.0138
2491.00,0.0138
2490.00,0.0137
2489.00,0.0137
2488.00,0.0137
2487.00,0.0138
2486.00,0.0138
2485.00,0.0137
2484.00,0.0137
2483.00,0.0137
2482.00,0.0136
2481.00,0.0136
2480.00,0.0137
2479.00,0.0137
2478.00,0.0137
2477.00,0.0136
2476.00,0.0136
2475.00,0.0135
2474.00,0.0135
2473.00,0.0135
2472.00,0.0135
2471.00,0.0135
2470.00,0.0135
2469.00,0.0134
2468.00,0.0134
2467.00,0.0134
2466.00,0.0134
2465.00,0.0134
2464.00,0.0134
2463.00,0.0134
2462.00,0.0134
2461.00,0.0134
2460.00,0.0134
2459.00,0.0134
2458.00,0.0135
2457.00,0.0135
2456.00,0.0135
2455.00,0.0135
2454.00,0.0135
2453.00,0.0134
2452.00,0.0134
2451.00,0.0134
2450.00,0.0134
2449.00,0.0133
2448.00,0.0133
2447.00,0.0133
2446.00,0.0133
2445.00,0.0133
2444.00,0.0133
2443.00,0.0132
2442.00,0.0132
2441.00,0.0131
2440.00,0.0131
2439.00,0.0130
2438.00,0.0130
2437.00,0.0130
2436.00,0.0130
2435.00,0.0130
2434.00,0.0129
2433.00,0.0129
2432.00,0.0129
2431.00,0.0129
2430.00,0.0129
2429.00,0.0128
2428.00,0.0128
2427.00,0.0128
2426.00,0.0128
2425.00,0.0128
2424.00,0.0128
2423.00,0.0128
2422.00,0.0127
2421.00,0.0127
2420.00,0.0127
2419.00,0.0127
2418.00,0.0127
2417.00,0.0128
2416.00,0.0128
2415.00,0.0128
2414.00,0.0128
2413.00,0.0128
2412.00,0.0128
2411.00,0.0128
2410.00,0.0128
2409.00,0.0127
2408.00,0.0127
2407.00,0.0127
2406.00,0.0126
2405.00,0.0126
2404.00,0.0126
2403.00,0.0126
2402.00,0.0126
2401.00,0.0127
2400.00,0.0127
2399.00,0.0127
2398.00,0.0126
2397.00,0.0126
2396.00,0.0126
2395.00,0.0126
2394.00,0.0126
2393.00,0.0126
2392.00,0.0126
2391.00,0.0126
2390.00,0.0125
2389.00,0.0125
2388.00,0.0125
2387.00,0.0125
2386.00,0.0125
2385.00,0.0125
2384.00,0.0124
2383.00,0.0123
2382.00,0.0123
2381.00,0.0122
2380.00,0.0122
2379.00,0.0121
2378.00,0.0122
2377.00,0.0122
2376.00,0.0123
2375.00,0.0123
2374.00,0.0123
2373.00,0.0123
2372.00,0.0123
2371.00,0.0123
2370.00,0.0123
2369.00,0.0123
2368.00,0.0123
2367.00,0.0123
2366.00,0.0123
2365.00,0.0123
2364.00,0.0123
2363.00,0.0122
2362.00,0.0122
2361.00,0.0122
2360.00,0.0122
2359.00,0.0123
2358.00,0.0123
2357.00,0.0123
2356.00,0.0124
2355.00,0.0124
2354.00,0.0123
2353.00,0.0123
2352.00,0.0123
2351.00,0.0123
2350.00,0.0123
2349.00,0.0123
2348.00,0.0123
2347.00,0.0122
2346.00,0.0122
2345.00,0.0123
2344.00,0.0124
2343.00,0.0124
2342.00,0.0124
2341.00,0.0125
2340.00,0.0125
2339.00,0.0125
2338.00,0.0124
2337.00,0.0124
2336.00,0.0124
2335.00,0.0124
2334.00,0.0123
2333.00,0.0122
2332.00,0.0122
2331.00,0.0122
2330.00,0.0123
2329.00,0.0126
2328.00,0.0129
2327.00,0.0133
2326.00,0.0135
2325.00,0.0136
2324.00,0.0134
2323.00,0.0132
2322.00,0.0131
2321.00,0.0129
2320.00,0.0129
2319.00,0.0128
2318.00,0.0128
2317.00,0.0127
2316.00,0.0127
2315.00,0.0126
2314.00,0.0125
2313.00,0.0124
2312.00,0.0123
2311.00,0.0123
2310.00,0.0123
2309.00,0.0123
2308.00,0.0123
2307.00,0.0123
2306.00,0.0123
2305.00,0.0123
2304.00,0.0124
2303.00,0.0124
2302.00,0.0123
2301.00,0.0123
2300.00,0.0124
2299.00,0.0124
2298.00,0.0125
2297.00,0.0125
2296.00,0.0126
2295.00,0.0127
2294.00,0.0128
2293.00,0.0128
2292.00,0.0129
2291.00,0.0129
2290.00,0.0130
2289.00,0.0130
2288.00,0.0131
2287.00,0.0131
2286.00,0.0131
2285.00,0.0130
2284.00,0.0129
2283.00,0.0128
2282.00,0.0127
2281.00,0.0126
2280.00,0.0125
2279.00,0.0124
2278.00,0.0123
2277.00,0.0122
2276.00,0.0122
2275.00,0.0121
2274.00,0.0120
2273.00,0.0120
2272.00,0.0120
2271.00,0.0119
2270.00,0.0119
2269.00,0.0118
2268.00,0.0117
2267.00,0.0116
2266.00,0.0115
2265.00,0.0114
2264.00,0.0113
2263.00,0.0113
2262.00,0.0113
2261.00,0.0114
2260.00,0.0114
2259.00,0.0115
2258.00,0.0114
2257.00,0.0113
2256.00,0.0112
2255.00,0.0111
2254.00,0.0110
2253.00,0.0111
2252.00,0.0112
2251.00,0.0112
2250.00,0.0112
2249.00,0.0113
2248.00,0.0114
2247.00,0.0114
2246.00,0.0114
2245.00,0.0114
2244.00,0.0114
2243.00,0.0114
2242.00,0.0114
2241.00,0.0114
2240.00,0.0116
2239.00,0.0116
2238.00,0.0117
2237.00,0.0116
2236.00,0.0115
2235.00,0.0115
2234.00,0.0114
2233.00,0.0114
2232.00,0.0114
2231.00,0.0113
2230.00,0.0113
2229.00,0.0113
2228.00,0.0113
2227.00,0.0114
2226.00,0.0114
2225.00,0.0115
2224.00,0.0115
2223.00,0.0115
2222.00,0.0115
2221.00,0.0114
2220.00,0.0114
2219.00,0.0113
2218.00,0.0112
2217.00,0.0112
2216.00,0.0112
2215.00,0.0112
2214.00,0.0112
2213.00,0.0113
2212.00,0.0114
2211.00,0.0114
2210.00,0.0114
2209.00,0.0113
2208.00,0.0113
2207.00,0.0113
2206.00,0.0113
2205.00,0.0113
2204.00,0.0112
2203.00,0.0111
2202.00,0.0110
2201.00,0.0109
2200.00,0.0109
2199.00,0.0109
2198.00,0.0109
2197.00,0.0110
2196.00,0.0111
2195.00,0.0111
2194.00,0.0111
2193.00,0.0110
2192.00,0.0110
2191.00,0.0110
2190.00,0.0111
2189.00,0.0112
2188.00,0.0114
2187.00,0.0114
2186.00,0.0113
2185.00,0.0111
2184.00,0.0109
2183.00,0.0107
2182.00,0.0106
2181.00,0.0106
2180.00,0.0107
2179.00,0.0107
2178.00,0.0107
2177.00,0.0106
2176.00,0.0106
2175.00,0.0107
2174.00,0.0108
2173.00,0.0109
2172.00,0.0110
2171.00,0.0111
2170.00,0.0112
2169.00,0.0113
2168.00,0.0114
2167.00,0.0115
2166.00,0.0117
2165.00,0.0119
2164.00,0.0121
2163.00,0.0120
2162.00,0.0115
2161.00,0.0106
2160.00,0.0094
2159.00,0.0085
2158.00,0.0080
2157.00,0.0081
2156.00,0.0083
2155.00,0.0085
2154.00,0.0087
2153.00,0.0088
2152.00,0.0090
2151.00,0.0092
2150.00,0.0092
2149.00,0.0092
2148.00,0.0091
2147.00,0.0090
2146.00,0.0089
2145.00,0.0089
2144.00,0.0091
2143.00,0.0093
2142.00,0.0094
2141.00,0.0095
2140.00,0.0095
2139.00,0.0093
2138.00,0.0092
2137.00,0.0089
2136.00,0.0087
2135.00,0.0085
2134.00,0.0084
2133.00,0.0085
2132.00,0.0087
2131.00,0.0089
2130.00,0.0091
2129.00,0.0092
2128.00,0.0093
2127.00,0.0094
2126.00,0.0094
2125.00,0.0095
2124.00,0.0096
2123.00,0.0097
2122.00,0.0097
2121.00,0.0098
2120.00,0.0099
2119.00,0.0100
2118.00,0.0101
2117.00,0.0102
2116.00,0.0103
2115.00,0.0103
2114.00,0.0103
2113.00,0.0102
2112.00,0.0101
2111.00,0.0100
2110.00,0.0099
2109.00,0.0099
2108.00,0.0099
2107.00,0.0098
2106.00,0.0098
2105.00,0.0099
2104.00,0.0099
2103.00,0.0100
2102.00,0.0099
2101.00,0.0099
2100.00,0.0099
2099.00,0.0098
2098.00,0.0097
2097.00,0.0096
2096.00,0.0095
2095.00,0.0094
2094.00,0.0094
2093.00,0.0094
2092.00,0.0095
2091.00,0.0095
2090.00,0.0095
2089.00,0.0096
2088.00,0.0098
2087.00,0.0099
2086.00,0.0100
2085.00,0.0101
2084.00,0.0101
2083.00,0.0101
2082.00,0.0101
2081.00,0.0101
2080.00,0.0102
2079.00,0.0103
2078.00,0.0104
2077.00,0.0104
2076.00,0.0104
2075.00,0.0103
2074.00,0.0103
2073.00,0.0102
2072.00,0.0102
2071.00,0.0102
2070.00,0.0102
2069.00,0.0101
2068.00,0.0101
2067.00,0.0100
2066.00,0.0098
2065.00,0.0097
2064.00,0.0096
2063.00,0.0095
2062.00,0.0094
2061.00,0.0094
2060.00,0.0095
2059.00,0.0095
2058.00,0.0095
2057.00,0.0095
2056.00,0.0095
2055.00,0.0095
2054.00,0.0096
2053.00,0.0098
2052.00,0.0100
2051.00,0.0099
2050.00,0.0096
2049.00,0.0093
2048.00,0.0091
2047.00,0.0090
2046.00,0.0090
2045.00,0.0090
2044.00,0.0092
2043.00,0.0093
2042.00,0.0095
2041.00,0.0096
2040.00,0.0097
2039.00,0.0098
2038.00,0.0098
2037.00,0.0097
2036.00,0.0097
2035.00,0.0096
2034.00,0.0095
2033.00,0.0094
2032.00,0.0093
2031.00,0.0091
2030.00,0.0089
2029.00,0.0089
2028.00,0.0089
2027.00,0.0090
2026.00,0.0090
2025.00,0.0090
2024.00,0.0090
2023.00,0.0091
2022.00,0.0091
2021.00,0.0092
2020.00,0.0092
2019.00,0.0091
2018.00,0.0091
2017.00,0.0091
2016.00,0.0091
2015.00,0.0091
2014.00,0.0090
2013.00,0.0090
2012.00,0.0091
2011.00,0.0090
2010.00,0.0087
2009.00,0.0084
2008.00,0.0081
2007.00,0.0078
2006.00,0.0076
2005.00,0.0077
2004.00,0.0081
2003.00,0.0084
2002.00,0.0086
2001.00,0.0087
2000.00,0.0089
1999.00,0.0090
1998.00,0.0090
1997.00,0.0092
1996.00,0.0093
1995.00,0.0095
1994.00,0.0095
1993.00,0.0095
1992.00,0.0095
1991.00,0.0095
1990.00,0.0095
1989.00,0.0096
1988.00,0.0097
1987.00,0.0098
1986.00,0.0098
1985.00,0.0099
1984.00,0.0102
1983.00,0.0105
1982.00,0.0107
1981.00,0.0107
1980.00,0.0103
1979.00,0.0097
1978.00,0.0090
1977.00,0.0085
1976.00,0.0085
1975.00,0.0087
1974.00,0.0088
1973.00,0.0088
1972.00,0.0089
1971.00,0.0088
1970.00,0.0087
1969.00,0.0086
1968.00,0.0087
1967.00,0.0087
1966.00,0.0087
1965.00,0.0087
1964.00,0.0087
1963.00,0.0086
1962.00,0.0084
1961.00,0.0083
1960.00,0.0083
1959.00,0.0084
1958.00,0.0084
1957.00,0.0085
1956.00,0.0086
1955.00,0.0088
1954.00,0.0090
1953.00,0.0091
1952.00,0.0091
1951.00,0.0090
1950.00,0.0090
1949.00,0.0090
1948.00,0.0090
1947.00,0.0090
1946.00,0.0090
1945.00,0.0091
1944.00,0.0092
1943.00,0.0092
1942.00,0.0092
1941.00,0.0092
1940.00,0.0093
1939.00,0.0094
1938.00,0.0094
1937.00,0.0095
1936.00,0.0095
1935.00,0.0095
1934.00,0.0095
1933.00,0.0095
1932.00,0.0095
1931.00,0.0095
1930.00,0.0095
1929.00,0.0095
1928.00,0.0095
1927.00,0.0096
1926.00,0.0096
1925.00,0.0096
1924.00,0.0097
1923.00,0.0097
1922.00,0.0098
1921.00,0.0099
1920.00,0.0100
1919.00,0.0100
1918.00,0.0101
1917.00,0.0101
1916.00,0.0101
1915.00,0.0102
1914.00,0.0103
1913.00,0.0107
1912.00,0.0112
1911.00,0.0118
1910.00,0.0125
1909.00,0.0130
1908.00,0.0132
1907.00,0.0130
1906.00,0.0125
1905.00,0.0120
1904.00,0.0115
1903.00,0.0111
1902.00,0.0109
1901.00,0.0108
1900.00,0.0107
1899.00,0.0107
1898.00,0.0107
1897.00,0.0109
1896.00,0.0111
1895.00,0.0114
1894.00,0.0116
1893.00,0.0116
1892.00,0.0114
1891.00,0.0111
1890.00,0.0108
1889.00,0.0105
1888.00,0.0104
1887.00,0.0102
1886.00,0.0102
1885.00,0.0101
1884.00,0.0101
1883.00,0.0101
1882.00,0.0100
1881.00,0.0099
1880.00,0.0100
1879.00,0.0100
1878.00,0.0101
1877.00,0.0101
1876.00,0.0101
1875.00,0.0101
1874.00,0.0101
1873.00,0.0100
1872.00,0.0100
1871.00,0.0100
1870.00,0.0100
1869.00,0.0101
1868.00,0.0102
1867.00,0.0102
1866.00,0.0102
1865.00,0.0102
1864.00,0.0102
1863.00,0.0102
1862.00,0.0102
1861.00,0.0102
1860.00,0.0102
1859.00,0.0102
1858.00,0.0102
1857.00,0.0102
1856.00,0.0102
1855.00,0.0102
1854.00,0.0103
1853.00,0.0104
1852.00,0.0105
1851.00,0.0106
1850.00,0.0107
1849.00,0.0109
1848.00,0.0110
1847.00,0.0111
1846.00,0.0113
1845.00,0.0113
1844.00,0.0113
1843.00,0.0112
1842.00,0.0110
1841.00,0.0108
1840.00,0.0107
1839.00,0.0105
1838.00,0.0104
1837.00,0.0103
1836.00,0.0102
1835.00,0.0102
1834.00,0.0101
1833.00,0.0101
1832.00,0.0100
1831.00,0.0100
1830.00,0.0100
1829.00,0.0099
1828.00,0.0099
1827.00,0.0100
1826.00,0.0100
1825.00,0.0100
1824.00,0.0101
1823.00,0.0101
1822.00,0.0101
1821.00,0.0101
1820.00,0.0101
1819.00,0.0100
1818.00,0.0099
1817.00,0.0098
1816.00,0.0099
1815.00,0.0099
1814.00,0.0100
1813.00,0.0100
1812.00,0.0101
1811.00,0.0100
1810.00,0.0100
1809.00,0.0101
1808.00,0.0101
1807.00,0.0101
1806.00,0.0102
1805.00,0.0102
1804.00,0.0102
1803.00,0.0102
1802.00,0.0102
1801.00,0.0103
1800.00,0.0104
1799.00,0.0105
1798.00,0.0106
1797.00,0.0107
1796.00,0.0108
1795.00,0.0109
1794.00,0.0110
1793.00,0.0110
1792.00,0.0110
1791.00,0.0109
1790.00,0.0108
1789.00,0.0107
1788.00,0.0107
1787.00,0.0106
1786.00,0.0105
1785.00,0.0105
1784.00,0.0105
1783.00,0.0104
1782.00,0.0105
1781.00,0.0105
1780.00,0.0107
1779.00,0.0108
1778.00,0.0110
1777.00,0.0112
1776.00,0.0114
1775.00,0.0116
1774.00,0.0117
1773.00,0.0118
1772.00,0.0118
1771.00,0.0117
1770.00,0.0116
1769.00,0.0115
1768.00,0.0114
1767.00,0.0112
1766.00,0.0111
1765.00,0.0111
1764.00,0.0111
1763.00,0.0113
1762.00,0.0115
1761.00,0.0117
1760.00,0.0118
1759.00,0.0119
1758.00,0.0118
1757.00,0.0116
1756.00,0.0114
1755.00,0.0112
1754.00,0.0111
1753.00,0.0110
1752.00,0.0109
1751.00,0.0109
1750.00,0.0108
1749.00,0.0107
1748.00,0.0108
1747.00,0.0108
1746.00,0.0109
1745.00,0.0109
1744.00,0.0110
1743.00,0.0111
1742.00,0.0111
1741.00,0.0111
1740.00,0.0112
1739.00,0.0113
1738.00,0.0113
1737.00,0.0113
1736.00,0.0114
1735.00,0.0115
1734.00,0.0116
1733.00,0.0117
1732.00,0.0119
1731.00,0.0120
1730.00,0.0121
1729.00,0.0123
1728.00,0.0125
1727.00,0.0126
1726.00,0.0128
1725.00,0.0129
1724.00,0.0131
1723.00,0.0132
1722.00,0.0133
1721.00,0.0133
1720.00,0.0134
1719.00,0.0135
1718.00,0.0136
1717.00,0.0137
1716.00,0.0138
1715.00,0.0139
1714.00,0.0141
1713.00,0.0142
1712.00,0.0144
1711.00,0.0146
1710.00,0.0146
1709.00,0.0147
1708.00,0.0147
1707.00,0.0146
1706.00,0.0146
1705.00,0.0146
1704.00,0.0146
1703.00,0.0146
1702.00,0.0147
1701.00,0.0147
1700.00,0.0148
1699.00,0.0149
1698.00,0.0149
1697.00,0.0150
1696.00,0.0152
1695.00,0.0153
1694.00,0.0153
1693.00,0.0154
1692.00,0.0155
1691.00,0.0155
1690.00,0.0155
1689.00,0.0155
1688.00,0.0155
1687.00,0.0156
1686.00,0.0156
1685.00,0.0156
1684.00,0.0156
1683.00,0.0157
1682.00,0.0157
1681.00,0.0158
1680.00,0.0159
1679.00,0.0159
1678.00,0.0159
1677.00,0.0160
1676.00,0.0161
1675.00,0.0161
1674.00,0.0161
1673.00,0.0162
1672.00,0.0162
1671.00,0.0162
1670.00,0.0161
1669.00,0.0162
1668.00,0.0163
1667.00,0.0164
1666.00,0.0165
1665.00,0.0166
1664.00,0.0168
1663.00,0.0169
1662.00,0.0170
1661.00,0.0171
1660.00,0.0173
1659.00,0.0174
1658.00,0.0175
1657.00,0.0175
1656.00,0.0176
1655.00,0.0177
1654.00,0.0178
1653.00,0.0179
1652.00,0.0182
1651.00,0.0183
1650.00,0.0183
1649.00,0.0184
1648.00,0.0187
1647.00,0.0191
1646.00,0.0196
1645.00,0.0201
1644.00,0.0208
1643.00,0.0215
1642.00,0.0221
1641.00,0.0227
1640.00,0.0234
1639.00,0.0239
1638.00,0.0243
1637.00,0.0249
1636.00,0.0263
1635.00,0.0283
1634.00,0.0307
1633.00,0.0337
1632.00,0.0377
1631.00,0.0429
1630.00,0.0498
1629.00,0.0588
1628.00,0.0698
1627.00,0.0813
1626.00,0.0921
1625.00,0.1019
1624.00,0.1113
1623.00,0.1196
1622.00,0.1253
1621.00,0.1281
1620.00,0.1283
1619.00,0.1260
1618.00,0.1205
1617.00,0.1122
1616.00,0.1041
1615.00,0.0988
1614.00,0.0968
1613.00,0.0970
1612.00,0.0986
1611.00,0.1004
1610.00,0.1010
1609.00,0.0997
1608.00,0.0965
1607.00,0.0918
1606.00,0.0860
1605.00,0.0800
1604.00,0.0739
1603.00,0.0681
1602.00,0.0628
1601.00,0.0581
1600.00,0.0543
1599.00,0.0512
1598.00,0.0489
1597.00,0.0474
1596.00,0.0468
1595.00,0.0471
1594.00,0.0486
1593.00,0.0513
1592.00,0.0553
1591.00,0.0608
1590.00,0.0675
1589.00,0.0751
1588.00,0.0830
1587.00,0.0906
1586.00,0.0971
1585.00,0.1020
1584.00,0.1053
1583.00,0.1068
1582.00,0.1065
1581.00,0.1048
1580.00,0.1023
1579.00,0.0992
1578.00,0.0954
1577.00,0.0905
1576.00,0.0850
1575.00,0.0800
1574.00,0.0762
1573.00,0.0733
1572.00,0.0711
1571.00,0.0691
1570.00,0.0672
1569.00,0.0653
1568.00,0.0634
1567.00,0.0613
1566.00,0.0585
1565.00,0.0550
1564.00,0.0515
1563.00,0.0483
1562.00,0.0455
1561.00,0.0429
1560.00,0.0400
1559.00,0.0368
1558.00,0.0345
1557.00,0.0332
1556.00,0.0324
1555.00,0.0318
1554.00,0.0312
1553.00,0.0306
1552.00,0.0301
1551.00,0.0297
1550.00,0.0293
1549.00,0.0290
1548.00,0.0287
1547.00,0.0284
1546.00,0.0282
1545.00,0.0279
1544.00,0.0276
1543.00,0.0273
1542.00,0.0270
1541.00,0.0267
1540.00,0.0264
1539.00,0.0261
1538.00,0.0259
1537.00,0.0256
1536.00,0.0254
1535.00,0.0252
1534.00,0.0249
1533.00,0.0246
1532.00,0.0244
1531.00,0.0243
1530.00,0.0243
1529.00,0.0242
1528.00,0.0243
1527.00,0.0244
1526.00,0.0246
1525.00,0.0248
1524.00,0.0251
1523.00,0.0255
1522.00,0.0260
1521.00,0.0267
1520.00,0.0275
1519.00,0.0282
1518.00,0.0290
1517.00,0.0301
1516.00,0.0314
1515.00,0.0326
1514.00,0.0338
1513.00,0.0348
1512.00,0.0357
1511.00,0.0363
1510.00,0.0367
1509.00,0.0368
1508.00,0.0369
1507.00,0.0368
1506.00,0.0369
1505.00,0.0371
1504.00,0.0376
1503.00,0.0384
1502.00,0.0398
1501.00,0.0424
1500.00,0.0468
1499.00,0.0530
1498.00,0.0607
1497.00,0.0683
1496.00,0.0731
1495.00,0.0738
1494.00,0.0711
1493.00,0.0663
1492.00,0.0604
1491.00,0.0541
1490.00,0.0482
1489.00,0.0433
1488.00,0.0396
1487.00,0.0367
1486.00,0.0345
1485.00,0.0327
1484.00,0.0314
1483.00,0.0303
1482.00,0.0294
1481.00,0.0288
1480.00,0.0285
1479.00,0.0283
1478.00,0.0283
1477.00,0.0286
1476.00,0.0290
1475.00,0.0297
1474.00,0.0308
1473.00,0.0331
1472.00,0.0367
1471.00,0.0415
1470.00,0.0473
1469.00,0.0538
1468.00,0.0603
1467.00,0.0660
1466.00,0.0696
1465.00,0.0706
1464.00,0.0694
1463.00,0.0676
1462.00,0.0664
1461.00,0.0659
1460.00,0.0660
1459.00,0.0664
1458.00,0.0664
1457.00,0.0656
1456.00,0.0641
1455.00,0.0626
1454.00,0.0613
1453.00,0.0606
1452.00,0.0604
1451.00,0.0608
1450.00,0.0616
1449.00,0.0625
1448.00,0.0637
1447.00,0.0651
1446.00,0.0670
1445.00,0.0694
1444.00,0.0721
1443.00,0.0750
1442.00,0.0777
1441.00,0.0800
1440.00,0.0819
1439.00,0.0834
1438.00,0.0848
1437.00,0.0868
1436.00,0.0893
1435.00,0.0923
1434.00,0.0955
1433.00,0.0989
1432.00,0.1023
1431.00,0.1051
1430.00,0.1070
1429.00,0.1077
1428.00,0.1072
1427.00,0.1055
1426.00,0.1029
1425.00,0.0997
1424.00,0.0962
1423.00,0.0930
1422.00,0.0902
1421.00,0.0876
1420.00,0.0847
1419.00,0.0816
1418.00,0.0787
1417.00,0.0763
1416.00,0.0744
1415.00,0.0729
1414.00,0.0719
1413.00,0.0716
1412.00,0.0722
1411.00,0.0737
1410.00,0.0762
1409.00,0.0798
1408.00,0.0844
1407.00,0.0902
1406.00,0.0971
1405.00,0.1049
1404.00,0.1129
1403.00,0.1198
1402.00,0.1253
1401.00,0.1292
1400.00,0.1312
1399.00,0.1307
1398.00,0.1279
1397.00,0.1234
1396.00,0.1172
1395.00,0.1098
1394.00,0.1021
1393.00,0.0952
1392.00,0.0896
1391.00,0.0855
1390.00,0.0832
1389.00,0.0833
1388.00,0.0854
1387.00,0.0878
1386.00,0.0882
1385.00,0.0861
1384.00,0.0825
1383.00,0.0793
1382.00,0.0777
1381.00,0.0775
1380.00,0.0780
1379.00,0.0783
1378.00,0.0778
1377.00,0.0763
1376.00,0.0734
1375.00,0.0689
1374.00,0.0637
1373.00,0.0592
1372.00,0.0565
1371.00,0.0559
1370.00,0.0577
1369.00,0.0618
1368.00,0.0679
1367.00,0.0748
1366.00,0.0807
1365.00,0.0846
1364.00,0.0868
1363.00,0.0895
1362.00,0.0946
1361.00,0.1014
1360.00,0.1069
1359.00,0.1082
1358.00,0.1048
1357.00,0.0987
1356.00,0.0923
1355.00,0.0872
1354.00,0.0837
1353.00,0.0815
1352.00,0.0803
1351.00,0.0799
1350.00,0.0803
1349.00,0.0811
1348.00,0.0820
1347.00,0.0824
1346.00,0.0821
1345.00,0.0808
1344.00,0.0787
1343.00,0.0761
1342.00,0.0729
1341.00,0.0694
1340.00,0.0658
1339.00,0.0624
1338.00,0.0597
1337.00,0.0579
1336.00,0.0572
1335.00,0.0575
1334.00,0.0587
1333.00,0.0604
1332.00,0.0622
1331.00,0.0637
1330.00,0.0648
1329.00,0.0653
1328.00,0.0650
1327.00,0.0642
1326.00,0.0627
1325.00,0.0610
1324.00,0.0593
1323.00,0.0577
1322.00,0.0564
1321.00,0.0553
1320.00,0.0542
1319.00,0.0530
1318.00,0.0517
1317.00,0.0501
1316.00,0.0485
1315.00,0.0471
1314.00,0.0460
1313.00,0.0455
1312.00,0.0457
1311.00,0.0467
1310.00,0.0484
1309.00,0.0510
1308.00,0.0544
1307.00,0.0586
1306.00,0.0639
1305.00,0.0704
1304.00,0.0781
1303.00,0.0862
1302.00,0.0934
1301.00,0.0982
1300.00,0.0995
1299.00,0.0976
1298.00,0.0939
1297.00,0.0900
1296.00,0.0869
1295.00,0.0847
1294.00,0.0827
1293.00,0.0805
1292.00,0.0778
1291.00,0.0751
1290.00,0.0732
1289.00,0.0727
1288.00,0.0741
1287.00,0.0771
1286.00,0.0813
1285.00,0.0858
1284.00,0.0897
1283.00,0.0919
1282.00,0.0920
1281.00,0.0896
1280.00,0.0851
1279.00,0.0791
1278.00,0.0727
1277.00,0.0667
1276.00,0.0614
1275.00,0.0571
1274.00,0.0536
1273.00,0.0507
1272.00,0.0482
1271.00,0.0460
1270.00,0.0441
1269.00,0.0426
1268.00,0.0416
1267.00,0.0408
1266.00,0.0403
1265.00,0.0399
1264.00,0.0393
1263.00,0.0385
1262.00,0.0377
1261.00,0.0369
1260.00,0.0361
1259.00,0.0355
1258.00,0.0350
1257.00,0.0348
1256.00,0.0347
1255.00,0.0349
1254.00,0.0353
1253.00,0.0361
1252.00,0.0371
1251.00,0.0387
1250.00,0.0409
1249.00,0.0438
1248.00,0.0474
1247.00,0.0516
1246.00,0.0561
1245.00,0.0606
1244.00,0.0646
1243.00,0.0680
1242.00,0.0707
1241.00,0.0732
1240.00,0.0759
1239.00,0.0794
1238.00,0.0839
1237.00,0.0894
1236.00,0.0952
1235.00,0.1004
1234.00,0.1039
1233.00,0.1050
1232.00,0.1034
1231.00,0.0994
1230.00,0.0939
1229.00,0.0878
1228.00,0.0819
1227.00,0.0766
1226.00,0.0722
1225.00,0.0686
1224.00,0.0658
1223.00,0.0637
1222.00,0.0625
1221.00,0.0621
1220.00,0.0627
1219.00,0.0641
1218.00,0.0663
1217.00,0.0689
1216.00,0.0716
1215.00,0.0737
1214.00,0.0746
1213.00,0.0739
1212.00,0.0715
1211.00,0.0678
1210.00,0.0635
1209.00,0.0592
1208.00,0.0557
1207.00,0.0531
1206.00,0.0518
1205.00,0.0520
1204.00,0.0536
1203.00,0.0568
1202.00,0.0613
1201.00,0.0669
1200.00,0.0734
1199.00,0.0808
1198.00,0.0889
1197.00,0.0974
1196.00,0.1054
1195.00,0.1116
1194.00,0.1150
1193.00,0.1152
1192.00,0.1124
1191.00,0.1071
1190.00,0.1002
1189.00,0.0924
1188.00,0.0841
1187.00,0.0760
1186.00,0.0686
1185.00,0.0621
1184.00,0.0566
1183.00,0.0521
1182.00,0.0485
1181.00,0.0456
1180.00,0.0433
1179.00,0.0415
1178.00,0.0400
1177.00,0.0388
1176.00,0.0378
1175.00,0.0369
1174.00,0.0362
1173.00,0.0357
1172.00,0.0352
1171.00,0.0350
1170.00,0.0348
1169.00,0.0347
1168.00,0.0347
1167.00,0.0350
1166.00,0.0355
1165.00,0.0365
1164.00,0.0379
1163.00,0.0402
1162.00,0.0434
1161.00,0.0481
1160.00,0.0547
1159.00,0.0637
1158.00,0.0750
1157.00,0.0876
1156.00,0.0995
1155.00,0.1081
1154.00,0.1110
1153.00,0.1071
1152.00,0.0975
1151.00,0.0849
1150.00,0.0722
1149.00,0.0613
1148.00,0.0532
1147.00,0.0475
1146.00,0.0439
1145.00,0.0416
1144.00,0.0403
1143.00,0.0396
1142.00,0.0395
1141.00,0.0398
1140.00,0.0407
1139.00,0.0422
1138.00,0.0446
1137.00,0.0480
1136.00,0.0529
1135.00,0.0598
1134.00,0.0693
1133.00,0.0815
1132.00,0.0963
1131.00,0.1122
1130.00,0.1267
1129.00,0.1377
1128.00,0.1435
1127.00,0.1443
1126.00,0.1407
1125.00,0.1338
1124.00,0.1244
1123.00,0.1133
1122.00,0.1015
1121.00,0.0903
1120.00,0.0808
1119.00,0.0734
1118.00,0.0682
1117.00,0.0650
1116.00,0.0633
1115.00,0.0623
1114.00,0.0615
1113.00,0.0604
1112.00,0.0587
1111.00,0.0565
1110.00,0.0543
1109.00,0.0524
1108.00,0.0513
1107.00,0.0512
1106.00,0.0526
1105.00,0.0560
1104.00,0.0616
1103.00,0.0695
1102.00,0.0790
1101.00,0.0883
1100.00,0.0952
1099.00,0.0977
1098.00,0.0953
1097.00,0.0887
1096.00,0.0798
1095.00,0.0703
1094.00,0.0617
1093.00,0.0546
1092.00,0.0492
1091.00,0.0452
1090.00,0.0422
1089.00,0.0401
1088.00,0.0385
1087.00,0.0372
1086.00,0.0363
1085.00,0.0356
1084.00,0.0350
1083.00,0.0347
1082.00,0.0344
1081.00,0.0343
1080.00,0.0343
1079.00,0.0343
1078.00,0.0345
1077.00,0.0347
1076.00,0.0350
1075.00,0.0355
1074.00,0.0361
1073.00,0.0369
1072.00,0.0379
1071.00,0.0391
1070.00,0.0406
1069.00,0.0423
1068.00,0.0441
1067.00,0.0460
1066.00,0.0482
1065.00,0.0508
1064.00,0.0543
1063.00,0.0589
1062.00,0.0652
1061.00,0.0736
1060.00,0.0845
1059.00,0.0982
1058.00,0.1145
1057.00,0.1325
1056.00,0.1506
1055.00,0.1664
1054.00,0.1784
1053.00,0.1862
1052.00,0.1906
1051.00,0.1928
1050.00,0.1933
1049.00,0.1921
1048.00,0.1885
1047.00,0.1820
1046.00,0.1728
1045.00,0.1615
1044.00,0.1489
1043.00,0.1360
1042.00,0.1236
1041.00,0.1126
1040.00,0.1038
1039.00,0.0975
1038.00,0.0939
1037.00,0.0926
1036.00,0.0930
1035.00,0.0945
1034.00,0.0966
1033.00,0.1000
1032.00,0.1058
1031.00,0.1153
1030.00,0.1285
1029.00,0.1442
1028.00,0.1594
1027.00,0.1703
1026.00,0.1739
1025.00,0.1694
1024.00,0.1583
1023.00,0.1435
1022.00,0.1279
1021.00,0.1133
1020.00,0.1006
1019.00,0.0899
1018.00,0.0810
1017.00,0.0738
1016.00,0.0680
1015.00,0.0633
1014.00,0.0597
1013.00,0.0570
1012.00,0.0554
1011.00,0.0550
1010.00,0.0562
1009.00,0.0591
1008.00,0.0636
1007.00,0.0693
1006.00,0.0756
1005.00,0.0814
1004.00,0.0859
1003.00,0.0881
1002.00,0.0880
1001.00,0.0860
1000.00,0.0831
999.00,0.0800
998.00,0.0770
997.00,0.0743
996.00,0.0721
995.00,0.0702
994.00,0.0684
993.00,0.0663
992.00,0.0634
991.00,0.0598
990.00,0.0559
989.00,0.0522
988.00,0.0489
987.00,0.0462
986.00,0.0439
985.00,0.0421
984.00,0.0406
983.00,0.0394
982.00,0.0386
981.00,0.0380
980.00,0.0377
979.00,0.0376
978.00,0.0376
977.00,0.0378
976.00,0.0379
975.00,0.0380
974.00,0.0380
973.00,0.0378
972.00,0.0375
971.00,0.0372
970.00,0.0370
969.00,0.0369
968.00,0.0370
967.00,0.0371
966.00,0.0376
965.00,0.0384
964.00,0.0394
963.00,0.0405
962.00,0.0410
961.00,0.0405
960.00,0.0389
959.00,0.0367
958.00,0.0343
957.00,0.0322
956.00,0.0305
955.00,0.0292
954.00,0.0282
953.00,0.0274
952.00,0.0270
951.00,0.0272
950.00,0.0281
949.00,0.0294
948.00,0.0303
947.00,0.0305
946.00,0.0299
945.00,0.0293
944.00,0.0293
943.00,0.0299
942.00,0.0311
941.00,0.0326
940.00,0.0341
939.00,0.0354
938.00,0.0363
937.00,0.0370
936.00,0.0378
935.00,0.0388
934.00,0.0401
933.00,0.0413
932.00,0.0420
931.00,0.0418
930.00,0.0408
929.00,0.0395
928.00,0.0385
927.00,0.0382
926.00,0.0389
925.00,0.0406
924.00,0.0432
923.00,0.0462
922.00,0.0486
921.00,0.0493
920.00,0.0480
919.00,0.0448
918.00,0.0408
917.00,0.0367
916.00,0.0332
915.00,0.0305
914.00,0.0286
913.00,0.0271
912.00,0.0261
911.00,0.0255
910.00,0.0251
909.00,0.0249
908.00,0.0251
907.00,0.0256
906.00,0.0266
905.00,0.0283
904.00,0.0308
903.00,0.0344
902.00,0.0391
901.00,0.0442
900.00,0.0487
899.00,0.0511
898.00,0.0508
897.00,0.0481
896.00,0.0443
895.00,0.0408
894.00,0.0393
893.00,0.0405
892.00,0.0445
891.00,0.0495
890.00,0.0527
889.00,0.0518
888.00,0.0470
887.00,0.0407
886.00,0.0352
885.00,0.0318
884.00,0.0303
883.00,0.0300
882.00,0.0305
881.00,0.0317
880.00,0.0336
879.00,0.0367
878.00,0.0413
877.00,0.0480
876.00,0.0567
875.00,0.0672
874.00,0.0792
873.00,0.0919
872.00,0.1044
871.00,0.1150
870.00,0.1217
869.00,0.1233
868.00,0.1198
867.00,0.1128
866.00,0.1044
865.00,0.0960
864.00,0.0876
863.00,0.0794
862.00,0.0714
861.00,0.0644
860.00,0.0588
859.00,0.0551
858.00,0.0541
857.00,0.0559
856.00,0.0603
855.00,0.0663
854.00,0.0727
853.00,0.0790
852.00,0.0855
851.00,0.0926
850.00,0.0995
849.00,0.1041
848.00,0.1044
847.00,0.1000
846.00,0.0926
845.00,0.0843
844.00,0.0766
843.00,0.0704
842.00,0.0661
841.00,0.0639
840.00,0.0638
839.00,0.0664
838.00,0.0718
837.00,0.0797
836.00,0.0887
835.00,0.0972
834.00,0.1037
833.00,0.1070
832.00,0.1065
831.00,0.1021
830.00,0.0944
829.00,0.0843
828.00,0.0736
827.00,0.0641
826.00,0.0575
825.00,0.0554
824.00,0.0595
823.00,0.0714
822.00,0.0902
821.00,0.1107
820.00,0.1257
819.00,0.1329
818.00,0.1370
817.00,0.1439
816.00,0.1523
815.00,0.1538
814.00,0.1423
813.00,0.1207
812.00,0.0971
811.00,0.0776
810.00,0.0638
809.00,0.0545
808.00,0.0482
807.00,0.0438
806.00,0.0406
805.00,0.0380
804.00,0.0361
803.00,0.0347
802.00,0.0334
801.00,0.0324
800.00,0.0315
799.00,0.0309
798.00,0.0303
797.00,0.0297
796.00,0.0291
795.00,0.0287
794.00,0.0282
793.00,0.0278
792.00,0.0275
791.00,0.0272
790.00,0.0269
789.00,0.0266
788.00,0.0264
787.00,0.0263
786.00,0.0261
785.00,0.0260
784.00,0.0260
783.00,0.0260
782.00,0.0261
781.00,0.0263
780.00,0.0267
779.00,0.0277
778.00,0.0297
777.00,0.0330
776.00,0.0374
775.00,0.0416
774.00,0.0437
773.00,0.0428
772.00,0.0397
771.00,0.0360
770.00,0.0330
769.00,0.0311
768.00,0.0301
767.00,0.0295
766.00,0.0292
765.00,0.0294
764.00,0.0301
763.00,0.0313
762.00,0.0330
761.00,0.0348
760.00,0.0363
759.00,0.0369
758.00,0.0365
757.00,0.0353
756.00,0.0337
755.00,0.0322
754.00,0.0310
753.00,0.0303
752.00,0.0299
751.00,0.0298
750.00,0.0298
749.00,0.0299
748.00,0.0301
747.00,0.0304
746.00,0.0309
745.00,0.0315
744.00,0.0325
743.00,0.0337
742.00,0.0355
741.00,0.0380
740.00,0.0416
739.00,0.0470
738.00,0.0546
737.00,0.0640
736.00,0.0734
735.00,0.0800
734.00,0.0819
733.00,0.0798
732.00,0.0763
731.00,0.0745
730.00,0.0752
729.00,0.0772
728.00,0.0782
727.00,0.0761
726.00,0.0708
725.00,0.0638
724.00,0.0570
723.00,0.0517
722.00,0.0484
721.00,0.0468
720.00,0.0469
719.00,0.0487
718.00,0.0521
717.00,0.0564
716.00,0.0607
715.00,0.0637
714.00,0.0647
713.00,0.0637
712.00,0.0613
711.00,0.0584
710.00,0.0555
709.00,0.0530
708.00,0.0512
707.00,0.0502
706.00,0.0500
705.00,0.0505
704.00,0.0515
703.00,0.0530
702.00,0.0548
701.00,0.0568
700.00,0.0589
699.00,0.0608
698.00,0.0619
697.00,0.0619
696.00,0.0606
695.00,0.0584
694.00,0.0563
693.00,0.0551
692.00,0.0556
691.00,0.0583
690.00,0.0623
689.00,0.0665
688.00,0.0691
687.00,0.0691
686.00,0.0667
685.00,0.0633
684.00,0.0600
683.00,0.0578
682.00,0.0566
681.00,0.0564
680.00,0.0570
679.00,0.0582
678.00,0.0600
677.00,0.0624
676.00,0.0654
675.00,0.0690
674.00,0.0729
673.00,0.0767
672.00,0.0798
671.00,0.0818
670.00,0.0824
669.00,0.0813
668.00,0.0786
667.00,0.0757
666.00,0.0739
665.00,0.0735
664.00,0.0743
663.00,0.0758
662.00,0.0770
661.00,0.0772
660.00,0.0759
659.00,0.0731
658.00,0.0693
657.00,0.0654
656.00,0.0620
655.00,0.0592
654.00,0.0571
653.00,0.0556
652.00,0.0544
651.00,0.0534
650.00,0.0526
649.00,0.0519
648.00,0.0514
647.00,0.0509
646.00,0.0506
645.00,0.0503
644.00,0.0501
643.00,0.0498
642.00,0.0495
641.00,0.0492
640.00,0.0489
639.00,0.0488
638.00,0.0486
637.00,0.0485
636.00,0.0484
635.00,0.0483
634.00,0.0482
633.00,0.0483
632.00,0.0484
631.00,0.0487
630.00,0.0491
629.00,0.0498
628.00,0.0506
627.00,0.0518
626.00,0.0535
625.00,0.0556
624.00,0.0584
623.00,0.0616
622.00,0.0650
621.00,0.0680
620.00,0.0701
619.00,0.0708
618.00,0.0696
617.00,0.0666
616.00,0.0626
615.00,0.0582
614.00,0.0542
613.00,0.0512
612.00,0.0496
611.00,0.0494
610.00,0.0509
609.00,0.0541
608.00,0.0592
607.00,0.0658
606.00,0.0733
605.00,0.0807
604.00,0.0870
603.00,0.0917
602.00,0.0946
601.00,0.0960
600.00,0.0965
599.00,0.0965
598.00,0.0961
597.00,0.0957
596.00,0.0952
595.00,0.0945
594.00,0.0936
593.00,0.0924
592.00,0.0908
591.00,0.0889
590.00,0.0868
589.00,0.0846
588.00,0.0825
587.00,0.0805
586.00,0.0788
585.00,0.0776
584.00,0.0769
583.00,0.0770
582.00,0.0777
581.00,0.0792
580.00,0.0821
579.00,0.0868
578.00,0.0929
577.00,0.0987
576.00,0.1018
575.00,0.1005
574.00,0.0956
573.00,0.0889
572.00,0.0823
571.00,0.0765
570.00,0.0718
569.00,0.0684
568.00,0.0663
567.00,0.0658
566.00,0.0671
565.00,0.0699
564.00,0.0736
563.00,0.0782
562.00,0.0834
561.00,0.0884
560.00,0.0920
559.00,0.0933
558.00,0.0919
557.00,0.0888
556.00,0.0851
555.00,0.0817
554.00,0.0791
553.00,0.0782
552.00,0.0790
551.00,0.0818
550.00,0.0863
549.00,0.0919
548.00,0.0980
547.00,0.1031
546.00,0.1059
545.00,0.1060
544.00,0.1037
543.00,0.0998
542.00,0.0953
541.00,0.0907
540.00,0.0868
539.00,0.0837
538.00,0.0817
537.00,0.0810
536.00,0.0817
535.00,0.0841
534.00,0.0880
533.00,0.0927
532.00,0.0971
531.00,0.0997
530.00,0.0993
529.00,0.0960
528.00,0.0909
527.00,0.0849
526.00,0.0788
525.00,0.0733
524.00,0.0689
523.00,0.0652
522.00,0.0623
521.00,0.0598
520.00,0.0578
519.00,0.0562
518.00,0.0549
517.00,0.0539
516.00,0.0531
515.00,0.0523
514.00,0.0517
513.00,0.0514
512.00,0.0513
511.00,0.0517
510.00,0.0525
509.00,0.0535
508.00,0.0547
507.00,0.0559
506.00,0.0567
505.00,0.0567
504.00,0.0556
503.00,0.0536
502.00,0.0512
501.00,0.0490
500.00,0.0472
499.00,0.0461
498.00,0.0456
497.00,0.0458
496.00,0.0468
495.00,0.0486
494.00,0.0507
493.00,0.0526
492.00,0.0538
491.00,0.0538
490.00,0.0528
489.00,0.0511
488.00,0.0492
487.00,0.0474
486.00,0.0459
485.00,0.0445
484.00,0.0433
483.00,0.0421
482.00,0.0409
481.00,0.0398
480.00,0.0387
479.00,0.0378
478.00,0.0371
477.00,0.0366
476.00,0.0362
475.00,0.0360
474.00,0.0359
473.00,0.0357
472.00,0.0355
471.00,0.0352
470.00,0.0348
469.00,0.0344
468.00,0.0340
467.00,0.0336
466.00,0.0332
465.00,0.0329
464.00,0.0327
463.00,0.0328
462.00,0.0329
461.00,0.0328
460.00,0.0326
459.00,0.0326
458.00,0.0329
457.00,0.0333
456.00,0.0336
455.00,0.0337
454.00,0.0336
453.00,0.0332
452.00,0.0328
451.00,0.0324
450.00,0.0321
449.00,0.0319
448.00,0.0314
447.00,0.0309
446.00,0.0305
445.00,0.0304
444.00,0.0307
443.00,0.0313
442.00,0.0319
441.00,0.0325
440.00,0.0327
439.00,0.0325
438.00,0.0319
437.00,0.0308
436.00,0.0296
435.00,0.0285
434.00,0.0278
433.00,0.0275
432.00,0.0275
431.00,0.0276
430.00,0.0276
429.00,0.0274
428.00,0.0271
427.00,0.0267
426.00,0.0263
425.00,0.0259
424.00,0.0255
423.00,0.0251
422.00,0.0246
421.00,0.0243
420.00,0.0241
419.00,0.0245
418.00,0.0255
417.00,0.0263
416.00,0.0268
415.00,0.0278
414.00,0.0297
413.00,0.0324
412.00,0.0356
411.00,0.0388
410.00,0.0412
409.00,0.0422
408.00,0.0414
407.00,0.0391
406.00,0.0360
405.00,0.0329
404.00,0.0302
403.00,0.0284
402.00,0.0277
401.00,0.0282
400.00,0.0292
