Created as New Dataset,Sample 184 By YargerLab Date Saturday, October 04 2025
cm-1,A
4000.00,0.0116
3999.00,0.0116
3998.00,0.0115
3997.00,0.0115
3996.00,0.0115
3995.00,0.0115
3994.00,0.0115
3993.00,0.0115
3992.00,0.0115
3991.00,0.0115
3990.00,0.0115
3989.00,0.0115
3988.00,0.0115
3987.00,0.0115
3986.00,0.0115
3985.00,0.0115
3984.00,0.0115
3983.00,0.0116
3982.00,0.0116
3981.00,0.0116
3980.00,0.0116
3979.00,0.0116
3978.00,0.0116
3977.00,0.0116
3976.00,0.0116
3975.00,0.0116
3974.00,0.0117
3973.00,0.0117
3972.00,0.0117
3971.00,0.0117
3970.00,0.0117
3969.00,0.0117
3968.00,0.0117
3967.00,0.0117
3966.00,0.0117
3965.00,0.0117
3964.00,0.0117
3963.00,0.0116
3962.00,0.0116
3961.00,0.0116
3960.00,0.0116
3959.00,0.0115
3958.00,0.0115
3957.00,0.0115
3956.00,0.0115
3955.00,0.0115
3954.00,0.0115
3953.00,0.0115
3952.00,0.0115
3951.00,0.0115
3950.00,0.0115
3949.00,0.0115
3948.00,0.0115
3947.00,0.0115
3946.00,0.0115
3945.00,0.0115
3944.00,0.0114
3943.00,0.0114
3942.00,0.0114
3941.00,0.0114
3940.00,0.0114
3939.00,0.0114
3938.00,0.0114
3937.00,0.0114
3936.00,0.0114
3935.00,0.0114
3934.00,0.0114
3933.00,0.0114
3932.00,0.0115
3931.00,0.0115
3930.00,0.0115
3929.00,0.0115
3928.00,0.0115
3927.00,0.0115
3926.00,0.0114
3925.00,0.0114
3924.00,0.0114
3923.00,0.0115
3922.00,0.0115
3921.00,0.0115
3920.00,0.0115
3919.00,0.0115
3918.00,0.0115
3917.00,0.0115
3916.00,0.0114
3915.00,0.0114
3914.00,0.0114
3913.00,0.0115
3912.00,0.0115
3911.00,0.0115
3910.00,0.0115
3909.00,0.0114
3908.00,0.0114
3907.00,0.0114
3906.00,0.0114
3905.00,0.0114
3904.00,0.0114
3903.00,0.0113
3902.00,0.0113
3901.00,0.0113
3900.00,0.0113
3899.00,0.0113
3898.00,0.0113
3897.00,0.0114
3896.00,0.0114
3895.00,0.0114
3894.00,0.0114
3893.00,0.0114
3892.00,0.0114
3891.00,0.0113
3890.00,0.0113
3889.00,0.0113
3888.00,0.0113
3887.00,0.0113
3886.00,0.0113
3885.00,0.0113
3884.00,0.0113
3883.00,0.0113
3882.00,0.0113
3881.00,0.0113
3880.00,0.0113
3879.00,0.0113
3878.00,0.0113
3877.00,0.0112
3876.00,0.0112
3875.00,0.0112
3874.00,0.0112
3873.00,0.0112
3872.00,0.0112
3871.00,0.0112
3870.00,0.0112
3869.00,0.0112
3868.00,0.0112
3867.00,0.0112
3866.00,0.0112
3865.00,0.0113
3864.00,0.0113
3863.00,0.0112
3862.00,0.0112
3861.00,0.0113
3860.00,0.0113
3859.00,0.0113
3858.00,0.0113
3857.00,0.0113
3856.00,0.0112
3855.00,0.0112
3854.00,0.0112
3853.00,0.0111
3852.00,0.0112
3851.00,0.0112
3850.00,0.0112
3849.00,0.0112
3848.00,0.0112
3847.00,0.0112
3846.00,0.0112
3845.00,0.0112
3844.00,0.0112
3843.00,0.0112
3842.00,0.0111
3841.00,0.0111
3840.00,0.0111
3839.00,0.0111
3838.00,0.0111
3837.00,0.0112
3836.00,0.0112
3835.00,0.0112
3834.00,0.0112
3833.00,0.0112
3832.00,0.0112
3831.00,0.0112
3830.00,0.0112
3829.00,0.0112
3828.00,0.0111
3827.00,0.0111
3826.00,0.0111
3825.00,0.0111
3824.00,0.0111
3823.00,0.0111
3822.00,0.0111
3821.00,0.0111
3820.00,0.0111
3819.00,0.0111
3818.00,0.0111
3817.00,0.0111
3816.00,0.0111
3815.00,0.0111
3814.00,0.0111
3813.00,0.0111
3812.00,0.0111
3811.00,0.0111
3810.00,0.0111
3809.00,0.0111
3808.00,0.0111
3807.00,0.0111
3806.00,0.0111
3805.00,0.0111
3804.00,0.0111
3803.00,0.0111
3802.00,0.0111
3801.00,0.0111
3800.00,0.0110
3799.00,0.0110
3798.00,0.0110
3797.00,0.0111
3796.00,0.0111
3795.00,0.0111
3794.00,0.0111
3793.00,0.0111
3792.00,0.0111
3791.00,0.0111
3790.00,0.0111
3789.00,0.0111
3788.00,0.0111
3787.00,0.0111
3786.00,0.0110
3785.00,0.0110
3784.00,0.0110
3783.00,0.0110
3782.00,0.0110
3781.00,0.0110
3780.00,0.0110
3779.00,0.0111
3778.00,0.0110
3777.00,0.0110
3776.00,0.0110
3775.00,0.0110
3774.00,0.0110
3773.00,0.0110
3772.00,0.0110
3771.00,0.0110
3770.00,0.0110
3769.00,0.0110
3768.00,0.0110
3767.00,0.0110
3766.00,0.0110
3765.00,0.0110
3764.00,0.0110
3763.00,0.0111
3762.00,0.0111
3761.00,0.0110
3760.00,0.0110
3759.00,0.0110
3758.00,0.0110
3757.00,0.0110
3756.00,0.0110
3755.00,0.0110
3754.00,0.0110
3753.00,0.0109
3752.00,0.0109
3751.00,0.0109
3750.00,0.0109
3749.00,0.0109
3748.00,0.0109
3747.00,0.0109
3746.00,0.0109
3745.00,0.0109
3744.00,0.0109
3743.00,0.0109
3742.00,0.0109
3741.00,0.0109
3740.00,0.0109
3739.00,0.0108
3738.00,0.0108
3737.00,0.0108
3736.00,0.0108
3735.00,0.0108
3734.00,0.0107
3733.00,0.0107
3732.00,0.0107
3731.00,0.0107
3730.00,0.0107
3729.00,0.0107
3728.00,0.0107
3727.00,0.0107
3726.00,0.0107
3725.00,0.0108
3724.00,0.0108
3723.00,0.0108
3722.00,0.0108
3721.00,0.0108
3720.00,0.0108
3719.00,0.0108
3718.00,0.0108
3717.00,0.0108
3716.00,0.0108
3715.00,0.0107
3714.00,0.0107
3713.00,0.0107
3712.00,0.0106
3711.00,0.0106
3710.00,0.0106
3709.00,0.0106
3708.00,0.0106
3707.00,0.0106
3706.00,0.0106
3705.00,0.0106
3704.00,0.0106
3703.00,0.0106
3702.00,0.0106
3701.00,0.0106
3700.00,0.0106
3699.00,0.0106
3698.00,0.0106
3697.00,0.0107
3696.00,0.0107
3695.00,0.0107
3694.00,0.0107
3693.00,0.0107
3692.00,0.0107
3691.00,0.0107
3690.00,0.0106
3689.00,0.0106
3688.00,0.0106
3687.00,0.0106
3686.00,0.0106
3685.00,0.0106
3684.00,0.0106
3683.00,0.0106
3682.00,0.0107
3681.00,0.0106
3680.00,0.0106
3679.00,0.0106
3678.00,0.0105
3677.00,0.0106
3676.00,0.0106
3675.00,0.0106
3674.00,0.0105
3673.00,0.0105
3672.00,0.0105
3671.00,0.0105
3670.00,0.0105
3669.00,0.0106
3668.00,0.0106
3667.00,0.0106
3666.00,0.0106
3665.00,0.0106
3664.00,0.0106
3663.00,0.0107
3662.00,0.0107
3661.00,0.0107
3660.00,0.0107
3659.00,0.0107
3658.00,0.0107
3657.00,0.0107
3656.00,0.0107
3655.00,0.0106
3654.00,0.0106
3653.00,0.0106
3652.00,0.0105
3651.00,0.0105
3650.00,0.0105
3649.00,0.0105
3648.00,0.0105
3647.00,0.0105
3646.00,0.0105
3645.00,0.0105
3644.00,0.0105
3643.00,0.0105
3642.00,0.0106
3641.00,0.0106
3640.00,0.0106
3639.00,0.0106
3638.00,0.0106
3637.00,0.0106
3636.00,0.0106
3635.00,0.0105
3634.00,0.0105
3633.00,0.0104
3632.00,0.0104
3631.00,0.0105
3630.00,0.0105
3629.00,0.0105
3628.00,0.0105
3627.00,0.0105
3626.00,0.0105
3625.00,0.0105
3624.00,0.0105
3623.00,0.0105
3622.00,0.0106
3621.00,0.0106
3620.00,0.0106
3619.00,0.0106
3618.00,0.0106
3617.00,0.0107
3616.00,0.0107
3615.00,0.0107
3614.00,0.0107
3613.00,0.0106
3612.00,0.0106
3611.00,0.0106
3610.00,0.0106
3609.00,0.0107
3608.00,0.0107
3607.00,0.0107
3606.00,0.0107
3605.00,0.0107
3604.00,0.0106
3603.00,0.0106
3602.00,0.0106
3601.00,0.0106
3600.00,0.0107
3599.00,0.0107
3598.00,0.0107
3597.00,0.0107
3596.00,0.0107
3595.00,0.0107
3594.00,0.0107
3593.00,0.0107
3592.00,0.0107
3591.00,0.0107
3590.00,0.0107
3589.00,0.0107
3588.00,0.0107
3587.00,0.0107
3586.00,0.0107
3585.00,0.0107
3584.00,0.0107
3583.00,0.0108
3582.00,0.0108
3581.00,0.0109
3580.00,0.0109
3579.00,0.0109
3578.00,0.0109
3577.00,0.0109
3576.00,0.0109
3575.00,0.0109
3574.00,0.0109
3573.00,0.0109
3572.00,0.0110
3571.00,0.0110
3570.00,0.0110
3569.00,0.0110
3568.00,0.0110
3567.00,0.0110
3566.00,0.0110
3565.00,0.0110
3564.00,0.0111
3563.00,0.0111
3562.00,0.0111
3561.00,0.0112
3560.00,0.0112
3559.00,0.0112
3558.00,0.0112
3557.00,0.0113
3556.00,0.0113
3555.00,0.0113
3554.00,0.0114
3553.00,0.0114
3552.00,0.0114
3551.00,0.0115
3550.00,0.0115
3549.00,0.0115
3548.00,0.0116
3547.00,0.0116
3546.00,0.0116
3545.00,0.0117
3544.00,0.0117
3543.00,0.0118
3542.00,0.0118
3541.00,0.0118
3540.00,0.0119
3539.00,0.0119
3538.00,0.0120
3537.00,0.0120
3536.00,0.0120
3535.00,0.0121
3534.00,0.0121
3533.00,0.0122
3532.00,0.0123
3531.00,0.0124
3530.00,0.0124
3529.00,0.0124
3528.00,0.0125
3527.00,0.0125
3526.00,0.0125
3525.00,0.0126
3524.00,0.0127
3523.00,0.0127
3522.00,0.0128
3521.00,0.0129
3520.00,0.0130
3519.00,0.0130
3518.00,0.0131
3517.00,0.0131
3516.00,0.0132
3515.00,0.0133
3514.00,0.0134
3513.00,0.0135
3512.00,0.0136
3511.00,0.0136
3510.00,0.0137
3509.00,0.0138
3508.00,0.0138
3507.00,0.0139
3506.00,0.0140
3505.00,0.0141
3504.00,0.0142
3503.00,0.0143
3502.00,0.0144
3501.00,0.0145
3500.00,0.0146
3499.00,0.0147
3498.00,0.0149
3497.00,0.0150
3496.00,0.0151
3495.00,0.0152
3494.00,0.0154
3493.00,0.0155
3492.00,0.0157
3491.00,0.0158
3490.00,0.0160
3489.00,0.0161
3488.00,0.0163
3487.00,0.0164
3486.00,0.0166
3485.00,0.0168
3484.00,0.0169
3483.00,0.0171
3482.00,0.0173
3481.00,0.0175
3480.00,0.0177
3479.00,0.0179
3478.00,0.0181
3477.00,0.0183
3476.00,0.0185
3475.00,0.0187
3474.00,0.0189
3473.00,0.0192
3472.00,0.0194
3471.00,0.0196
3470.00,0.0199
3469.00,0.0201
3468.00,0.0203
3467.00,0.0205
3466.00,0.0207
3465.00,0.0210
3464.00,0.0212
3463.00,0.0215
3462.00,0.0218
3461.00,0.0220
3460.00,0.0223
3459.00,0.0226
3458.00,0.0229
3457.00,0.0231
3456.00,0.0234
3455.00,0.0237
3454.00,0.0239
3453.00,0.0242
3452.00,0.0245
3451.00,0.0247
3450.00,0.0250
3449.00,0.0253
3448.00,0.0256
3447.00,0.0259
3446.00,0.0262
3445.00,0.0266
3444.00,0.0269
3443.00,0.0272
3442.00,0.0275
3441.00,0.0279
3440.00,0.0282
3439.00,0.0286
3438.00,0.0290
3437.00,0.0294
3436.00,0.0298
3435.00,0.0302
3434.00,0.0307
3433.00,0.0311
3432.00,0.0316
3431.00,0.0320
3430.00,0.0325
3429.00,0.0329
3428.00,0.0334
3427.00,0.0339
3426.00,0.0344
3425.00,0.0349
3424.00,0.0354
3423.00,0.0360
3422.00,0.0365
3421.00,0.0370
3420.00,0.0375
3419.00,0.0380
3418.00,0.0385
3417.00,0.0389
3416.00,0.0394
3415.00,0.0398
3414.00,0.0403
3413.00,0.0407
3412.00,0.0412
3411.00,0.0416
3410.00,0.0419
3409.00,0.0423
3408.00,0.0425
3407.00,0.0428
3406.00,0.0430
3405.00,0.0432
3404.00,0.0434
3403.00,0.0436
3402.00,0.0437
3401.00,0.0437
3400.00,0.0438
3399.00,0.0437
3398.00,0.0437
3397.00,0.0436
3396.00,0.0435
3395.00,0.0434
3394.00,0.0433
3393.00,0.0431
3392.00,0.0429
3391.00,0.0427
3390.00,0.0424
3389.00,0.0421
3388.00,0.0419
3387.00,0.0416
3386.00,0.0413
3385.00,0.0410
3384.00,0.0407
3383.00,0.0404
3382.00,0.0401
3381.00,0.0398
3380.00,0.0395
3379.00,0.0392
3378.00,0.0389
3377.00,0.0386
3376.00,0.0383
3375.00,0.0379
3374.00,0.0376
3373.00,0.0374
3372.00,0.0371
3371.00,0.0369
3370.00,0.0367
3369.00,0.0364
3368.00,0.0362
3367.00,0.0359
3366.00,0.0357
3365.00,0.0354
3364.00,0.0352
3363.00,0.0350
3362.00,0.0348
3361.00,0.0346
3360.00,0.0344
3359.00,0.0342
3358.00,0.0340
3357.00,0.0339
3356.00,0.0338
3355.00,0.0336
3354.00,0.0335
3353.00,0.0334
3352.00,0.0333
3351.00,0.0332
3350.00,0.0330
3349.00,0.0329
3348.00,0.0328
3347.00,0.0327
3346.00,0.0326
3345.00,0.0325
3344.00,0.0324
3343.00,0.0324
3342.00,0.0324
3341.00,0.0323
3340.00,0.0323
3339.00,0.0323
3338.00,0.0322
3337.00,0.0322
3336.00,0.0321
3335.00,0.0321
3334.00,0.0321
3333.00,0.0321
3332.00,0.0321
3331.00,0.0322
3330.00,0.0322
3329.00,0.0322
3328.00,0.0323
3327.00,0.0323
3326.00,0.0324
3325.00,0.0325
3324.00,0.0325
3323.00,0.0326
3322.00,0.0326
3321.00,0.0327
3320.00,0.0328
3319.00,0.0329
3318.00,0.0330
3317.00,0.0331
3316.00,0.0333
3315.00,0.0334
3314.00,0.0335
3313.00,0.0336
3312.00,0.0337
3311.00,0.0339
3310.00,0.0340
3309.00,0.0342
3308.00,0.0343
3307.00,0.0344
3306.00,0.0346
3305.00,0.0347
3304.00,0.0349
3303.00,0.0350
3302.00,0.0352
3301.00,0.0353
3300.00,0.0355
3299.00,0.0357
3298.00,0.0358
3297.00,0.0360
3296.00,0.0362
3295.00,0.0364
3294.00,0.0366
3293.00,0.0368
3292.00,0.0370
3291.00,0.0372
3290.00,0.0373
3289.00,0.0375
3288.00,0.0377
3287.00,0.0379
3286.00,0.0381
3285.00,0.0383
3284.00,0.0384
3283.00,0.0386
3282.00,0.0388
3281.00,0.0390
3280.00,0.0392
3279.00,0.0394
3278.00,0.0396
3277.00,0.0399
3276.00,0.0401
3275.00,0.0403
3274.00,0.0405
3273.00,0.0407
3272.00,0.0409
3271.00,0.0411
3270.00,0.0413
3269.00,0.0415
3268.00,0.0416
3267.00,0.0418
3266.00,0.0420
3265.00,0.0422
3264.00,0.0424
3263.00,0.0426
3262.00,0.0428
3261.00,0.0430
3260.00,0.0432
3259.00,0.0434
3258.00,0.0435
3257.00,0.0438
3256.00,0.0440
3255.00,0.0442
3254.00,0.0444
3253.00,0.0445
3252.00,0.0447
3251.00,0.0449
3250.00,0.0451
3249.00,0.0452
3248.00,0.0453
3247.00,0.0455
3246.00,0.0456
3245.00,0.0458
3244.00,0.0460
3243.00,0.0461
3242.00,0.0462
3241.00,0.0463
3240.00,0.0464
3239.00,0.0464
3238.00,0.0465
3237.00,0.0465
3236.00,0.0465
3235.00,0.0465
3234.00,0.0465
3233.00,0.0466
3232.00,0.0466
3231.00,0.0466
3230.00,0.0466
3229.00,0.0466
3228.00,0.0466
3227.00,0.0465
3226.00,0.0465
3225.00,0.0465
3224.00,0.0464
3223.00,0.0464
3222.00,0.0463
3221.00,0.0463
3220.00,0.0462
3219.00,0.0461
3218.00,0.0459
3217.00,0.0458
3216.00,0.0457
3215.00,0.0455
3214.00,0.0454
3213.00,0.0452
3212.00,0.0450
3211.00,0.0448
3210.00,0.0446
3209.00,0.0444
3208.00,0.0442
3207.00,0.0440
3206.00,0.0437
3205.00,0.0435
3204.00,0.0433
3203.00,0.0430
3202.00,0.0428
3201.00,0.0425
3200.00,0.0422
3199.00,0.0420
3198.00,0.0417
3197.00,0.0415
3196.00,0.0412
3195.00,0.0410
3194.00,0.0407
3193.00,0.0405
3192.00,0.0402
3191.00,0.0399
3190.00,0.0396
3189.00,0.0393
3188.00,0.0390
3187.00,0.0387
3186.00,0.0385
3185.00,0.0382
3184.00,0.0380
3183.00,0.0377
3182.00,0.0375
3181.00,0.0372
3180.00,0.0369
3179.00,0.0366
3178.00,0.0364
3177.00,0.0361
3176.00,0.0358
3175.00,0.0355
3174.00,0.0352
3173.00,0.0349
3172.00,0.0347
3171.00,0.0344
3170.00,0.0341
3169.00,0.0338
3168.00,0.0335
3167.00,0.0332
3166.00,0.0330
3165.00,0.0327
3164.00,0.0324
3163.00,0.0321
3162.00,0.0318
3161.00,0.0315
3160.00,0.0312
3159.00,0.0309
3158.00,0.0306
3157.00,0.0304
3156.00,0.0300
3155.00,0.0297
3154.00,0.0294
3153.00,0.0291
3152.00,0.0289
3151.00,0.0287
3150.00,0.0285
3149.00,0.0283
3148.00,0.0281
3147.00,0.0278
3146.00,0.0276
3145.00,0.0274
3144.00,0.0271
3143.00,0.0269
3142.00,0.0267
3141.00,0.0264
3140.00,0.0262
3139.00,0.0259
3138.00,0.0257
3137.00,0.0256
3136.00,0.0254
3135.00,0.0252
3134.00,0.0250
3133.00,0.0248
3132.00,0.0247
3131.00,0.0245
3130.00,0.0244
3129.00,0.0242
3128.00,0.0241
3127.00,0.0240
3126.00,0.0239
3125.00,0.0237
3124.00,0.0236
3123.00,0.0234
3122.00,0.0233
3121.00,0.0232
3120.00,0.0230
3119.00,0.0229
3118.00,0.0228
3117.00,0.0226
3116.00,0.0225
3115.00,0.0223
3114.00,0.0222
3113.00,0.0220
3112.00,0.0219
3111.00,0.0217
3110.00,0.0215
3109.00,0.0213
3108.00,0.0211
3107.00,0.0209
3106.00,0.0208
3105.00,0.0207
3104.00,0.0205
3103.00,0.0204
3102.00,0.0203
3101.00,0.0202
3100.00,0.0201
3099.00,0.0200
3098.00,0.0199
3097.00,0.0199
3096.00,0.0199
3095.00,0.0199
3094.00,0.0199
3093.00,0.0199
3092.00,0.0199
3091.00,0.0200
3090.00,0.0201
3089.00,0.0202
3088.00,0.0203
3087.00,0.0204
3086.00,0.0204
3085.00,0.0204
3084.00,0.0204
3083.00,0.0203
3082.00,0.0203
3081.00,0.0202
3080.00,0.0201
3079.00,0.0201
3078.00,0.0200
3077.00,0.0199
3076.00,0.0199
3075.00,0.0198
3074.00,0.0197
3073.00,0.0197
3072.00,0.0196
3071.00,0.0196
3070.00,0.0195
3069.00,0.0195
3068.00,0.0195
3067.00,0.0195
3066.00,0.0195
3065.00,0.0195
3064.00,0.0196
3063.00,0.0196
3062.00,0.0196
3061.00,0.0197
3060.00,0.0197
3059.00,0.0198
3058.00,0.0198
3057.00,0.0198
3056.00,0.0198
3055.00,0.0199
3054.00,0.0199
3053.00,0.0199
3052.00,0.0199
3051.00,0.0199
3050.00,0.0198
3049.00,0.0198
3048.00,0.0197
3047.00,0.0196
3046.00,0.0196
3045.00,0.0196
3044.00,0.0196
3043.00,0.0196
3042.00,0.0197
3041.00,0.0198
3040.00,0.0199
3039.00,0.0201
3038.00,0.0203
3037.00,0.0205
3036.00,0.0207
3035.00,0.0209
3034.00,0.0210
3033.00,0.0212
3032.00,0.0212
3031.00,0.0211
3030.00,0.0210
3029.00,0.0209
3028.00,0.0207
3027.00,0.0204
3026.00,0.0201
3025.00,0.0199
3024.00,0.0196
3023.00,0.0193
3022.00,0.0191
3021.00,0.0189
3020.00,0.0187
3019.00,0.0185
3018.00,0.0184
3017.00,0.0182
3016.00,0.0181
3015.00,0.0181
3014.00,0.0180
3013.00,0.0180
3012.00,0.0181
3011.00,0.0181
3010.00,0.0183
3009.00,0.0184
3008.00,0.0186
3007.00,0.0188
3006.00,0.0190
3005.00,0.0194
3004.00,0.0197
3003.00,0.0202
3002.00,0.0206
3001.00,0.0212
3000.00,0.0218
2999.00,0.0225
2998.00,0.0233
2997.00,0.0242
2996.00,0.0251
2995.00,0.0260
2994.00,0.0269
2993.00,0.0275
2992.00,0.0281
2991.00,0.0285
2990.00,0.0289
2989.00,0.0293
2988.00,0.0298
2987.00,0.0304
2986.00,0.0312
2985.00,0.0322
2984.00,0.0336
2983.00,0.0352
2982.00,0.0371
2981.00,0.0390
2980.00,0.0407
2979.00,0.0420
2978.00,0.0427
2977.00,0.0430
2976.00,0.0434
2975.00,0.0442
2974.00,0.0456
2973.00,0.0477
2972.00,0.0501
2971.00,0.0524
2970.00,0.0543
2969.00,0.0556
2968.00,0.0564
2967.00,0.0570
2966.00,0.0577
2965.00,0.0587
2964.00,0.0599
2963.00,0.0613
2962.00,0.0626
2961.00,0.0635
2960.00,0.0639
2959.00,0.0636
2958.00,0.0626
2957.00,0.0609
2956.00,0.0588
2955.00,0.0564
2954.00,0.0539
2953.00,0.0517
2952.00,0.0497
2951.00,0.0481
2950.00,0.0470
2949.00,0.0463
2948.00,0.0461
2947.00,0.0463
2946.00,0.0469
2945.00,0.0478
2944.00,0.0490
2943.00,0.0504
2942.00,0.0520
2941.00,0.0538
2940.00,0.0559
2939.00,0.0583
2938.00,0.0612
2937.00,0.0645
2936.00,0.0684
2935.00,0.0727
2934.00,0.0773
2933.00,0.0821
2932.00,0.0870
2931.00,0.0918
2930.00,0.0962
2929.00,0.1000
2928.00,0.1029
2927.00,0.1048
2926.00,0.1055
2925.00,0.1051
2924.00,0.1038
2923.00,0.1019
2922.00,0.0994
2921.00,0.0966
2920.00,0.0936
2919.00,0.0904
2918.00,0.0872
2917.00,0.0839
2916.00,0.0806
2915.00,0.0775
2914.00,0.0745
2913.00,0.0718
2912.00,0.0693
2911.00,0.0670
2910.00,0.0648
2909.00,0.0629
2908.00,0.0611
2907.00,0.0595
2906.00,0.0579
2905.00,0.0563
2904.00,0.0549
2903.00,0.0534
2902.00,0.0521
2901.00,0.0507
2900.00,0.0495
2899.00,0.0482
2898.00,0.0471
2897.00,0.0460
2896.00,0.0450
2895.00,0.0441
2894.00,0.0432
2893.00,0.0425
2892.00,0.0417
2891.00,0.0410
2890.00,0.0404
2889.00,0.0397
2888.00,0.0391
2887.00,0.0386
2886.00,0.0381
2885.00,0.0377
2884.00,0.0374
2883.00,0.0373
2882.00,0.0374
2881.00,0.0377
2880.00,0.0383
2879.00,0.0392
2878.00,0.0404
2877.00,0.0419
2876.00,0.0435
2875.00,0.0450
2874.00,0.0464
2873.00,0.0474
2872.00,0.0479
2871.00,0.0480
2870.00,0.0478
2869.00,0.0475
2868.00,0.0472
2867.00,0.0472
2866.00,0.0477
2865.00,0.0487
2864.00,0.0504
2863.00,0.0528
2862.00,0.0559
2861.00,0.0596
2860.00,0.0636
2859.00,0.0675
2858.00,0.0709
2857.00,0.0736
2856.00,0.0755
2855.00,0.0765
2854.00,0.0769
2853.00,0.0766
2852.00,0.0755
2851.00,0.0736
2850.00,0.0709
2849.00,0.0673
2848.00,0.0633
2847.00,0.0592
2846.00,0.0552
2845.00,0.0515
2844.00,0.0481
2843.00,0.0451
2842.00,0.0425
2841.00,0.0401
2840.00,0.0381
2839.00,0.0364
2838.00,0.0349
2837.00,0.0336
2836.00,0.0324
2835.00,0.0314
2834.00,0.0306
2833.00,0.0298
2832.00,0.0290
2831.00,0.0284
2830.00,0.0278
2829.00,0.0272
2828.00,0.0267
2827.00,0.0262
2826.00,0.0258
2825.00,0.0254
2824.00,0.0250
2823.00,0.0246
2822.00,0.0243
2821.00,0.0240
2820.00,0.0237
2819.00,0.0234
2818.00,0.0232
2817.00,0.0229
2816.00,0.0227
2815.00,0.0225
2814.00,0.0223
2813.00,0.0221
2812.00,0.0219
2811.00,0.0217
2810.00,0.0215
2809.00,0.0214
2808.00,0.0213
2807.00,0.0211
2806.00,0.0210
2805.00,0.0209
2804.00,0.0207
2803.00,0.0206
2802.00,0.0205
2801.00,0.0204
2800.00,0.0203
2799.00,0.0201
2798.00,0.0200
2797.00,0.0199
2796.00,0.0198
2795.00,0.0197
2794.00,0.0196
2793.00,0.0195
2792.00,0.0193
2791.00,0.0192
2790.00,0.0191
2789.00,0.0190
2788.00,0.0189
2787.00,0.0188
2786.00,0.0187
2785.00,0.0186
2784.00,0.0185
2783.00,0.0184
2782.00,0.0183
2781.00,0.0182
2780.00,0.0182
2779.00,0.0181
2778.00,0.0180
2777.00,0.0179
2776.00,0.0178
2775.00,0.0178
2774.00,0.0177
2773.00,0.0177
2772.00,0.0177
2771.00,0.0177
2770.00,0.0177
2769.00,0.0176
2768.00,0.0176
2767.00,0.0175
2766.00,0.0175
2765.00,0.0175
2764.00,0.0175
2763.00,0.0175
2762.00,0.0175
2761.00,0.0175
2760.00,0.0175
2759.00,0.0174
2758.00,0.0174
2757.00,0.0174
2756.00,0.0174
2755.00,0.0174
2754.00,0.0174
2753.00,0.0174
2752.00,0.0174
2751.00,0.0174
2750.00,0.0174
2749.00,0.0175
2748.00,0.0175
2747.00,0.0175
2746.00,0.0175
2745.00,0.0176
2744.00,0.0176
2743.00,0.0176
2742.00,0.0177
2741.00,0.0177
2740.00,0.0178
2739.00,0.0179
2738.00,0.0180
2737.00,0.0182
2736.00,0.0183
2735.00,0.0184
2734.00,0.0186
2733.00,0.0187
2732.00,0.0188
2731.00,0.0189
2730.00,0.0189
2729.00,0.0190
2728.00,0.0189
2727.00,0.0188
2726.00,0.0187
2725.00,0.0186
2724.00,0.0185
2723.00,0.0184
2722.00,0.0184
2721.00,0.0183
2720.00,0.0182
2719.00,0.0181
2718.00,0.0181
2717.00,0.0180
2716.00,0.0179
2715.00,0.0179
2714.00,0.0178
2713.00,0.0177
2712.00,0.0177
2711.00,0.0177
2710.00,0.0177
2709.00,0.0176
2708.00,0.0176
2707.00,0.0176
2706.00,0.0176
2705.00,0.0176
2704.00,0.0176
2703.00,0.0176
2702.00,0.0175
2701.00,0.0175
2700.00,0.0175
2699.00,0.0174
2698.00,0.0173
2697.00,0.0173
2696.00,0.0172
2695.00,0.0172
2694.00,0.0171
2693.00,0.0171
2692.00,0.0170
2691.00,0.0170
2690.00,0.0169
2689.00,0.0169
2688.00,0.0168
2687.00,0.0168
2686.00,0.0167
2685.00,0.0167
2684.00,0.0167
2683.00,0.0166
2682.00,0.0166
2681.00,0.0166
2680.00,0.0165
2679.00,0.0165
2678.00,0.0165
2677.00,0.0165
2676.00,0.0165
2675.00,0.0166
2674.00,0.0166
2673.00,0.0166
2672.00,0.0167
2671.00,0.0167
2670.00,0.0168
2669.00,0.0168
2668.00,0.0169
2667.00,0.0169
2666.00,0.0170
2665.00,0.0171
2664.00,0.0172
2663.00,0.0172
2662.00,0.0173
2661.00,0.0173
2660.00,0.0173
2659.00,0.0174
2658.00,0.0174
2657.00,0.0174
2656.00,0.0174
2655.00,0.0174
2654.00,0.0174
2653.00,0.0174
2652.00,0.0174
2651.00,0.0174
2650.00,0.0174
2649.00,0.0174
2648.00,0.0174
2647.00,0.0174
2646.00,0.0174
2645.00,0.0174
2644.00,0.0174
2643.00,0.0174
2642.00,0.0174
2641.00,0.0173
2640.00,0.0173
2639.00,0.0172
2638.00,0.0171
2637.00,0.0170
2636.00,0.0169
2635.00,0.0169
2634.00,0.0168
2633.00,0.0167
2632.00,0.0166
2631.00,0.0165
2630.00,0.0165
2629.00,0.0164
2628.00,0.0163
2627.00,0.0162
2626.00,0.0161
2625.00,0.0161
2624.00,0.0160
2623.00,0.0160
2622.00,0.0159
2621.00,0.0159
2620.00,0.0159
2619.00,0.0159
2618.00,0.0158
2617.00,0.0158
2616.00,0.0158
2615.00,0.0158
2614.00,0.0157
2613.00,0.0157
2612.00,0.0157
2611.00,0.0157
2610.00,0.0157
2609.00,0.0158
2608.00,0.0158
2607.00,0.0158
2606.00,0.0158
2605.00,0.0158
2604.00,0.0159
2603.00,0.0159
2602.00,0.0160
2601.00,0.0160
2600.00,0.0160
2599.00,0.0161
2598.00,0.0161
2597.00,0.0161
2596.00,0.0162
2595.00,0.0162
2594.00,0.0162
2593.00,0.0162
2592.00,0.0162
2591.00,0.0162
2590.00,0.0162
2589.00,0.0162
2588.00,0.0162
2587.00,0.0162
2586.00,0.0162
2585.00,0.0162
2584.00,0.0162
2583.00,0.0162
2582.00,0.0162
2581.00,0.0162
2580.00,0.0161
2579.00,0.0160
2578.00,0.0160
2577.00,0.0159
2576.00,0.0158
2575.00,0.0158
2574.00,0.0158
2573.00,0.0158
2572.00,0.0157
2571.00,0.0157
2570.00,0.0157
2569.00,0.0158
2568.00,0.0158
2567.00,0.0158
2566.00,0.0158
2565.00,0.0158
2564.00,0.0158
2563.00,0.0157
2562.00,0.0156
2561.00,0.0155
2560.00,0.0154
2559.00,0.0153
2558.00,0.0152
2557.00,0.0152
2556.00,0.0151
2555.00,0.0151
2554.00,0.0151
2553.00,0.0151
2552.00,0.0150
2551.00,0.0150
2550.00,0.0150
2549.00,0.0149
2548.00,0.0150
2547.00,0.0150
2546.00,0.0150
2545.00,0.0150
2544.00,0.0150
2543.00,0.0150
2542.00,0.0150
2541.00,0.0150
2540.00,0.0151
2539.00,0.0151
2538.00,0.0151
2537.00,0.0151
2536.00,0.0152
2535.00,0.0152
2534.00,0.0151
2533.00,0.0151
2532.00,0.0151
2531.00,0.0151
2530.00,0.0150
2529.00,0.0150
2528.00,0.0149
2527.00,0.0149
2526.00,0.0149
2525.00,0.0148
2524.00,0.0148
2523.00,0.0147
2522.00,0.0147
2521.00,0.0147
2520.00,0.0146
2519.00,0.0146
2518.00,0.0145
2517.00,0.0145
2516.00,0.0145
2515.00,0.0144
2514.00,0.0144
2513.00,0.0144
2512.00,0.0144
2511.00,0.0143
2510.00,0.0143
2509.00,0.0142
2508.00,0.0142
2507.00,0.0141
2506.00,0.0141
2505.00,0.0141
2504.00,0.0141
2503.00,0.0141
2502.00,0.0140
2501.00,0.0140
2500.00,0.0140
2499.00,0.0140
2498.00,0.0140
2497.00,0.0139
2496.00,0.0139
2495.00,0.0139
2494.00,0.0139
2493.00,0.0138
2492.00,0.0138
2491.00,0.0138
2490.00,0.0137
2489.00,0.0137
2488.00,0.0137
2487.00,0.0137
2486.00,0.0137
2485.00,0.0137
2484.00,0.0137
2483.00,0.0136
2482.00,0.0136
2481.00,0.0136
2480.00,0.0136
2479.00,0.0136
2478.00,0.0136
2477.00,0.0136
2476.00,0.0136
2475.00,0.0136
2474.00,0.0136
2473.00,0.0135
2472.00,0.0135
2471.00,0.0135
2470.00,0.0135
2469.00,0.0135
2468.00,0.0135
2467.00,0.0135
2466.00,0.0134
2465.00,0.0134
2464.00,0.0134
2463.00,0.0133
2462.00,0.0133
2461.00,0.0134
2460.00,0.0134
2459.00,0.0134
2458.00,0.0134
2457.00,0.0134
2456.00,0.0134
2455.00,0.0134
2454.00,0.0135
2453.00,0.0135
2452.00,0.0135
2451.00,0.0135
2450.00,0.0134
2449.00,0.0134
2448.00,0.0134
2447.00,0.0133
2446.00,0.0133
2445.00,0.0133
2444.00,0.0133
2443.00,0.0133
2442.00,0.0132
2441.00,0.0131
2440.00,0.0131
2439.00,0.0130
2438.00,0.0130
2437.00,0.0130
2436.00,0.0130
2435.00,0.0130
2434.00,0.0130
2433.00,0.0129
2432.00,0.0129
2431.00,0.0129
2430.00,0.0129
2429.00,0.0129
2428.00,0.0129
2427.00,0.0129
2426.00,0.0129
2425.00,0.0129
2424.00,0.0129
2423.00,0.0129
2422.00,0.0129
2421.00,0.0128
2420.00,0.0128
2419.00,0.0128
2418.00,0.0128
2417.00,0.0129
2416.00,0.0129
2415.00,0.0129
2414.00,0.0129
2413.00,0.0129
2412.00,0.0128
2411.00,0.0128
2410.00,0.0128
2409.00,0.0127
2408.00,0.0127
2407.00,0.0127
2406.00,0.0126
2405.00,0.0126
2404.00,0.0126
2403.00,0.0126
2402.00,0.0126
2401.00,0.0127
2400.00,0.0127
2399.00,0.0126
2398.00,0.0126
2397.00,0.0126
2396.00,0.0126
2395.00,0.0126
2394.00,0.0126
2393.00,0.0125
2392.00,0.0125
2391.00,0.0125
2390.00,0.0125
2389.00,0.0125
2388.00,0.0125
2387.00,0.0124
2386.00,0.0124
2385.00,0.0124
2384.00,0.0123
2383.00,0.0123
2382.00,0.0122
2381.00,0.0122
2380.00,0.0121
2379.00,0.0121
2378.00,0.0121
2377.00,0.0122
2376.00,0.0123
2375.00,0.0123
2374.00,0.0123
2373.00,0.0123
2372.00,0.0123
2371.00,0.0123
2370.00,0.0123
2369.00,0.0123
2368.00,0.0123
2367.00,0.0123
2366.00,0.0123
2365.00,0.0123
2364.00,0.0123
2363.00,0.0123
2362.00,0.0123
2361.00,0.0123
2360.00,0.0123
2359.00,0.0123
2358.00,0.0123
2357.00,0.0124
2356.00,0.0124
2355.00,0.0125
2354.00,0.0124
2353.00,0.0124
2352.00,0.0124
2351.00,0.0124
2350.00,0.0124
2349.00,0.0124
2348.00,0.0124
2347.00,0.0124
2346.00,0.0124
2345.00,0.0124
2344.00,0.0125
2343.00,0.0125
2342.00,0.0125
2341.00,0.0126
2340.00,0.0126
2339.00,0.0126
2338.00,0.0126
2337.00,0.0125
2336.00,0.0126
2335.00,0.0125
2334.00,0.0125
2333.00,0.0124
2332.00,0.0124
2331.00,0.0123
2330.00,0.0124
2329.00,0.0126
2328.00,0.0129
2327.00,0.0133
2326.00,0.0136
2325.00,0.0137
2324.00,0.0136
2323.00,0.0134
2322.00,0.0132
2321.00,0.0130
2320.00,0.0129
2319.00,0.0129
2318.00,0.0128
2317.00,0.0127
2316.00,0.0126
2315.00,0.0125
2314.00,0.0125
2313.00,0.0124
2312.00,0.0123
2311.00,0.0123
2310.00,0.0122
2309.00,0.0122
2308.00,0.0122
2307.00,0.0122
2306.00,0.0122
2305.00,0.0123
2304.00,0.0123
2303.00,0.0123
2302.00,0.0123
2301.00,0.0123
2300.00,0.0123
2299.00,0.0124
2298.00,0.0124
2297.00,0.0125
2296.00,0.0126
2295.00,0.0127
2294.00,0.0127
2293.00,0.0128
2292.00,0.0129
2291.00,0.0130
2290.00,0.0131
2289.00,0.0131
2288.00,0.0132
2287.00,0.0133
2286.00,0.0133
2285.00,0.0132
2284.00,0.0131
2283.00,0.0129
2282.00,0.0128
2281.00,0.0127
2280.00,0.0126
2279.00,0.0125
2278.00,0.0125
2277.00,0.0124
2276.00,0.0123
2275.00,0.0122
2274.00,0.0121
2273.00,0.0121
2272.00,0.0120
2271.00,0.0120
2270.00,0.0119
2269.00,0.0119
2268.00,0.0118
2267.00,0.0117
2266.00,0.0116
2265.00,0.0116
2264.00,0.0116
2263.00,0.0116
2262.00,0.0116
2261.00,0.0116
2260.00,0.0116
2259.00,0.0116
2258.00,0.0115
2257.00,0.0114
2256.00,0.0113
2255.00,0.0112
2254.00,0.0112
2253.00,0.0113
2252.00,0.0114
2251.00,0.0115
2250.00,0.0115
2249.00,0.0116
2248.00,0.0116
2247.00,0.0117
2246.00,0.0117
2245.00,0.0116
2244.00,0.0116
2243.00,0.0116
2242.00,0.0116
2241.00,0.0116
2240.00,0.0117
2239.00,0.0118
2238.00,0.0118
2237.00,0.0117
2236.00,0.0116
2235.00,0.0116
2234.00,0.0116
2233.00,0.0117
2232.00,0.0117
2231.00,0.0117
2230.00,0.0116
2229.00,0.0115
2228.00,0.0115
2227.00,0.0114
2226.00,0.0113
2225.00,0.0113
2224.00,0.0113
2223.00,0.0114
2222.00,0.0115
2221.00,0.0115
2220.00,0.0115
2219.00,0.0115
2218.00,0.0114
2217.00,0.0113
2216.00,0.0113
2215.00,0.0113
2214.00,0.0113
2213.00,0.0114
2212.00,0.0115
2211.00,0.0115
2210.00,0.0115
2209.00,0.0115
2208.00,0.0114
2207.00,0.0115
2206.00,0.0115
2205.00,0.0115
2204.00,0.0115
2203.00,0.0114
2202.00,0.0113
2201.00,0.0111
2200.00,0.0110
2199.00,0.0110
2198.00,0.0110
2197.00,0.0111
2196.00,0.0112
2195.00,0.0112
2194.00,0.0112
2193.00,0.0112
2192.00,0.0112
2191.00,0.0113
2190.00,0.0114
2189.00,0.0117
2188.00,0.0118
2187.00,0.0118
2186.00,0.0116
2185.00,0.0113
2184.00,0.0111
2183.00,0.0109
2182.00,0.0108
2181.00,0.0108
2180.00,0.0108
2179.00,0.0108
2178.00,0.0107
2177.00,0.0106
2176.00,0.0106
2175.00,0.0107
2174.00,0.0108
2173.00,0.0110
2172.00,0.0111
2171.00,0.0112
2170.00,0.0113
2169.00,0.0114
2168.00,0.0116
2167.00,0.0117
2166.00,0.0118
2165.00,0.0121
2164.00,0.0123
2163.00,0.0124
2162.00,0.0119
2161.00,0.0108
2160.00,0.0095
2159.00,0.0084
2158.00,0.0080
2157.00,0.0080
2156.00,0.0083
2155.00,0.0085
2154.00,0.0086
2153.00,0.0088
2152.00,0.0090
2151.00,0.0092
2150.00,0.0092
2149.00,0.0092
2148.00,0.0091
2147.00,0.0091
2146.00,0.0090
2145.00,0.0091
2144.00,0.0092
2143.00,0.0093
2142.00,0.0095
2141.00,0.0096
2140.00,0.0096
2139.00,0.0095
2138.00,0.0093
2137.00,0.0090
2136.00,0.0087
2135.00,0.0085
2134.00,0.0084
2133.00,0.0086
2132.00,0.0089
2131.00,0.0091
2130.00,0.0092
2129.00,0.0093
2128.00,0.0094
2127.00,0.0095
2126.00,0.0096
2125.00,0.0097
2124.00,0.0098
2123.00,0.0098
2122.00,0.0099
2121.00,0.0099
2120.00,0.0101
2119.00,0.0102
2118.00,0.0103
2117.00,0.0104
2116.00,0.0105
2115.00,0.0105
2114.00,0.0105
2113.00,0.0104
2112.00,0.0103
2111.00,0.0102
2110.00,0.0101
2109.00,0.0101
2108.00,0.0100
2107.00,0.0100
2106.00,0.0100
2105.00,0.0101
2104.00,0.0101
2103.00,0.0101
2102.00,0.0101
2101.00,0.0101
2100.00,0.0101
2099.00,0.0100
2098.00,0.0099
2097.00,0.0098
2096.00,0.0096
2095.00,0.0096
2094.00,0.0096
2093.00,0.0096
2092.00,0.0097
2091.00,0.0097
2090.00,0.0098
2089.00,0.0099
2088.00,0.0100
2087.00,0.0101
2086.00,0.0101
2085.00,0.0102
2084.00,0.0102
2083.00,0.0103
2082.00,0.0103
2081.00,0.0103
2080.00,0.0104
2079.00,0.0104
2078.00,0.0105
2077.00,0.0106
2076.00,0.0106
2075.00,0.0105
2074.00,0.0104
2073.00,0.0104
2072.00,0.0104
2071.00,0.0104
2070.00,0.0104
2069.00,0.0104
2068.00,0.0104
2067.00,0.0103
2066.00,0.0102
2065.00,0.0101
2064.00,0.0101
2063.00,0.0100
2062.00,0.0100
2061.00,0.0099
2060.00,0.0099
2059.00,0.0099
2058.00,0.0099
2057.00,0.0098
2056.00,0.0098
2055.00,0.0097
2054.00,0.0099
2053.00,0.0102
2052.00,0.0104
2051.00,0.0104
2050.00,0.0100
2049.00,0.0097
2048.00,0.0094
2047.00,0.0094
2046.00,0.0093
2045.00,0.0094
2044.00,0.0095
2043.00,0.0096
2042.00,0.0097
2041.00,0.0098
2040.00,0.0100
2039.00,0.0101
2038.00,0.0101
2037.00,0.0101
2036.00,0.0101
2035.00,0.0101
2034.00,0.0099
2033.00,0.0098
2032.00,0.0096
2031.00,0.0095
2030.00,0.0093
2029.00,0.0093
2028.00,0.0094
2027.00,0.0094
2026.00,0.0093
2025.00,0.0093
2024.00,0.0093
2023.00,0.0093
2022.00,0.0094
2021.00,0.0094
2020.00,0.0095
2019.00,0.0095
2018.00,0.0094
2017.00,0.0093
2016.00,0.0093
2015.00,0.0093
2014.00,0.0093
2013.00,0.0094
2012.00,0.0095
2011.00,0.0093
2010.00,0.0091
2009.00,0.0087
2008.00,0.0084
2007.00,0.0080
2006.00,0.0079
2005.00,0.0080
2004.00,0.0083
2003.00,0.0086
2002.00,0.0088
2001.00,0.0089
2000.00,0.0091
1999.00,0.0092
1998.00,0.0093
1997.00,0.0095
1996.00,0.0096
1995.00,0.0097
1994.00,0.0096
1993.00,0.0097
1992.00,0.0098
1991.00,0.0098
1990.00,0.0098
1989.00,0.0099
1988.00,0.0100
1987.00,0.0101
1986.00,0.0102
1985.00,0.0103
1984.00,0.0106
1983.00,0.0109
1982.00,0.0112
1981.00,0.0112
1980.00,0.0109
1979.00,0.0102
1978.00,0.0094
1977.00,0.0089
1976.00,0.0088
1975.00,0.0089
1974.00,0.0090
1973.00,0.0091
1972.00,0.0092
1971.00,0.0091
1970.00,0.0089
1969.00,0.0088
1968.00,0.0088
1967.00,0.0088
1966.00,0.0088
1965.00,0.0088
1964.00,0.0089
1963.00,0.0088
1962.00,0.0086
1961.00,0.0086
1960.00,0.0086
1959.00,0.0087
1958.00,0.0087
1957.00,0.0088
1956.00,0.0089
1955.00,0.0091
1954.00,0.0091
1953.00,0.0092
1952.00,0.0092
1951.00,0.0091
1950.00,0.0091
1949.00,0.0092
1948.00,0.0093
1947.00,0.0093
1946.00,0.0093
1945.00,0.0093
1944.00,0.0093
1943.00,0.0094
1942.00,0.0093
1941.00,0.0094
1940.00,0.0095
1939.00,0.0095
1938.00,0.0096
1937.00,0.0096
1936.00,0.0096
1935.00,0.0096
1934.00,0.0096
1933.00,0.0096
1932.00,0.0097
1931.00,0.0097
1930.00,0.0097
1929.00,0.0097
1928.00,0.0097
1927.00,0.0097
1926.00,0.0098
1925.00,0.0098
1924.00,0.0099
1923.00,0.0099
1922.00,0.0099
1921.00,0.0100
1920.00,0.0102
1919.00,0.0102
1918.00,0.0103
1917.00,0.0103
1916.00,0.0103
1915.00,0.0104
1914.00,0.0106
1913.00,0.0109
1912.00,0.0114
1911.00,0.0119
1910.00,0.0126
1909.00,0.0131
1908.00,0.0133
1907.00,0.0131
1906.00,0.0126
1905.00,0.0121
1904.00,0.0116
1903.00,0.0112
1902.00,0.0110
1901.00,0.0109
1900.00,0.0109
1899.00,0.0109
1898.00,0.0109
1897.00,0.0111
1896.00,0.0113
1895.00,0.0115
1894.00,0.0116
1893.00,0.0116
1892.00,0.0115
1891.00,0.0112
1890.00,0.0109
1889.00,0.0107
1888.00,0.0105
1887.00,0.0104
1886.00,0.0104
1885.00,0.0103
1884.00,0.0103
1883.00,0.0102
1882.00,0.0102
1881.00,0.0102
1880.00,0.0102
1879.00,0.0103
1878.00,0.0103
1877.00,0.0103
1876.00,0.0103
1875.00,0.0104
1874.00,0.0103
1873.00,0.0103
1872.00,0.0103
1871.00,0.0102
1870.00,0.0102
1869.00,0.0102
1868.00,0.0102
1867.00,0.0103
1866.00,0.0103
1865.00,0.0103
1864.00,0.0104
1863.00,0.0104
1862.00,0.0105
1861.00,0.0105
1860.00,0.0105
1859.00,0.0105
1858.00,0.0105
1857.00,0.0105
1856.00,0.0105
1855.00,0.0105
1854.00,0.0105
1853.00,0.0106
1852.00,0.0107
1851.00,0.0107
1850.00,0.0108
1849.00,0.0109
1848.00,0.0111
1847.00,0.0112
1846.00,0.0114
1845.00,0.0115
1844.00,0.0114
1843.00,0.0113
1842.00,0.0111
1841.00,0.0110
1840.00,0.0108
1839.00,0.0107
1838.00,0.0106
1837.00,0.0104
1836.00,0.0104
1835.00,0.0103
1834.00,0.0103
1833.00,0.0103
1832.00,0.0103
1831.00,0.0102
1830.00,0.0102
1829.00,0.0101
1828.00,0.0101
1827.00,0.0102
1826.00,0.0102
1825.00,0.0103
1824.00,0.0103
1823.00,0.0103
1822.00,0.0103
1821.00,0.0103
1820.00,0.0102
1819.00,0.0101
1818.00,0.0100
1817.00,0.0100
1816.00,0.0100
1815.00,0.0101
1814.00,0.0101
1813.00,0.0102
1812.00,0.0102
1811.00,0.0102
1810.00,0.0102
1809.00,0.0102
1808.00,0.0103
1807.00,0.0103
1806.00,0.0103
1805.00,0.0103
1804.00,0.0104
1803.00,0.0104
1802.00,0.0104
1801.00,0.0105
1800.00,0.0106
1799.00,0.0107
1798.00,0.0108
1797.00,0.0109
1796.00,0.0110
1795.00,0.0111
1794.00,0.0111
1793.00,0.0111
1792.00,0.0111
1791.00,0.0111
1790.00,0.0110
1789.00,0.0109
1788.00,0.0109
1787.00,0.0108
1786.00,0.0108
1785.00,0.0107
1784.00,0.0107
1783.00,0.0107
1782.00,0.0107
1781.00,0.0107
1780.00,0.0108
1779.00,0.0110
1778.00,0.0111
1777.00,0.0113
1776.00,0.0114
1775.00,0.0116
1774.00,0.0118
1773.00,0.0119
1772.00,0.0120
1771.00,0.0119
1770.00,0.0118
1769.00,0.0117
1768.00,0.0115
1767.00,0.0114
1766.00,0.0113
1765.00,0.0113
1764.00,0.0113
1763.00,0.0115
1762.00,0.0116
1761.00,0.0118
1760.00,0.0120
1759.00,0.0120
1758.00,0.0119
1757.00,0.0118
1756.00,0.0116
1755.00,0.0114
1754.00,0.0113
1753.00,0.0112
1752.00,0.0112
1751.00,0.0111
1750.00,0.0111
1749.00,0.0111
1748.00,0.0111
1747.00,0.0112
1746.00,0.0112
1745.00,0.0113
1744.00,0.0113
1743.00,0.0113
1742.00,0.0113
1741.00,0.0114
1740.00,0.0114
1739.00,0.0115
1738.00,0.0115
1737.00,0.0116
1736.00,0.0117
1735.00,0.0118
1734.00,0.0119
1733.00,0.0120
1732.00,0.0121
1731.00,0.0122
1730.00,0.0123
1729.00,0.0125
1728.00,0.0127
1727.00,0.0128
1726.00,0.0129
1725.00,0.0130
1724.00,0.0132
1723.00,0.0133
1722.00,0.0134
1721.00,0.0135
1720.00,0.0136
1719.00,0.0136
1718.00,0.0136
1717.00,0.0137
1716.00,0.0139
1715.00,0.0140
1714.00,0.0142
1713.00,0.0143
1712.00,0.0145
1711.00,0.0146
1710.00,0.0147
1709.00,0.0147
1708.00,0.0147
1707.00,0.0147
1706.00,0.0147
1705.00,0.0147
1704.00,0.0147
1703.00,0.0147
1702.00,0.0148
1701.00,0.0148
1700.00,0.0149
1699.00,0.0150
1698.00,0.0150
1697.00,0.0151
1696.00,0.0152
1695.00,0.0153
1694.00,0.0153
1693.00,0.0154
1692.00,0.0155
1691.00,0.0155
1690.00,0.0155
1689.00,0.0156
1688.00,0.0156
1687.00,0.0157
1686.00,0.0157
1685.00,0.0157
1684.00,0.0157
1683.00,0.0157
1682.00,0.0158
1681.00,0.0159
1680.00,0.0159
1679.00,0.0160
1678.00,0.0160
1677.00,0.0161
1676.00,0.0162
1675.00,0.0162
1674.00,0.0162
1673.00,0.0162
1672.00,0.0163
1671.00,0.0163
1670.00,0.0163
1669.00,0.0163
1668.00,0.0164
1667.00,0.0165
1666.00,0.0166
1665.00,0.0167
1664.00,0.0168
1663.00,0.0170
1662.00,0.0171
1661.00,0.0172
1660.00,0.0173
1659.00,0.0174
1658.00,0.0175
1657.00,0.0176
1656.00,0.0177
1655.00,0.0178
1654.00,0.0179
1653.00,0.0180
1652.00,0.0182
1651.00,0.0183
1650.00,0.0184
1649.00,0.0186
1648.00,0.0189
1647.00,0.0192
1646.00,0.0196
1645.00,0.0201
1644.00,0.0206
1643.00,0.0212
1642.00,0.0218
1641.00,0.0224
1640.00,0.0230
1639.00,0.0234
1638.00,0.0238
1637.00,0.0245
1636.00,0.0257
1635.00,0.0276
1634.00,0.0299
1633.00,0.0328
1632.00,0.0365
1631.00,0.0415
1630.00,0.0480
1629.00,0.0566
1628.00,0.0669
1627.00,0.0777
1626.00,0.0878
1625.00,0.0970
1624.00,0.1057
1623.00,0.1134
1622.00,0.1187
1621.00,0.1212
1620.00,0.1214
1619.00,0.1192
1618.00,0.1141
1617.00,0.1064
1616.00,0.0988
1615.00,0.0938
1614.00,0.0920
1613.00,0.0923
1612.00,0.0938
1611.00,0.0954
1610.00,0.0959
1609.00,0.0948
1608.00,0.0918
1607.00,0.0875
1606.00,0.0822
1605.00,0.0766
1604.00,0.0709
1603.00,0.0655
1602.00,0.0604
1601.00,0.0560
1600.00,0.0524
1599.00,0.0495
1598.00,0.0473
1597.00,0.0459
1596.00,0.0453
1595.00,0.0456
1594.00,0.0470
1593.00,0.0495
1592.00,0.0534
1591.00,0.0585
1590.00,0.0648
1589.00,0.0720
1588.00,0.0794
1587.00,0.0865
1586.00,0.0925
1585.00,0.0971
1584.00,0.1001
1583.00,0.1014
1582.00,0.1011
1581.00,0.0995
1580.00,0.0972
1579.00,0.0943
1578.00,0.0908
1577.00,0.0862
1576.00,0.0811
1575.00,0.0764
1574.00,0.0728
1573.00,0.0702
1572.00,0.0681
1571.00,0.0663
1570.00,0.0645
1569.00,0.0627
1568.00,0.0609
1567.00,0.0589
1566.00,0.0563
1565.00,0.0531
1564.00,0.0497
1563.00,0.0467
1562.00,0.0442
1561.00,0.0418
1560.00,0.0391
1559.00,0.0361
1558.00,0.0339
1557.00,0.0326
1556.00,0.0318
1555.00,0.0312
1554.00,0.0306
1553.00,0.0301
1552.00,0.0296
1551.00,0.0292
1550.00,0.0289
1549.00,0.0285
1548.00,0.0283
1547.00,0.0281
1546.00,0.0278
1545.00,0.0276
1544.00,0.0273
1543.00,0.0270
1542.00,0.0268
1541.00,0.0265
1540.00,0.0262
1539.00,0.0259
1538.00,0.0256
1537.00,0.0254
1536.00,0.0252
1535.00,0.0250
1534.00,0.0247
1533.00,0.0244
1532.00,0.0242
1531.00,0.0241
1530.00,0.0240
1529.00,0.0240
1528.00,0.0241
1527.00,0.0242
1526.00,0.0244
1525.00,0.0246
1524.00,0.0249
1523.00,0.0253
1522.00,0.0258
1521.00,0.0264
1520.00,0.0271
1519.00,0.0278
1518.00,0.0286
1517.00,0.0296
1516.00,0.0308
1515.00,0.0319
1514.00,0.0329
1513.00,0.0339
1512.00,0.0347
1511.00,0.0353
1510.00,0.0356
1509.00,0.0358
1508.00,0.0358
1507.00,0.0357
1506.00,0.0358
1505.00,0.0360
1504.00,0.0364
1503.00,0.0372
1502.00,0.0386
1501.00,0.0411
1500.00,0.0452
1499.00,0.0512
1498.00,0.0584
1497.00,0.0655
1496.00,0.0699
1495.00,0.0705
1494.00,0.0679
1493.00,0.0634
1492.00,0.0579
1491.00,0.0520
1490.00,0.0464
1489.00,0.0419
1488.00,0.0384
1487.00,0.0357
1486.00,0.0336
1485.00,0.0319
1484.00,0.0306
1483.00,0.0296
1482.00,0.0288
1481.00,0.0282
1480.00,0.0278
1479.00,0.0276
1478.00,0.0277
1477.00,0.0279
1476.00,0.0283
1475.00,0.0289
1474.00,0.0301
1473.00,0.0322
1472.00,0.0356
1471.00,0.0401
1470.00,0.0455
1469.00,0.0516
1468.00,0.0578
1467.00,0.0632
1466.00,0.0667
1465.00,0.0676
1464.00,0.0666
1463.00,0.0649
1462.00,0.0637
1461.00,0.0633
1460.00,0.0634
1459.00,0.0638
1458.00,0.0638
1457.00,0.0630
1456.00,0.0615
1455.00,0.0600
1454.00,0.0588
1453.00,0.0581
1452.00,0.0580
1451.00,0.0584
1450.00,0.0591
1449.00,0.0601
1448.00,0.0611
1447.00,0.0624
1446.00,0.0642
1445.00,0.0664
1444.00,0.0690
1443.00,0.0718
1442.00,0.0743
1441.00,0.0765
1440.00,0.0783
1439.00,0.0797
1438.00,0.0811
1437.00,0.0829
1436.00,0.0853
1435.00,0.0880
1434.00,0.0911
1433.00,0.0943
1432.00,0.0975
1431.00,0.1001
1430.00,0.1019
1429.00,0.1026
1428.00,0.1021
1427.00,0.1005
1426.00,0.0981
1425.00,0.0951
1424.00,0.0919
1423.00,0.0889
1422.00,0.0862
1421.00,0.0838
1420.00,0.0811
1419.00,0.0782
1418.00,0.0753
1417.00,0.0731
1416.00,0.0712
1415.00,0.0699
1414.00,0.0690
1413.00,0.0687
1412.00,0.0692
1411.00,0.0706
1410.00,0.0730
1409.00,0.0764
1408.00,0.0807
1407.00,0.0862
1406.00,0.0927
1405.00,0.1000
1404.00,0.1074
1403.00,0.1140
1402.00,0.1191
1401.00,0.1227
1400.00,0.1245
1399.00,0.1241
1398.00,0.1215
1397.00,0.1172
1396.00,0.1114
1395.00,0.1045
1394.00,0.0973
1393.00,0.0909
1392.00,0.0857
1391.00,0.0818
1390.00,0.0797
1389.00,0.0797
1388.00,0.0817
1387.00,0.0838
1386.00,0.0843
1385.00,0.0823
1384.00,0.0790
1383.00,0.0760
1382.00,0.0745
1381.00,0.0743
1380.00,0.0747
1379.00,0.0750
1378.00,0.0745
1377.00,0.0732
1376.00,0.0706
1375.00,0.0664
1374.00,0.0616
1373.00,0.0573
1372.00,0.0547
1371.00,0.0541
1370.00,0.0556
1369.00,0.0594
1368.00,0.0652
1367.00,0.0717
1366.00,0.0773
1365.00,0.0809
1364.00,0.0830
1363.00,0.0855
1362.00,0.0901
1361.00,0.0965
1360.00,0.1016
1359.00,0.1029
1358.00,0.0998
1357.00,0.0941
1356.00,0.0882
1355.00,0.0834
1354.00,0.0801
1353.00,0.0780
1352.00,0.0769
1351.00,0.0766
1350.00,0.0770
1349.00,0.0778
1348.00,0.0786
1347.00,0.0790
1346.00,0.0787
1345.00,0.0775
1344.00,0.0757
1343.00,0.0732
1342.00,0.0702
1341.00,0.0670
1340.00,0.0635
1339.00,0.0603
1338.00,0.0577
1337.00,0.0560
1336.00,0.0553
1335.00,0.0556
1334.00,0.0567
1333.00,0.0583
1332.00,0.0599
1331.00,0.0613
1330.00,0.0623
1329.00,0.0627
1328.00,0.0625
1327.00,0.0617
1326.00,0.0603
1325.00,0.0587
1324.00,0.0571
1323.00,0.0556
1322.00,0.0544
1321.00,0.0534
1320.00,0.0524
1319.00,0.0512
1318.00,0.0500
1317.00,0.0485
1316.00,0.0470
1315.00,0.0456
1314.00,0.0447
1313.00,0.0442
1312.00,0.0444
1311.00,0.0453
1310.00,0.0470
1309.00,0.0494
1308.00,0.0525
1307.00,0.0565
1306.00,0.0615
1305.00,0.0677
1304.00,0.0749
1303.00,0.0826
1302.00,0.0894
1301.00,0.0938
1300.00,0.0951
1299.00,0.0933
1298.00,0.0898
1297.00,0.0861
1296.00,0.0832
1295.00,0.0812
1294.00,0.0794
1293.00,0.0773
1292.00,0.0748
1291.00,0.0723
1290.00,0.0705
1289.00,0.0701
1288.00,0.0714
1287.00,0.0743
1286.00,0.0782
1285.00,0.0825
1284.00,0.0861
1283.00,0.0882
1282.00,0.0883
1281.00,0.0860
1280.00,0.0817
1279.00,0.0761
1278.00,0.0701
1277.00,0.0644
1276.00,0.0594
1275.00,0.0554
1274.00,0.0521
1273.00,0.0493
1272.00,0.0470
1271.00,0.0449
1270.00,0.0431
1269.00,0.0417
1268.00,0.0407
1267.00,0.0400
1266.00,0.0395
1265.00,0.0391
1264.00,0.0385
1263.00,0.0378
1262.00,0.0370
1261.00,0.0362
1260.00,0.0355
1259.00,0.0349
1258.00,0.0345
1257.00,0.0342
1256.00,0.0342
1255.00,0.0343
1254.00,0.0347
1253.00,0.0354
1252.00,0.0364
1251.00,0.0379
1250.00,0.0400
1249.00,0.0427
1248.00,0.0461
1247.00,0.0500
1246.00,0.0542
1245.00,0.0584
1244.00,0.0623
1243.00,0.0654
1242.00,0.0681
1241.00,0.0704
1240.00,0.0730
1239.00,0.0764
1238.00,0.0807
1237.00,0.0859
1236.00,0.0913
1235.00,0.0962
1234.00,0.0994
1233.00,0.1004
1232.00,0.0989
1231.00,0.0953
1230.00,0.0901
1229.00,0.0844
1228.00,0.0788
1227.00,0.0739
1226.00,0.0697
1225.00,0.0663
1224.00,0.0637
1223.00,0.0617
1222.00,0.0605
1221.00,0.0601
1220.00,0.0606
1219.00,0.0620
1218.00,0.0640
1217.00,0.0665
1216.00,0.0690
1215.00,0.0710
1214.00,0.0718
1213.00,0.0711
1212.00,0.0689
1211.00,0.0654
1210.00,0.0613
1209.00,0.0573
1208.00,0.0540
1207.00,0.0515
1206.00,0.0503
1205.00,0.0504
1204.00,0.0520
1203.00,0.0549
1202.00,0.0592
1201.00,0.0645
1200.00,0.0706
1199.00,0.0776
1198.00,0.0852
1197.00,0.0931
1196.00,0.1006
1195.00,0.1064
1194.00,0.1096
1193.00,0.1097
1192.00,0.1071
1191.00,0.1022
1190.00,0.0958
1189.00,0.0884
1188.00,0.0807
1187.00,0.0731
1186.00,0.0661
1185.00,0.0600
1184.00,0.0548
1183.00,0.0506
1182.00,0.0472
1181.00,0.0445
1180.00,0.0424
1179.00,0.0406
1178.00,0.0392
1177.00,0.0380
1176.00,0.0370
1175.00,0.0362
1174.00,0.0355
1173.00,0.0351
1172.00,0.0347
1171.00,0.0344
1170.00,0.0342
1169.00,0.0341
1168.00,0.0342
1167.00,0.0344
1166.00,0.0349
1165.00,0.0358
1164.00,0.0372
1163.00,0.0393
1162.00,0.0423
1161.00,0.0467
1160.00,0.0530
1159.00,0.0615
1158.00,0.0721
1157.00,0.0839
1156.00,0.0951
1155.00,0.1031
1154.00,0.1058
1153.00,0.1021
1152.00,0.0932
1151.00,0.0814
1150.00,0.0695
1149.00,0.0593
1148.00,0.0516
1147.00,0.0463
1146.00,0.0429
1145.00,0.0407
1144.00,0.0395
1143.00,0.0388
1142.00,0.0387
1141.00,0.0390
1140.00,0.0398
1139.00,0.0412
1138.00,0.0434
1137.00,0.0467
1136.00,0.0513
1135.00,0.0578
1134.00,0.0667
1133.00,0.0783
1132.00,0.0922
1131.00,0.1071
1130.00,0.1207
1129.00,0.1309
1128.00,0.1363
1127.00,0.1370
1126.00,0.1337
1125.00,0.1274
1124.00,0.1187
1123.00,0.1084
1122.00,0.0974
1121.00,0.0869
1120.00,0.0780
1119.00,0.0711
1118.00,0.0662
1117.00,0.0632
1116.00,0.0616
1115.00,0.0606
1114.00,0.0599
1113.00,0.0588
1112.00,0.0571
1111.00,0.0551
1110.00,0.0529
1109.00,0.0511
1108.00,0.0500
1107.00,0.0500
1106.00,0.0513
1105.00,0.0545
1104.00,0.0599
1103.00,0.0674
1102.00,0.0763
1101.00,0.0851
1100.00,0.0916
1099.00,0.0939
1098.00,0.0916
1097.00,0.0854
1096.00,0.0770
1095.00,0.0681
1094.00,0.0600
1093.00,0.0534
1092.00,0.0482
1091.00,0.0444
1090.00,0.0417
1089.00,0.0397
1088.00,0.0381
1087.00,0.0369
1086.00,0.0360
1085.00,0.0353
1084.00,0.0347
1083.00,0.0343
1082.00,0.0340
1081.00,0.0339
1080.00,0.0339
1079.00,0.0340
1078.00,0.0341
1077.00,0.0343
1076.00,0.0346
1075.00,0.0350
1074.00,0.0355
1073.00,0.0363
1072.00,0.0372
1071.00,0.0384
1070.00,0.0398
1069.00,0.0413
1068.00,0.0430
1067.00,0.0448
1066.00,0.0468
1065.00,0.0493
1064.00,0.0526
1063.00,0.0570
1062.00,0.0630
1061.00,0.0709
1060.00,0.0812
1059.00,0.0941
1058.00,0.1094
1057.00,0.1263
1056.00,0.1432
1055.00,0.1580
1054.00,0.1691
1053.00,0.1763
1052.00,0.1803
1051.00,0.1823
1050.00,0.1827
1049.00,0.1816
1048.00,0.1782
1047.00,0.1721
1046.00,0.1635
1045.00,0.1531
1044.00,0.1415
1043.00,0.1295
1042.00,0.1180
1041.00,0.1079
1040.00,0.0997
1039.00,0.0938
1038.00,0.0904
1037.00,0.0892
1036.00,0.0896
1035.00,0.0909
1034.00,0.0929
1033.00,0.0960
1032.00,0.1015
1031.00,0.1103
1030.00,0.1226
1029.00,0.1372
1028.00,0.1514
1027.00,0.1615
1026.00,0.1649
1025.00,0.1608
1024.00,0.1506
1023.00,0.1370
1022.00,0.1225
1021.00,0.1090
1020.00,0.0971
1019.00,0.0870
1018.00,0.0786
1017.00,0.0718
1016.00,0.0662
1015.00,0.0618
1014.00,0.0583
1013.00,0.0558
1012.00,0.0542
1011.00,0.0539
1010.00,0.0551
1009.00,0.0578
1008.00,0.0621
1007.00,0.0674
1006.00,0.0732
1005.00,0.0787
1004.00,0.0828
1003.00,0.0849
1002.00,0.0848
1001.00,0.0829
1000.00,0.0802
999.00,0.0773
998.00,0.0745
997.00,0.0720
996.00,0.0699
995.00,0.0681
994.00,0.0664
993.00,0.0643
992.00,0.0616
991.00,0.0582
990.00,0.0546
989.00,0.0511
988.00,0.0479
987.00,0.0453
986.00,0.0431
985.00,0.0414
984.00,0.0399
983.00,0.0388
982.00,0.0380
981.00,0.0375
980.00,0.0372
979.00,0.0371
978.00,0.0371
977.00,0.0373
976.00,0.0374
975.00,0.0375
974.00,0.0374
973.00,0.0372
972.00,0.0369
971.00,0.0367
970.00,0.0365
969.00,0.0364
968.00,0.0365
967.00,0.0367
966.00,0.0371
965.00,0.0378
964.00,0.0388
963.00,0.0398
962.00,0.0403
961.00,0.0399
960.00,0.0384
959.00,0.0363
958.00,0.0340
957.00,0.0320
956.00,0.0304
955.00,0.0291
954.00,0.0281
953.00,0.0274
952.00,0.0270
951.00,0.0272
950.00,0.0280
949.00,0.0292
948.00,0.0301
947.00,0.0302
946.00,0.0297
945.00,0.0291
944.00,0.0291
943.00,0.0298
942.00,0.0309
941.00,0.0323
940.00,0.0337
939.00,0.0349
938.00,0.0358
937.00,0.0365
936.00,0.0372
935.00,0.0382
934.00,0.0394
933.00,0.0405
932.00,0.0412
931.00,0.0410
930.00,0.0401
929.00,0.0388
928.00,0.0379
927.00,0.0376
926.00,0.0382
925.00,0.0399
924.00,0.0424
923.00,0.0453
922.00,0.0475
921.00,0.0481
920.00,0.0467
919.00,0.0437
918.00,0.0398
917.00,0.0360
916.00,0.0328
915.00,0.0302
914.00,0.0283
913.00,0.0269
912.00,0.0260
911.00,0.0254
910.00,0.0251
909.00,0.0250
908.00,0.0252
907.00,0.0257
906.00,0.0266
905.00,0.0282
904.00,0.0306
903.00,0.0341
902.00,0.0385
901.00,0.0433
900.00,0.0474
899.00,0.0497
898.00,0.0494
897.00,0.0468
896.00,0.0432
895.00,0.0400
894.00,0.0385
893.00,0.0397
892.00,0.0435
891.00,0.0482
890.00,0.0512
889.00,0.0504
888.00,0.0458
887.00,0.0398
886.00,0.0346
885.00,0.0314
884.00,0.0299
883.00,0.0296
882.00,0.0301
881.00,0.0312
880.00,0.0329
879.00,0.0358
878.00,0.0403
877.00,0.0467
876.00,0.0549
875.00,0.0649
874.00,0.0761
873.00,0.0882
872.00,0.1000
871.00,0.1099
870.00,0.1162
869.00,0.1177
868.00,0.1145
867.00,0.1080
866.00,0.1001
865.00,0.0922
864.00,0.0844
863.00,0.0767
862.00,0.0692
861.00,0.0625
860.00,0.0571
859.00,0.0537
858.00,0.0527
857.00,0.0545
856.00,0.0587
855.00,0.0644
854.00,0.0704
853.00,0.0763
852.00,0.0824
851.00,0.0891
850.00,0.0957
849.00,0.1001
848.00,0.1004
847.00,0.0963
846.00,0.0893
845.00,0.0815
844.00,0.0743
843.00,0.0684
842.00,0.0644
841.00,0.0622
840.00,0.0622
839.00,0.0645
838.00,0.0696
837.00,0.0771
836.00,0.0856
835.00,0.0937
834.00,0.0997
833.00,0.1028
832.00,0.1023
831.00,0.0982
830.00,0.0909
829.00,0.0814
828.00,0.0713
827.00,0.0622
826.00,0.0560
825.00,0.0540
824.00,0.0579
823.00,0.0691
822.00,0.0869
821.00,0.1062
820.00,0.1204
819.00,0.1273
818.00,0.1314
817.00,0.1379
816.00,0.1456
815.00,0.1469
814.00,0.1360
813.00,0.1157
812.00,0.0937
811.00,0.0755
810.00,0.0625
809.00,0.0536
808.00,0.0476
807.00,0.0434
806.00,0.0402
805.00,0.0378
804.00,0.0360
803.00,0.0346
802.00,0.0334
801.00,0.0323
800.00,0.0314
799.00,0.0307
798.00,0.0301
797.00,0.0296
796.00,0.0291
795.00,0.0287
794.00,0.0282
793.00,0.0278
792.00,0.0275
791.00,0.0272
790.00,0.0269
789.00,0.0266
788.00,0.0264
787.00,0.0263
786.00,0.0262
785.00,0.0261
784.00,0.0262
783.00,0.0262
782.00,0.0263
781.00,0.0264
780.00,0.0267
779.00,0.0277
778.00,0.0296
777.00,0.0329
776.00,0.0371
775.00,0.0411
774.00,0.0431
773.00,0.0423
772.00,0.0392
771.00,0.0357
770.00,0.0328
769.00,0.0310
768.00,0.0300
767.00,0.0294
766.00,0.0291
765.00,0.0293
764.00,0.0300
763.00,0.0313
762.00,0.0329
761.00,0.0347
760.00,0.0360
759.00,0.0366
758.00,0.0362
757.00,0.0350
756.00,0.0334
755.00,0.0320
754.00,0.0309
753.00,0.0302
752.00,0.0298
751.00,0.0297
750.00,0.0297
749.00,0.0298
748.00,0.0300
747.00,0.0303
746.00,0.0307
745.00,0.0313
744.00,0.0322
743.00,0.0334
742.00,0.0350
741.00,0.0373
740.00,0.0407
739.00,0.0458
738.00,0.0530
737.00,0.0620
736.00,0.0709
735.00,0.0772
734.00,0.0790
733.00,0.0771
732.00,0.0740
731.00,0.0724
730.00,0.0732
729.00,0.0752
728.00,0.0760
727.00,0.0739
726.00,0.0687
725.00,0.0620
724.00,0.0555
723.00,0.0504
722.00,0.0472
721.00,0.0457
720.00,0.0459
719.00,0.0476
718.00,0.0508
717.00,0.0549
716.00,0.0590
715.00,0.0619
714.00,0.0628
713.00,0.0618
712.00,0.0596
711.00,0.0568
710.00,0.0540
709.00,0.0516
708.00,0.0499
707.00,0.0489
706.00,0.0487
705.00,0.0492
704.00,0.0503
703.00,0.0518
702.00,0.0535
701.00,0.0554
700.00,0.0573
699.00,0.0590
698.00,0.0601
697.00,0.0600
696.00,0.0589
695.00,0.0569
694.00,0.0549
693.00,0.0538
692.00,0.0544
691.00,0.0570
690.00,0.0609
689.00,0.0648
688.00,0.0672
687.00,0.0671
686.00,0.0648
685.00,0.0614
684.00,0.0583
683.00,0.0562
682.00,0.0551
681.00,0.0549
680.00,0.0554
679.00,0.0566
678.00,0.0583
677.00,0.0606
676.00,0.0635
675.00,0.0669
674.00,0.0706
673.00,0.0741
672.00,0.0771
671.00,0.0790
670.00,0.0797
669.00,0.0787
668.00,0.0762
667.00,0.0735
666.00,0.0718
665.00,0.0714
664.00,0.0722
663.00,0.0735
662.00,0.0748
661.00,0.0750
660.00,0.0738
659.00,0.0712
658.00,0.0676
657.00,0.0638
656.00,0.0605
655.00,0.0578
654.00,0.0559
653.00,0.0544
652.00,0.0532
651.00,0.0523
650.00,0.0515
649.00,0.0509
648.00,0.0504
647.00,0.0500
646.00,0.0497
645.00,0.0494
644.00,0.0491
643.00,0.0487
642.00,0.0484
641.00,0.0482
640.00,0.0479
639.00,0.0478
638.00,0.0477
637.00,0.0476
636.00,0.0476
635.00,0.0475
634.00,0.0475
633.00,0.0475
632.00,0.0475
631.00,0.0477
630.00,0.0480
629.00,0.0486
628.00,0.0494
627.00,0.0506
626.00,0.0522
625.00,0.0543
624.00,0.0570
623.00,0.0600
622.00,0.0632
621.00,0.0661
620.00,0.0681
619.00,0.0688
618.00,0.0677
617.00,0.0650
616.00,0.0612
615.00,0.0571
614.00,0.0533
613.00,0.0504
612.00,0.0488
611.00,0.0487
610.00,0.0501
609.00,0.0532
608.00,0.0580
607.00,0.0643
606.00,0.0715
605.00,0.0784
604.00,0.0843
603.00,0.0887
602.00,0.0913
601.00,0.0926
600.00,0.0930
599.00,0.0931
598.00,0.0929
597.00,0.0925
596.00,0.0919
595.00,0.0912
594.00,0.0903
593.00,0.0892
592.00,0.0878
591.00,0.0860
590.00,0.0841
589.00,0.0821
588.00,0.0801
587.00,0.0782
586.00,0.0766
585.00,0.0753
584.00,0.0747
583.00,0.0746
582.00,0.0753
581.00,0.0769
580.00,0.0797
579.00,0.0843
578.00,0.0900
577.00,0.0954
576.00,0.0982
575.00,0.0971
574.00,0.0925
573.00,0.0863
572.00,0.0800
571.00,0.0745
570.00,0.0701
569.00,0.0668
568.00,0.0647
567.00,0.0642
566.00,0.0654
565.00,0.0679
564.00,0.0714
563.00,0.0757
562.00,0.0806
561.00,0.0853
560.00,0.0888
559.00,0.0901
558.00,0.0890
557.00,0.0862
556.00,0.0827
555.00,0.0794
554.00,0.0770
553.00,0.0761
552.00,0.0769
551.00,0.0796
550.00,0.0837
549.00,0.0890
548.00,0.0947
547.00,0.0994
546.00,0.1020
545.00,0.1021
544.00,0.1001
543.00,0.0966
542.00,0.0924
541.00,0.0882
540.00,0.0845
539.00,0.0816
538.00,0.0798
537.00,0.0791
536.00,0.0799
535.00,0.0822
534.00,0.0859
533.00,0.0904
532.00,0.0945
531.00,0.0967
530.00,0.0961
529.00,0.0929
528.00,0.0880
527.00,0.0824
526.00,0.0767
525.00,0.0717
524.00,0.0675
523.00,0.0640
522.00,0.0612
521.00,0.0588
520.00,0.0569
519.00,0.0554
518.00,0.0541
517.00,0.0529
516.00,0.0521
515.00,0.0514
514.00,0.0509
513.00,0.0505
512.00,0.0504
511.00,0.0505
510.00,0.0512
509.00,0.0523
508.00,0.0537
507.00,0.0549
506.00,0.0557
505.00,0.0555
504.00,0.0544
503.00,0.0525
502.00,0.0504
501.00,0.0483
500.00,0.0467
499.00,0.0456
498.00,0.0452
497.00,0.0454
496.00,0.0464
495.00,0.0480
494.00,0.0499
493.00,0.0516
492.00,0.0526
491.00,0.0526
490.00,0.0516
489.00,0.0500
488.00,0.0483
487.00,0.0467
486.00,0.0454
485.00,0.0442
484.00,0.0431
483.00,0.0419
482.00,0.0406
481.00,0.0396
480.00,0.0387
479.00,0.0381
478.00,0.0376
477.00,0.0370
476.00,0.0363
475.00,0.0358
474.00,0.0355
473.00,0.0353
472.00,0.0351
471.00,0.0351
470.00,0.0350
469.00,0.0349
468.00,0.0347
467.00,0.0341
466.00,0.0334
465.00,0.0329
464.00,0.0326
463.00,0.0325
462.00,0.0325
461.00,0.0323
460.00,0.0321
459.00,0.0323
458.00,0.0328
457.00,0.0336
456.00,0.0341
455.00,0.0342
454.00,0.0338
453.00,0.0332
452.00,0.0327
451.00,0.0322
450.00,0.0320
449.00,0.0318
448.00,0.0315
447.00,0.0311
446.00,0.0308
445.00,0.0308
444.00,0.0310
443.00,0.0315
442.00,0.0322
441.00,0.0326
440.00,0.0326
439.00,0.0321
438.00,0.0313
437.00,0.0303
436.00,0.0293
435.00,0.0286
434.00,0.0282
433.00,0.0280
432.00,0.0277
431.00,0.0275
430.00,0.0272
429.00,0.0270
428.00,0.0267
427.00,0.0264
426.00,0.0260
425.00,0.0257
424.00,0.0254
423.00,0.0253
422.00,0.0254
421.00,0.0254
420.00,0.0255
419.00,0.0259
418.00,0.0267
417.00,0.0274
416.00,0.0277
415.00,0.0280
414.00,0.0289
413.00,0.0308
412.00,0.0337
411.00,0.0372
410.00,0.0404
409.00,0.0420
408.00,0.0415
407.00,0.0392
406.00,0.0362
405.00,0.0332
404.00,0.0309
403.00,0.0295
402.00,0.0291
401.00,0.0293
400.00,0.0303
