Created as New Dataset,Sample 294 By YargerLab Date Saturday, October 18 2025
cm-1,A
4000.00,0.0073
3999.00,0.0073
3998.00,0.0073
3997.00,0.0073
3996.00,0.0073
3995.00,0.0073
3994.00,0.0073
3993.00,0.0073
3992.00,0.0073
3991.00,0.0073
3990.00,0.0073
3989.00,0.0073
3988.00,0.0073
3987.00,0.0073
3986.00,0.0073
3985.00,0.0073
3984.00,0.0073
3983.00,0.0073
3982.00,0.0073
3981.00,0.0073
3980.00,0.0073
3979.00,0.0073
3978.00,0.0073
3977.00,0.0073
3976.00,0.0073
3975.00,0.0073
3974.00,0.0073
3973.00,0.0073
3972.00,0.0074
3971.00,0.0074
3970.00,0.0073
3969.00,0.0073
3968.00,0.0073
3967.00,0.0073
3966.00,0.0073
3965.00,0.0073
3964.00,0.0073
3963.00,0.0073
3962.00,0.0073
3961.00,0.0073
3960.00,0.0073
3959.00,0.0073
3958.00,0.0073
3957.00,0.0073
3956.00,0.0073
3955.00,0.0073
3954.00,0.0073
3953.00,0.0073
3952.00,0.0073
3951.00,0.0073
3950.00,0.0074
3949.00,0.0074
3948.00,0.0073
3947.00,0.0073
3946.00,0.0073
3945.00,0.0073
3944.00,0.0073
3943.00,0.0073
3942.00,0.0073
3941.00,0.0073
3940.00,0.0073
3939.00,0.0073
3938.00,0.0073
3937.00,0.0073
3936.00,0.0073
3935.00,0.0073
3934.00,0.0073
3933.00,0.0073
3932.00,0.0073
3931.00,0.0073
3930.00,0.0073
3929.00,0.0073
3928.00,0.0074
3927.00,0.0074
3926.00,0.0074
3925.00,0.0074
3924.00,0.0074
3923.00,0.0074
3922.00,0.0074
3921.00,0.0074
3920.00,0.0074
3919.00,0.0073
3918.00,0.0073
3917.00,0.0073
3916.00,0.0073
3915.00,0.0073
3914.00,0.0073
3913.00,0.0073
3912.00,0.0073
3911.00,0.0073
3910.00,0.0073
3909.00,0.0073
3908.00,0.0074
3907.00,0.0074
3906.00,0.0075
3905.00,0.0075
3904.00,0.0075
3903.00,0.0076
3902.00,0.0076
3901.00,0.0076
3900.00,0.0075
3899.00,0.0074
3898.00,0.0074
3897.00,0.0074
3896.00,0.0074
3895.00,0.0074
3894.00,0.0074
3893.00,0.0074
3892.00,0.0074
3891.00,0.0074
3890.00,0.0074
3889.00,0.0074
3888.00,0.0074
3887.00,0.0074
3886.00,0.0074
3885.00,0.0074
3884.00,0.0074
3883.00,0.0074
3882.00,0.0074
3881.00,0.0074
3880.00,0.0074
3879.00,0.0073
3878.00,0.0073
3877.00,0.0073
3876.00,0.0073
3875.00,0.0073
3874.00,0.0073
3873.00,0.0074
3872.00,0.0074
3871.00,0.0074
3870.00,0.0074
3869.00,0.0074
3868.00,0.0074
3867.00,0.0074
3866.00,0.0074
3865.00,0.0074
3864.00,0.0074
3863.00,0.0074
3862.00,0.0074
3861.00,0.0074
3860.00,0.0074
3859.00,0.0074
3858.00,0.0075
3857.00,0.0075
3856.00,0.0075
3855.00,0.0075
3854.00,0.0075
3853.00,0.0074
3852.00,0.0075
3851.00,0.0075
3850.00,0.0074
3849.00,0.0074
3848.00,0.0074
3847.00,0.0073
3846.00,0.0073
3845.00,0.0073
3844.00,0.0073
3843.00,0.0074
3842.00,0.0074
3841.00,0.0074
3840.00,0.0074
3839.00,0.0074
3838.00,0.0074
3837.00,0.0074
3836.00,0.0074
3835.00,0.0074
3834.00,0.0074
3833.00,0.0073
3832.00,0.0073
3831.00,0.0073
3830.00,0.0073
3829.00,0.0073
3828.00,0.0073
3827.00,0.0073
3826.00,0.0073
3825.00,0.0073
3824.00,0.0073
3823.00,0.0074
3822.00,0.0073
3821.00,0.0073
3820.00,0.0074
3819.00,0.0074
3818.00,0.0074
3817.00,0.0074
3816.00,0.0073
3815.00,0.0073
3814.00,0.0073
3813.00,0.0073
3812.00,0.0073
3811.00,0.0072
3810.00,0.0072
3809.00,0.0072
3808.00,0.0072
3807.00,0.0072
3806.00,0.0073
3805.00,0.0073
3804.00,0.0073
3803.00,0.0073
3802.00,0.0073
3801.00,0.0073
3800.00,0.0073
3799.00,0.0073
3798.00,0.0073
3797.00,0.0073
3796.00,0.0073
3795.00,0.0073
3794.00,0.0073
3793.00,0.0073
3792.00,0.0072
3791.00,0.0072
3790.00,0.0072
3789.00,0.0072
3788.00,0.0072
3787.00,0.0072
3786.00,0.0072
3785.00,0.0072
3784.00,0.0072
3783.00,0.0073
3782.00,0.0073
3781.00,0.0073
3780.00,0.0073
3779.00,0.0073
3778.00,0.0073
3777.00,0.0073
3776.00,0.0073
3775.00,0.0073
3774.00,0.0073
3773.00,0.0073
3772.00,0.0073
3771.00,0.0072
3770.00,0.0072
3769.00,0.0072
3768.00,0.0073
3767.00,0.0073
3766.00,0.0073
3765.00,0.0073
3764.00,0.0073
3763.00,0.0073
3762.00,0.0073
3761.00,0.0073
3760.00,0.0073
3759.00,0.0073
3758.00,0.0073
3757.00,0.0074
3756.00,0.0074
3755.00,0.0074
3754.00,0.0074
3753.00,0.0074
3752.00,0.0074
3751.00,0.0074
3750.00,0.0074
3749.00,0.0074
3748.00,0.0075
3747.00,0.0075
3746.00,0.0075
3745.00,0.0075
3744.00,0.0075
3743.00,0.0074
3742.00,0.0074
3741.00,0.0073
3740.00,0.0073
3739.00,0.0073
3738.00,0.0073
3737.00,0.0074
3736.00,0.0074
3735.00,0.0074
3734.00,0.0074
3733.00,0.0073
3732.00,0.0073
3731.00,0.0073
3730.00,0.0073
3729.00,0.0073
3728.00,0.0073
3727.00,0.0073
3726.00,0.0072
3725.00,0.0072
3724.00,0.0072
3723.00,0.0072
3722.00,0.0072
3721.00,0.0072
3720.00,0.0072
3719.00,0.0072
3718.00,0.0072
3717.00,0.0071
3716.00,0.0072
3715.00,0.0072
3714.00,0.0072
3713.00,0.0072
3712.00,0.0072
3711.00,0.0072
3710.00,0.0072
3709.00,0.0071
3708.00,0.0071
3707.00,0.0071
3706.00,0.0071
3705.00,0.0071
3704.00,0.0071
3703.00,0.0071
3702.00,0.0071
3701.00,0.0071
3700.00,0.0070
3699.00,0.0070
3698.00,0.0070
3697.00,0.0070
3696.00,0.0070
3695.00,0.0071
3694.00,0.0071
3693.00,0.0072
3692.00,0.0072
3691.00,0.0072
3690.00,0.0072
3689.00,0.0073
3688.00,0.0073
3687.00,0.0073
3686.00,0.0073
3685.00,0.0073
3684.00,0.0073
3683.00,0.0073
3682.00,0.0073
3681.00,0.0073
3680.00,0.0074
3679.00,0.0074
3678.00,0.0074
3677.00,0.0074
3676.00,0.0075
3675.00,0.0075
3674.00,0.0075
3673.00,0.0075
3672.00,0.0075
3671.00,0.0075
3670.00,0.0075
3669.00,0.0075
3668.00,0.0074
3667.00,0.0074
3666.00,0.0074
3665.00,0.0073
3664.00,0.0073
3663.00,0.0073
3662.00,0.0073
3661.00,0.0074
3660.00,0.0074
3659.00,0.0075
3658.00,0.0075
3657.00,0.0075
3656.00,0.0075
3655.00,0.0075
3654.00,0.0076
3653.00,0.0076
3652.00,0.0077
3651.00,0.0078
3650.00,0.0078
3649.00,0.0079
3648.00,0.0079
3647.00,0.0079
3646.00,0.0079
3645.00,0.0079
3644.00,0.0078
3643.00,0.0078
3642.00,0.0078
3641.00,0.0078
3640.00,0.0078
3639.00,0.0078
3638.00,0.0078
3637.00,0.0079
3636.00,0.0079
3635.00,0.0080
3634.00,0.0080
3633.00,0.0081
3632.00,0.0081
3631.00,0.0082
3630.00,0.0082
3629.00,0.0082
3628.00,0.0082
3627.00,0.0083
3626.00,0.0083
3625.00,0.0083
3624.00,0.0083
3623.00,0.0083
3622.00,0.0083
3621.00,0.0084
3620.00,0.0084
3619.00,0.0084
3618.00,0.0085
3617.00,0.0085
3616.00,0.0085
3615.00,0.0085
3614.00,0.0086
3613.00,0.0086
3612.00,0.0087
3611.00,0.0087
3610.00,0.0088
3609.00,0.0088
3608.00,0.0088
3607.00,0.0087
3606.00,0.0087
3605.00,0.0087
3604.00,0.0087
3603.00,0.0087
3602.00,0.0087
3601.00,0.0087
3600.00,0.0088
3599.00,0.0088
3598.00,0.0089
3597.00,0.0090
3596.00,0.0090
3595.00,0.0090
3594.00,0.0090
3593.00,0.0090
3592.00,0.0091
3591.00,0.0091
3590.00,0.0092
3589.00,0.0093
3588.00,0.0093
3587.00,0.0094
3586.00,0.0094
3585.00,0.0094
3584.00,0.0094
3583.00,0.0094
3582.00,0.0094
3581.00,0.0094
3580.00,0.0094
3579.00,0.0094
3578.00,0.0094
3577.00,0.0095
3576.00,0.0095
3575.00,0.0095
3574.00,0.0096
3573.00,0.0096
3572.00,0.0097
3571.00,0.0098
3570.00,0.0098
3569.00,0.0099
3568.00,0.0100
3567.00,0.0100
3566.00,0.0100
3565.00,0.0100
3564.00,0.0101
3563.00,0.0101
3562.00,0.0101
3561.00,0.0101
3560.00,0.0101
3559.00,0.0101
3558.00,0.0102
3557.00,0.0102
3556.00,0.0103
3555.00,0.0103
3554.00,0.0103
3553.00,0.0103
3552.00,0.0104
3551.00,0.0104
3550.00,0.0104
3549.00,0.0105
3548.00,0.0106
3547.00,0.0106
3546.00,0.0107
3545.00,0.0107
3544.00,0.0108
3543.00,0.0108
3542.00,0.0108
3541.00,0.0108
3540.00,0.0108
3539.00,0.0108
3538.00,0.0108
3537.00,0.0108
3536.00,0.0108
3535.00,0.0109
3534.00,0.0109
3533.00,0.0110
3532.00,0.0110
3531.00,0.0111
3530.00,0.0111
3529.00,0.0112
3528.00,0.0112
3527.00,0.0113
3526.00,0.0113
3525.00,0.0113
3524.00,0.0114
3523.00,0.0114
3522.00,0.0114
3521.00,0.0114
3520.00,0.0114
3519.00,0.0114
3518.00,0.0115
3517.00,0.0115
3516.00,0.0115
3515.00,0.0116
3514.00,0.0116
3513.00,0.0116
3512.00,0.0116
3511.00,0.0116
3510.00,0.0117
3509.00,0.0117
3508.00,0.0117
3507.00,0.0118
3506.00,0.0118
3505.00,0.0119
3504.00,0.0119
3503.00,0.0120
3502.00,0.0120
3501.00,0.0120
3500.00,0.0121
3499.00,0.0121
3498.00,0.0121
3497.00,0.0122
3496.00,0.0122
3495.00,0.0122
3494.00,0.0122
3493.00,0.0123
3492.00,0.0123
3491.00,0.0123
3490.00,0.0123
3489.00,0.0124
3488.00,0.0124
3487.00,0.0124
3486.00,0.0124
3485.00,0.0125
3484.00,0.0125
3483.00,0.0126
3482.00,0.0126
3481.00,0.0126
3480.00,0.0127
3479.00,0.0127
3478.00,0.0128
3477.00,0.0128
3476.00,0.0128
3475.00,0.0128
3474.00,0.0128
3473.00,0.0129
3472.00,0.0129
3471.00,0.0129
3470.00,0.0129
3469.00,0.0129
3468.00,0.0129
3467.00,0.0130
3466.00,0.0130
3465.00,0.0130
3464.00,0.0131
3463.00,0.0131
3462.00,0.0131
3461.00,0.0131
3460.00,0.0131
3459.00,0.0132
3458.00,0.0132
3457.00,0.0132
3456.00,0.0133
3455.00,0.0133
3454.00,0.0133
3453.00,0.0134
3452.00,0.0134
3451.00,0.0134
3450.00,0.0134
3449.00,0.0134
3448.00,0.0135
3447.00,0.0135
3446.00,0.0136
3445.00,0.0136
3444.00,0.0136
3443.00,0.0136
3442.00,0.0137
3441.00,0.0137
3440.00,0.0137
3439.00,0.0137
3438.00,0.0137
3437.00,0.0137
3436.00,0.0137
3435.00,0.0137
3434.00,0.0138
3433.00,0.0138
3432.00,0.0139
3431.00,0.0139
3430.00,0.0139
3429.00,0.0140
3428.00,0.0140
3427.00,0.0140
3426.00,0.0140
3425.00,0.0141
3424.00,0.0141
3423.00,0.0141
3422.00,0.0142
3421.00,0.0142
3420.00,0.0142
3419.00,0.0142
3418.00,0.0143
3417.00,0.0143
3416.00,0.0143
3415.00,0.0143
3414.00,0.0144
3413.00,0.0144
3412.00,0.0144
3411.00,0.0144
3410.00,0.0144
3409.00,0.0145
3408.00,0.0145
3407.00,0.0146
3406.00,0.0146
3405.00,0.0147
3404.00,0.0147
3403.00,0.0147
3402.00,0.0147
3401.00,0.0148
3400.00,0.0148
3399.00,0.0149
3398.00,0.0149
3397.00,0.0150
3396.00,0.0150
3395.00,0.0150
3394.00,0.0150
3393.00,0.0151
3392.00,0.0151
3391.00,0.0152
3390.00,0.0153
3389.00,0.0154
3388.00,0.0154
3387.00,0.0154
3386.00,0.0155
3385.00,0.0155
3384.00,0.0156
3383.00,0.0157
3382.00,0.0157
3381.00,0.0158
3380.00,0.0158
3379.00,0.0159
3378.00,0.0159
3377.00,0.0160
3376.00,0.0160
3375.00,0.0161
3374.00,0.0161
3373.00,0.0161
3372.00,0.0161
3371.00,0.0161
3370.00,0.0161
3369.00,0.0161
3368.00,0.0162
3367.00,0.0163
3366.00,0.0165
3365.00,0.0166
3364.00,0.0167
3363.00,0.0168
3362.00,0.0168
3361.00,0.0169
3360.00,0.0170
3359.00,0.0170
3358.00,0.0171
3357.00,0.0171
3356.00,0.0172
3355.00,0.0172
3354.00,0.0172
3353.00,0.0172
3352.00,0.0172
3351.00,0.0173
3350.00,0.0174
3349.00,0.0175
3348.00,0.0176
3347.00,0.0176
3346.00,0.0177
3345.00,0.0177
3344.00,0.0178
3343.00,0.0178
3342.00,0.0178
3341.00,0.0179
3340.00,0.0179
3339.00,0.0180
3338.00,0.0181
3337.00,0.0182
3336.00,0.0183
3335.00,0.0183
3334.00,0.0184
3333.00,0.0185
3332.00,0.0185
3331.00,0.0186
3330.00,0.0186
3329.00,0.0186
3328.00,0.0186
3327.00,0.0186
3326.00,0.0187
3325.00,0.0188
3324.00,0.0189
3323.00,0.0189
3322.00,0.0190
3321.00,0.0191
3320.00,0.0192
3319.00,0.0193
3318.00,0.0193
3317.00,0.0194
3316.00,0.0195
3315.00,0.0196
3314.00,0.0196
3313.00,0.0196
3312.00,0.0196
3311.00,0.0196
3310.00,0.0195
3309.00,0.0195
3308.00,0.0195
3307.00,0.0195
3306.00,0.0196
3305.00,0.0197
3304.00,0.0199
3303.00,0.0200
3302.00,0.0201
3301.00,0.0202
3300.00,0.0203
3299.00,0.0203
3298.00,0.0203
3297.00,0.0203
3296.00,0.0203
3295.00,0.0203
3294.00,0.0204
3293.00,0.0204
3292.00,0.0205
3291.00,0.0206
3290.00,0.0207
3289.00,0.0208
3288.00,0.0209
3287.00,0.0210
3286.00,0.0210
3285.00,0.0211
3284.00,0.0211
3283.00,0.0211
3282.00,0.0211
3281.00,0.0212
3280.00,0.0212
3279.00,0.0212
3278.00,0.0213
3277.00,0.0213
3276.00,0.0213
3275.00,0.0213
3274.00,0.0213
3273.00,0.0213
3272.00,0.0213
3271.00,0.0214
3270.00,0.0214
3269.00,0.0215
3268.00,0.0216
3267.00,0.0217
3266.00,0.0217
3265.00,0.0217
3264.00,0.0217
3263.00,0.0218
3262.00,0.0218
3261.00,0.0219
3260.00,0.0220
3259.00,0.0220
3258.00,0.0220
3257.00,0.0220
3256.00,0.0221
3255.00,0.0221
3254.00,0.0222
3253.00,0.0222
3252.00,0.0222
3251.00,0.0222
3250.00,0.0222
3249.00,0.0222
3248.00,0.0222
3247.00,0.0223
3246.00,0.0223
3245.00,0.0224
3244.00,0.0225
3243.00,0.0225
3242.00,0.0226
3241.00,0.0226
3240.00,0.0226
3239.00,0.0227
3238.00,0.0227
3237.00,0.0227
3236.00,0.0226
3235.00,0.0226
3234.00,0.0226
3233.00,0.0226
3232.00,0.0227
3231.00,0.0227
3230.00,0.0228
3229.00,0.0229
3228.00,0.0229
3227.00,0.0229
3226.00,0.0229
3225.00,0.0229
3224.00,0.0229
3223.00,0.0229
3222.00,0.0230
3221.00,0.0230
3220.00,0.0230
3219.00,0.0231
3218.00,0.0231
3217.00,0.0231
3216.00,0.0231
3215.00,0.0231
3214.00,0.0231
3213.00,0.0231
3212.00,0.0231
3211.00,0.0231
3210.00,0.0231
3209.00,0.0231
3208.00,0.0231
3207.00,0.0231
3206.00,0.0231
3205.00,0.0231
3204.00,0.0232
3203.00,0.0232
3202.00,0.0232
3201.00,0.0232
3200.00,0.0232
3199.00,0.0233
3198.00,0.0233
3197.00,0.0232
3196.00,0.0232
3195.00,0.0232
3194.00,0.0232
3193.00,0.0232
3192.00,0.0232
3191.00,0.0232
3190.00,0.0233
3189.00,0.0233
3188.00,0.0233
3187.00,0.0233
3186.00,0.0233
3185.00,0.0232
3184.00,0.0232
3183.00,0.0233
3182.00,0.0233
3181.00,0.0233
3180.00,0.0233
3179.00,0.0233
3178.00,0.0233
3177.00,0.0233
3176.00,0.0233
3175.00,0.0233
3174.00,0.0232
3173.00,0.0232
3172.00,0.0232
3171.00,0.0232
3170.00,0.0232
3169.00,0.0232
3168.00,0.0232
3167.00,0.0232
3166.00,0.0232
3165.00,0.0232
3164.00,0.0231
3163.00,0.0231
3162.00,0.0231
3161.00,0.0231
3160.00,0.0231
3159.00,0.0230
3158.00,0.0230
3157.00,0.0229
3156.00,0.0229
3155.00,0.0229
3154.00,0.0228
3153.00,0.0228
3152.00,0.0228
3151.00,0.0228
3150.00,0.0228
3149.00,0.0228
3148.00,0.0227
3147.00,0.0227
3146.00,0.0227
3145.00,0.0226
3144.00,0.0226
3143.00,0.0226
3142.00,0.0225
3141.00,0.0225
3140.00,0.0225
3139.00,0.0225
3138.00,0.0224
3137.00,0.0224
3136.00,0.0224
3135.00,0.0224
3134.00,0.0224
3133.00,0.0224
3132.00,0.0224
3131.00,0.0224
3130.00,0.0224
3129.00,0.0223
3128.00,0.0223
3127.00,0.0223
3126.00,0.0223
3125.00,0.0223
3124.00,0.0223
3123.00,0.0223
3122.00,0.0222
3121.00,0.0222
3120.00,0.0222
3119.00,0.0222
3118.00,0.0221
3117.00,0.0221
3116.00,0.0221
3115.00,0.0220
3114.00,0.0220
3113.00,0.0219
3112.00,0.0219
3111.00,0.0219
3110.00,0.0218
3109.00,0.0217
3108.00,0.0216
3107.00,0.0216
3106.00,0.0215
3105.00,0.0215
3104.00,0.0215
3103.00,0.0214
3102.00,0.0214
3101.00,0.0214
3100.00,0.0214
3099.00,0.0214
3098.00,0.0213
3097.00,0.0213
3096.00,0.0213
3095.00,0.0213
3094.00,0.0213
3093.00,0.0213
3092.00,0.0213
3091.00,0.0213
3090.00,0.0213
3089.00,0.0214
3088.00,0.0214
3087.00,0.0214
3086.00,0.0214
3085.00,0.0215
3084.00,0.0215
3083.00,0.0215
3082.00,0.0215
3081.00,0.0215
3080.00,0.0214
3079.00,0.0214
3078.00,0.0215
3077.00,0.0215
3076.00,0.0215
3075.00,0.0215
3074.00,0.0214
3073.00,0.0214
3072.00,0.0213
3071.00,0.0213
3070.00,0.0212
3069.00,0.0211
3068.00,0.0211
3067.00,0.0210
3066.00,0.0209
3065.00,0.0208
3064.00,0.0208
3063.00,0.0207
3062.00,0.0207
3061.00,0.0206
3060.00,0.0205
3059.00,0.0205
3058.00,0.0204
3057.00,0.0204
3056.00,0.0203
3055.00,0.0203
3054.00,0.0203
3053.00,0.0203
3052.00,0.0202
3051.00,0.0202
3050.00,0.0202
3049.00,0.0201
3048.00,0.0201
3047.00,0.0200
3046.00,0.0200
3045.00,0.0199
3044.00,0.0199
3043.00,0.0199
3042.00,0.0199
3041.00,0.0198
3040.00,0.0198
3039.00,0.0198
3038.00,0.0198
3037.00,0.0197
3036.00,0.0197
3035.00,0.0197
3034.00,0.0197
3033.00,0.0197
3032.00,0.0196
3031.00,0.0196
3030.00,0.0196
3029.00,0.0195
3028.00,0.0195
3027.00,0.0194
3026.00,0.0193
3025.00,0.0192
3024.00,0.0191
3023.00,0.0190
3022.00,0.0190
3021.00,0.0190
3020.00,0.0189
3019.00,0.0189
3018.00,0.0188
3017.00,0.0188
3016.00,0.0187
3015.00,0.0187
3014.00,0.0187
3013.00,0.0187
3012.00,0.0187
3011.00,0.0188
3010.00,0.0189
3009.00,0.0190
3008.00,0.0191
3007.00,0.0192
3006.00,0.0193
3005.00,0.0195
3004.00,0.0197
3003.00,0.0199
3002.00,0.0201
3001.00,0.0204
3000.00,0.0207
2999.00,0.0211
2998.00,0.0215
2997.00,0.0220
2996.00,0.0225
2995.00,0.0230
2994.00,0.0236
2993.00,0.0242
2992.00,0.0248
2991.00,0.0255
2990.00,0.0261
2989.00,0.0268
2988.00,0.0275
2987.00,0.0281
2986.00,0.0287
2985.00,0.0293
2984.00,0.0298
2983.00,0.0302
2982.00,0.0306
2981.00,0.0310
2980.00,0.0314
2979.00,0.0318
2978.00,0.0322
2977.00,0.0326
2976.00,0.0329
2975.00,0.0331
2974.00,0.0333
2973.00,0.0335
2972.00,0.0338
2971.00,0.0341
2970.00,0.0344
2969.00,0.0349
2968.00,0.0353
2967.00,0.0358
2966.00,0.0363
2965.00,0.0369
2964.00,0.0374
2963.00,0.0380
2962.00,0.0385
2961.00,0.0391
2960.00,0.0396
2959.00,0.0401
2958.00,0.0406
2957.00,0.0410
2956.00,0.0413
2955.00,0.0415
2954.00,0.0416
2953.00,0.0417
2952.00,0.0416
2951.00,0.0415
2950.00,0.0414
2949.00,0.0412
2948.00,0.0411
2947.00,0.0410
2946.00,0.0410
2945.00,0.0410
2944.00,0.0412
2943.00,0.0414
2942.00,0.0418
2941.00,0.0422
2940.00,0.0427
2939.00,0.0432
2938.00,0.0438
2937.00,0.0444
2936.00,0.0450
2935.00,0.0457
2934.00,0.0464
2933.00,0.0470
2932.00,0.0476
2931.00,0.0482
2930.00,0.0487
2929.00,0.0491
2928.00,0.0494
2927.00,0.0496
2926.00,0.0497
2925.00,0.0497
2924.00,0.0496
2923.00,0.0494
2922.00,0.0490
2921.00,0.0486
2920.00,0.0480
2919.00,0.0474
2918.00,0.0468
2917.00,0.0461
2916.00,0.0453
2915.00,0.0445
2914.00,0.0436
2913.00,0.0428
2912.00,0.0420
2911.00,0.0412
2910.00,0.0404
2909.00,0.0397
2908.00,0.0390
2907.00,0.0384
2906.00,0.0378
2905.00,0.0372
2904.00,0.0367
2903.00,0.0362
2902.00,0.0359
2901.00,0.0355
2900.00,0.0352
2899.00,0.0349
2898.00,0.0347
2897.00,0.0345
2896.00,0.0344
2895.00,0.0342
2894.00,0.0340
2893.00,0.0339
2892.00,0.0337
2891.00,0.0336
2890.00,0.0334
2889.00,0.0332
2888.00,0.0331
2887.00,0.0329
2886.00,0.0328
2885.00,0.0328
2884.00,0.0327
2883.00,0.0327
2882.00,0.0328
2881.00,0.0329
2880.00,0.0331
2879.00,0.0333
2878.00,0.0336
2877.00,0.0339
2876.00,0.0343
2875.00,0.0347
2874.00,0.0350
2873.00,0.0354
2872.00,0.0358
2871.00,0.0360
2870.00,0.0362
2869.00,0.0362
2868.00,0.0362
2867.00,0.0362
2866.00,0.0362
2865.00,0.0363
2864.00,0.0365
2863.00,0.0367
2862.00,0.0370
2861.00,0.0373
2860.00,0.0376
2859.00,0.0378
2858.00,0.0379
2857.00,0.0379
2856.00,0.0377
2855.00,0.0374
2854.00,0.0368
2853.00,0.0362
2852.00,0.0354
2851.00,0.0346
2850.00,0.0338
2849.00,0.0329
2848.00,0.0320
2847.00,0.0311
2846.00,0.0302
2845.00,0.0294
2844.00,0.0285
2843.00,0.0277
2842.00,0.0269
2841.00,0.0262
2840.00,0.0255
2839.00,0.0249
2838.00,0.0244
2837.00,0.0239
2836.00,0.0235
2835.00,0.0231
2834.00,0.0227
2833.00,0.0223
2832.00,0.0220
2831.00,0.0217
2830.00,0.0214
2829.00,0.0211
2828.00,0.0208
2827.00,0.0205
2826.00,0.0202
2825.00,0.0200
2824.00,0.0197
2823.00,0.0195
2822.00,0.0193
2821.00,0.0191
2820.00,0.0189
2819.00,0.0187
2818.00,0.0185
2817.00,0.0183
2816.00,0.0181
2815.00,0.0180
2814.00,0.0179
2813.00,0.0177
2812.00,0.0176
2811.00,0.0175
2810.00,0.0173
2809.00,0.0172
2808.00,0.0172
2807.00,0.0171
2806.00,0.0170
2805.00,0.0169
2804.00,0.0168
2803.00,0.0167
2802.00,0.0166
2801.00,0.0165
2800.00,0.0164
2799.00,0.0164
2798.00,0.0163
2797.00,0.0163
2796.00,0.0162
2795.00,0.0161
2794.00,0.0161
2793.00,0.0160
2792.00,0.0159
2791.00,0.0159
2790.00,0.0158
2789.00,0.0158
2788.00,0.0157
2787.00,0.0157
2786.00,0.0157
2785.00,0.0156
2784.00,0.0156
2783.00,0.0155
2782.00,0.0155
2781.00,0.0154
2780.00,0.0154
2779.00,0.0153
2778.00,0.0153
2777.00,0.0152
2776.00,0.0152
2775.00,0.0151
2774.00,0.0151
2773.00,0.0151
2772.00,0.0150
2771.00,0.0150
2770.00,0.0150
2769.00,0.0149
2768.00,0.0149
2767.00,0.0148
2766.00,0.0148
2765.00,0.0148
2764.00,0.0148
2763.00,0.0148
2762.00,0.0148
2761.00,0.0148
2760.00,0.0148
2759.00,0.0148
2758.00,0.0148
2757.00,0.0148
2756.00,0.0148
2755.00,0.0149
2754.00,0.0149
2753.00,0.0149
2752.00,0.0149
2751.00,0.0148
2750.00,0.0148
2749.00,0.0148
2748.00,0.0149
2747.00,0.0149
2746.00,0.0149
2745.00,0.0150
2744.00,0.0150
2743.00,0.0150
2742.00,0.0150
2741.00,0.0150
2740.00,0.0151
2739.00,0.0151
2738.00,0.0151
2737.00,0.0151
2736.00,0.0151
2735.00,0.0152
2734.00,0.0152
2733.00,0.0151
2732.00,0.0151
2731.00,0.0151
2730.00,0.0151
2729.00,0.0151
2728.00,0.0150
2727.00,0.0150
2726.00,0.0150
2725.00,0.0149
2724.00,0.0149
2723.00,0.0149
2722.00,0.0148
2721.00,0.0148
2720.00,0.0148
2719.00,0.0148
2718.00,0.0147
2717.00,0.0147
2716.00,0.0147
2715.00,0.0146
2714.00,0.0146
2713.00,0.0146
2712.00,0.0145
2711.00,0.0145
2710.00,0.0145
2709.00,0.0145
2708.00,0.0144
2707.00,0.0144
2706.00,0.0144
2705.00,0.0144
2704.00,0.0143
2703.00,0.0143
2702.00,0.0143
2701.00,0.0142
2700.00,0.0142
2699.00,0.0141
2698.00,0.0141
2697.00,0.0141
2696.00,0.0140
2695.00,0.0140
2694.00,0.0140
2693.00,0.0140
2692.00,0.0140
2691.00,0.0140
2690.00,0.0139
2689.00,0.0139
2688.00,0.0138
2687.00,0.0138
2686.00,0.0138
2685.00,0.0138
2684.00,0.0137
2683.00,0.0137
2682.00,0.0137
2681.00,0.0137
2680.00,0.0137
2679.00,0.0137
2678.00,0.0136
2677.00,0.0136
2676.00,0.0136
2675.00,0.0136
2674.00,0.0136
2673.00,0.0136
2672.00,0.0136
2671.00,0.0136
2670.00,0.0136
2669.00,0.0136
2668.00,0.0136
2667.00,0.0136
2666.00,0.0136
2665.00,0.0137
2664.00,0.0137
2663.00,0.0137
2662.00,0.0137
2661.00,0.0137
2660.00,0.0137
2659.00,0.0137
2658.00,0.0136
2657.00,0.0136
2656.00,0.0136
2655.00,0.0136
2654.00,0.0136
2653.00,0.0135
2652.00,0.0135
2651.00,0.0135
2650.00,0.0135
2649.00,0.0135
2648.00,0.0134
2647.00,0.0134
2646.00,0.0134
2645.00,0.0134
2644.00,0.0134
2643.00,0.0134
2642.00,0.0133
2641.00,0.0133
2640.00,0.0132
2639.00,0.0132
2638.00,0.0131
2637.00,0.0131
2636.00,0.0131
2635.00,0.0131
2634.00,0.0130
2633.00,0.0130
2632.00,0.0130
2631.00,0.0130
2630.00,0.0129
2629.00,0.0129
2628.00,0.0129
2627.00,0.0129
2626.00,0.0129
2625.00,0.0129
2624.00,0.0129
2623.00,0.0128
2622.00,0.0128
2621.00,0.0128
2620.00,0.0128
2619.00,0.0128
2618.00,0.0128
2617.00,0.0128
2616.00,0.0127
2615.00,0.0127
2614.00,0.0126
2613.00,0.0126
2612.00,0.0126
2611.00,0.0126
2610.00,0.0126
2609.00,0.0126
2608.00,0.0126
2607.00,0.0126
2606.00,0.0126
2605.00,0.0125
2604.00,0.0125
2603.00,0.0125
2602.00,0.0124
2601.00,0.0124
2600.00,0.0124
2599.00,0.0124
2598.00,0.0124
2597.00,0.0124
2596.00,0.0124
2595.00,0.0124
2594.00,0.0123
2593.00,0.0123
2592.00,0.0123
2591.00,0.0122
2590.00,0.0122
2589.00,0.0122
2588.00,0.0122
2587.00,0.0122
2586.00,0.0122
2585.00,0.0122
2584.00,0.0122
2583.00,0.0121
2582.00,0.0121
2581.00,0.0121
2580.00,0.0121
2579.00,0.0121
2578.00,0.0121
2577.00,0.0121
2576.00,0.0121
2575.00,0.0121
2574.00,0.0121
2573.00,0.0120
2572.00,0.0120
2571.00,0.0120
2570.00,0.0120
2569.00,0.0120
2568.00,0.0120
2567.00,0.0119
2566.00,0.0119
2565.00,0.0119
2564.00,0.0119
2563.00,0.0119
2562.00,0.0119
2561.00,0.0118
2560.00,0.0118
2559.00,0.0118
2558.00,0.0117
2557.00,0.0117
2556.00,0.0117
2555.00,0.0116
2554.00,0.0116
2553.00,0.0116
2552.00,0.0116
2551.00,0.0116
2550.00,0.0116
2549.00,0.0116
2548.00,0.0116
2547.00,0.0116
2546.00,0.0115
2545.00,0.0115
2544.00,0.0115
2543.00,0.0115
2542.00,0.0115
2541.00,0.0115
2540.00,0.0114
2539.00,0.0113
2538.00,0.0113
2537.00,0.0113
2536.00,0.0113
2535.00,0.0113
2534.00,0.0113
2533.00,0.0113
2532.00,0.0113
2531.00,0.0112
2530.00,0.0112
2529.00,0.0111
2528.00,0.0111
2527.00,0.0110
2526.00,0.0110
2525.00,0.0109
2524.00,0.0109
2523.00,0.0108
2522.00,0.0108
2521.00,0.0108
2520.00,0.0108
2519.00,0.0108
2518.00,0.0108
2517.00,0.0107
2516.00,0.0107
2515.00,0.0107
2514.00,0.0106
2513.00,0.0106
2512.00,0.0106
2511.00,0.0106
2510.00,0.0105
2509.00,0.0105
2508.00,0.0105
2507.00,0.0105
2506.00,0.0105
2505.00,0.0105
2504.00,0.0105
2503.00,0.0105
2502.00,0.0105
2501.00,0.0104
2500.00,0.0104
2499.00,0.0104
2498.00,0.0104
2497.00,0.0103
2496.00,0.0103
2495.00,0.0103
2494.00,0.0103
2493.00,0.0103
2492.00,0.0103
2491.00,0.0103
2490.00,0.0103
2489.00,0.0103
2488.00,0.0103
2487.00,0.0103
2486.00,0.0102
2485.00,0.0102
2484.00,0.0102
2483.00,0.0102
2482.00,0.0102
2481.00,0.0102
2480.00,0.0102
2479.00,0.0102
2478.00,0.0101
2477.00,0.0101
2476.00,0.0102
2475.00,0.0102
2474.00,0.0101
2473.00,0.0101
2472.00,0.0101
2471.00,0.0101
2470.00,0.0100
2469.00,0.0100
2468.00,0.0100
2467.00,0.0100
2466.00,0.0101
2465.00,0.0101
2464.00,0.0101
2463.00,0.0101
2462.00,0.0101
2461.00,0.0101
2460.00,0.0101
2459.00,0.0102
2458.00,0.0102
2457.00,0.0102
2456.00,0.0102
2455.00,0.0101
2454.00,0.0101
2453.00,0.0101
2452.00,0.0101
2451.00,0.0101
2450.00,0.0101
2449.00,0.0101
2448.00,0.0101
2447.00,0.0100
2446.00,0.0100
2445.00,0.0100
2444.00,0.0100
2443.00,0.0100
2442.00,0.0099
2441.00,0.0099
2440.00,0.0099
2439.00,0.0099
2438.00,0.0099
2437.00,0.0099
2436.00,0.0099
2435.00,0.0099
2434.00,0.0098
2433.00,0.0098
2432.00,0.0098
2431.00,0.0098
2430.00,0.0098
2429.00,0.0099
2428.00,0.0099
2427.00,0.0099
2426.00,0.0098
2425.00,0.0098
2424.00,0.0097
2423.00,0.0097
2422.00,0.0097
2421.00,0.0097
2420.00,0.0097
2419.00,0.0097
2418.00,0.0097
2417.00,0.0097
2416.00,0.0097
2415.00,0.0097
2414.00,0.0097
2413.00,0.0098
2412.00,0.0098
2411.00,0.0098
2410.00,0.0098
2409.00,0.0097
2408.00,0.0097
2407.00,0.0096
2406.00,0.0096
2405.00,0.0096
2404.00,0.0095
2403.00,0.0095
2402.00,0.0094
2401.00,0.0094
2400.00,0.0094
2399.00,0.0094
2398.00,0.0094
2397.00,0.0094
2396.00,0.0094
2395.00,0.0095
2394.00,0.0095
2393.00,0.0095
2392.00,0.0095
2391.00,0.0095
2390.00,0.0094
2389.00,0.0094
2388.00,0.0093
2387.00,0.0093
2386.00,0.0092
2385.00,0.0092
2384.00,0.0092
2383.00,0.0091
2382.00,0.0091
2381.00,0.0090
2380.00,0.0090
2379.00,0.0089
2378.00,0.0089
2377.00,0.0089
2376.00,0.0089
2375.00,0.0089
2374.00,0.0089
2373.00,0.0088
2372.00,0.0088
2371.00,0.0088
2370.00,0.0087
2369.00,0.0087
2368.00,0.0087
2367.00,0.0087
2366.00,0.0088
2365.00,0.0088
2364.00,0.0088
2363.00,0.0088
2362.00,0.0088
2361.00,0.0088
2360.00,0.0088
2359.00,0.0088
2358.00,0.0087
2357.00,0.0087
2356.00,0.0087
2355.00,0.0088
2354.00,0.0088
2353.00,0.0088
2352.00,0.0088
2351.00,0.0088
2350.00,0.0088
2349.00,0.0089
2348.00,0.0089
2347.00,0.0089
2346.00,0.0090
2345.00,0.0090
2344.00,0.0090
2343.00,0.0089
2342.00,0.0089
2341.00,0.0090
2340.00,0.0090
2339.00,0.0091
2338.00,0.0092
2337.00,0.0092
2336.00,0.0092
2335.00,0.0092
2334.00,0.0092
2333.00,0.0092
2332.00,0.0092
2331.00,0.0092
2330.00,0.0092
2329.00,0.0094
2328.00,0.0097
2327.00,0.0101
2326.00,0.0104
2325.00,0.0105
2324.00,0.0104
2323.00,0.0102
2322.00,0.0100
2321.00,0.0098
2320.00,0.0097
2319.00,0.0096
2318.00,0.0096
2317.00,0.0096
2316.00,0.0096
2315.00,0.0095
2314.00,0.0095
2313.00,0.0094
2312.00,0.0093
2311.00,0.0093
2310.00,0.0092
2309.00,0.0092
2308.00,0.0091
2307.00,0.0092
2306.00,0.0092
2305.00,0.0092
2304.00,0.0093
2303.00,0.0094
2302.00,0.0094
2301.00,0.0095
2300.00,0.0095
2299.00,0.0095
2298.00,0.0095
2297.00,0.0096
2296.00,0.0098
2295.00,0.0099
2294.00,0.0099
2293.00,0.0100
2292.00,0.0100
2291.00,0.0101
2290.00,0.0101
2289.00,0.0102
2288.00,0.0103
2287.00,0.0103
2286.00,0.0103
2285.00,0.0103
2284.00,0.0102
2283.00,0.0101
2282.00,0.0100
2281.00,0.0099
2280.00,0.0099
2279.00,0.0099
2278.00,0.0099
2277.00,0.0099
2276.00,0.0098
2275.00,0.0098
2274.00,0.0098
2273.00,0.0098
2272.00,0.0099
2271.00,0.0099
2270.00,0.0098
2269.00,0.0097
2268.00,0.0096
2267.00,0.0096
2266.00,0.0095
2265.00,0.0095
2264.00,0.0095
2263.00,0.0095
2262.00,0.0094
2261.00,0.0094
2260.00,0.0094
2259.00,0.0094
2258.00,0.0093
2257.00,0.0093
2256.00,0.0093
2255.00,0.0093
2254.00,0.0093
2253.00,0.0094
2252.00,0.0095
2251.00,0.0096
2250.00,0.0096
2249.00,0.0096
2248.00,0.0096
2247.00,0.0096
2246.00,0.0095
2245.00,0.0093
2244.00,0.0093
2243.00,0.0093
2242.00,0.0093
2241.00,0.0094
2240.00,0.0094
2239.00,0.0095
2238.00,0.0095
2237.00,0.0095
2236.00,0.0094
2235.00,0.0094
2234.00,0.0093
2233.00,0.0093
2232.00,0.0093
2231.00,0.0093
2230.00,0.0093
2229.00,0.0093
2228.00,0.0093
2227.00,0.0093
2226.00,0.0094
2225.00,0.0094
2224.00,0.0095
2223.00,0.0095
2222.00,0.0094
2221.00,0.0094
2220.00,0.0094
2219.00,0.0093
2218.00,0.0093
2217.00,0.0093
2216.00,0.0094
2215.00,0.0095
2214.00,0.0095
2213.00,0.0094
2212.00,0.0094
2211.00,0.0094
2210.00,0.0094
2209.00,0.0094
2208.00,0.0094
2207.00,0.0094
2206.00,0.0093
2205.00,0.0093
2204.00,0.0093
2203.00,0.0094
2202.00,0.0094
2201.00,0.0094
2200.00,0.0094
2199.00,0.0094
2198.00,0.0093
2197.00,0.0092
2196.00,0.0092
2195.00,0.0092
2194.00,0.0092
2193.00,0.0092
2192.00,0.0094
2191.00,0.0096
2190.00,0.0097
2189.00,0.0098
2188.00,0.0098
2187.00,0.0098
2186.00,0.0096
2185.00,0.0094
2184.00,0.0092
2183.00,0.0089
2182.00,0.0088
2181.00,0.0089
2180.00,0.0092
2179.00,0.0093
2178.00,0.0092
2177.00,0.0090
2176.00,0.0090
2175.00,0.0090
2174.00,0.0091
2173.00,0.0092
2172.00,0.0094
2171.00,0.0096
2170.00,0.0098
2169.00,0.0100
2168.00,0.0101
2167.00,0.0101
2166.00,0.0101
2165.00,0.0101
2164.00,0.0103
2163.00,0.0102
2162.00,0.0096
2161.00,0.0084
2160.00,0.0071
2159.00,0.0061
2158.00,0.0058
2157.00,0.0061
2156.00,0.0065
2155.00,0.0068
2154.00,0.0069
2153.00,0.0070
2152.00,0.0072
2151.00,0.0072
2150.00,0.0073
2149.00,0.0072
2148.00,0.0073
2147.00,0.0072
2146.00,0.0072
2145.00,0.0072
2144.00,0.0073
2143.00,0.0074
2142.00,0.0074
2141.00,0.0073
2140.00,0.0073
2139.00,0.0073
2138.00,0.0072
2137.00,0.0071
2136.00,0.0070
2135.00,0.0069
2134.00,0.0068
2133.00,0.0068
2132.00,0.0069
2131.00,0.0071
2130.00,0.0072
2129.00,0.0074
2128.00,0.0076
2127.00,0.0077
2126.00,0.0078
2125.00,0.0078
2124.00,0.0079
2123.00,0.0080
2122.00,0.0080
2121.00,0.0081
2120.00,0.0082
2119.00,0.0083
2118.00,0.0084
2117.00,0.0085
2116.00,0.0086
2115.00,0.0087
2114.00,0.0086
2113.00,0.0086
2112.00,0.0086
2111.00,0.0085
2110.00,0.0085
2109.00,0.0085
2108.00,0.0085
2107.00,0.0085
2106.00,0.0084
2105.00,0.0084
2104.00,0.0084
2103.00,0.0085
2102.00,0.0086
2101.00,0.0087
2100.00,0.0087
2099.00,0.0087
2098.00,0.0086
2097.00,0.0085
2096.00,0.0083
2095.00,0.0083
2094.00,0.0083
2093.00,0.0083
2092.00,0.0085
2091.00,0.0086
2090.00,0.0086
2089.00,0.0087
2088.00,0.0087
2087.00,0.0088
2086.00,0.0088
2085.00,0.0089
2084.00,0.0089
2083.00,0.0090
2082.00,0.0089
2081.00,0.0089
2080.00,0.0089
2079.00,0.0089
2078.00,0.0089
2077.00,0.0090
2076.00,0.0090
2075.00,0.0089
2074.00,0.0087
2073.00,0.0086
2072.00,0.0086
2071.00,0.0086
2070.00,0.0086
2069.00,0.0087
2068.00,0.0087
2067.00,0.0087
2066.00,0.0087
2065.00,0.0087
2064.00,0.0088
2063.00,0.0088
2062.00,0.0087
2061.00,0.0087
2060.00,0.0087
2059.00,0.0087
2058.00,0.0087
2057.00,0.0087
2056.00,0.0087
2055.00,0.0088
2054.00,0.0091
2053.00,0.0095
2052.00,0.0099
2051.00,0.0099
2050.00,0.0096
2049.00,0.0092
2048.00,0.0090
2047.00,0.0089
2046.00,0.0089
2045.00,0.0089
2044.00,0.0089
2043.00,0.0089
2042.00,0.0088
2041.00,0.0087
2040.00,0.0088
2039.00,0.0089
2038.00,0.0090
2037.00,0.0089
2036.00,0.0087
2035.00,0.0084
2034.00,0.0082
2033.00,0.0081
2032.00,0.0082
2031.00,0.0081
2030.00,0.0080
2029.00,0.0079
2028.00,0.0080
2027.00,0.0081
2026.00,0.0081
2025.00,0.0081
2024.00,0.0082
2023.00,0.0082
2022.00,0.0081
2021.00,0.0082
2020.00,0.0083
2019.00,0.0083
2018.00,0.0082
2017.00,0.0082
2016.00,0.0083
2015.00,0.0082
2014.00,0.0081
2013.00,0.0082
2012.00,0.0084
2011.00,0.0085
2010.00,0.0084
2009.00,0.0081
2008.00,0.0078
2007.00,0.0076
2006.00,0.0074
2005.00,0.0074
2004.00,0.0076
2003.00,0.0077
2002.00,0.0078
2001.00,0.0078
2000.00,0.0080
1999.00,0.0082
1998.00,0.0083
1997.00,0.0084
1996.00,0.0084
1995.00,0.0084
1994.00,0.0083
1993.00,0.0083
1992.00,0.0083
1991.00,0.0084
1990.00,0.0084
1989.00,0.0085
1988.00,0.0087
1987.00,0.0089
1986.00,0.0090
1985.00,0.0091
1984.00,0.0092
1983.00,0.0094
1982.00,0.0094
1981.00,0.0094
1980.00,0.0091
1979.00,0.0086
1978.00,0.0081
1977.00,0.0077
1976.00,0.0077
1975.00,0.0078
1974.00,0.0077
1973.00,0.0076
1972.00,0.0075
1971.00,0.0074
1970.00,0.0073
1969.00,0.0074
1968.00,0.0076
1967.00,0.0077
1966.00,0.0077
1965.00,0.0077
1964.00,0.0077
1963.00,0.0076
1962.00,0.0075
1961.00,0.0073
1960.00,0.0073
1959.00,0.0073
1958.00,0.0072
1957.00,0.0073
1956.00,0.0075
1955.00,0.0076
1954.00,0.0076
1953.00,0.0076
1952.00,0.0076
1951.00,0.0076
1950.00,0.0075
1949.00,0.0074
1948.00,0.0075
1947.00,0.0075
1946.00,0.0076
1945.00,0.0076
1944.00,0.0077
1943.00,0.0078
1942.00,0.0078
1941.00,0.0078
1940.00,0.0078
1939.00,0.0078
1938.00,0.0077
1937.00,0.0077
1936.00,0.0078
1935.00,0.0078
1934.00,0.0078
1933.00,0.0078
1932.00,0.0079
1931.00,0.0079
1930.00,0.0079
1929.00,0.0079
1928.00,0.0079
1927.00,0.0079
1926.00,0.0078
1925.00,0.0079
1924.00,0.0081
1923.00,0.0082
1922.00,0.0082
1921.00,0.0082
1920.00,0.0082
1919.00,0.0083
1918.00,0.0083
1917.00,0.0083
1916.00,0.0083
1915.00,0.0083
1914.00,0.0082
1913.00,0.0082
1912.00,0.0082
1911.00,0.0082
1910.00,0.0083
1909.00,0.0084
1908.00,0.0084
1907.00,0.0084
1906.00,0.0084
1905.00,0.0083
1904.00,0.0083
1903.00,0.0083
1902.00,0.0082
1901.00,0.0082
1900.00,0.0082
1899.00,0.0082
1898.00,0.0082
1897.00,0.0083
1896.00,0.0084
1895.00,0.0085
1894.00,0.0084
1893.00,0.0084
1892.00,0.0084
1891.00,0.0085
1890.00,0.0085
1889.00,0.0085
1888.00,0.0085
1887.00,0.0084
1886.00,0.0083
1885.00,0.0083
1884.00,0.0083
1883.00,0.0083
1882.00,0.0082
1881.00,0.0082
1880.00,0.0082
1879.00,0.0083
1878.00,0.0082
1877.00,0.0082
1876.00,0.0082
1875.00,0.0082
1874.00,0.0081
1873.00,0.0081
1872.00,0.0082
1871.00,0.0082
1870.00,0.0082
1869.00,0.0083
1868.00,0.0084
1867.00,0.0084
1866.00,0.0083
1865.00,0.0082
1864.00,0.0082
1863.00,0.0082
1862.00,0.0082
1861.00,0.0082
1860.00,0.0082
1859.00,0.0082
1858.00,0.0081
1857.00,0.0081
1856.00,0.0082
1855.00,0.0082
1854.00,0.0082
1853.00,0.0081
1852.00,0.0082
1851.00,0.0082
1850.00,0.0083
1849.00,0.0084
1848.00,0.0085
1847.00,0.0086
1846.00,0.0086
1845.00,0.0085
1844.00,0.0085
1843.00,0.0084
1842.00,0.0083
1841.00,0.0083
1840.00,0.0084
1839.00,0.0084
1838.00,0.0083
1837.00,0.0083
1836.00,0.0083
1835.00,0.0083
1834.00,0.0082
1833.00,0.0082
1832.00,0.0083
1831.00,0.0083
1830.00,0.0083
1829.00,0.0083
1828.00,0.0084
1827.00,0.0083
1826.00,0.0083
1825.00,0.0083
1824.00,0.0083
1823.00,0.0083
1822.00,0.0082
1821.00,0.0081
1820.00,0.0080
1819.00,0.0080
1818.00,0.0079
1817.00,0.0078
1816.00,0.0078
1815.00,0.0079
1814.00,0.0079
1813.00,0.0080
1812.00,0.0081
1811.00,0.0081
1810.00,0.0081
1809.00,0.0081
1808.00,0.0081
1807.00,0.0081
1806.00,0.0081
1805.00,0.0081
1804.00,0.0082
1803.00,0.0083
1802.00,0.0084
1801.00,0.0084
1800.00,0.0085
1799.00,0.0084
1798.00,0.0084
1797.00,0.0084
1796.00,0.0085
1795.00,0.0086
1794.00,0.0086
1793.00,0.0086
1792.00,0.0086
1791.00,0.0085
1790.00,0.0085
1789.00,0.0084
1788.00,0.0084
1787.00,0.0084
1786.00,0.0084
1785.00,0.0084
1784.00,0.0084
1783.00,0.0085
1782.00,0.0084
1781.00,0.0084
1780.00,0.0085
1779.00,0.0085
1778.00,0.0084
1777.00,0.0084
1776.00,0.0084
1775.00,0.0085
1774.00,0.0085
1773.00,0.0085
1772.00,0.0086
1771.00,0.0086
1770.00,0.0086
1769.00,0.0087
1768.00,0.0087
1767.00,0.0087
1766.00,0.0086
1765.00,0.0086
1764.00,0.0087
1763.00,0.0087
1762.00,0.0087
1761.00,0.0087
1760.00,0.0088
1759.00,0.0088
1758.00,0.0089
1757.00,0.0089
1756.00,0.0090
1755.00,0.0090
1754.00,0.0090
1753.00,0.0091
1752.00,0.0092
1751.00,0.0094
1750.00,0.0095
1749.00,0.0095
1748.00,0.0096
1747.00,0.0097
1746.00,0.0096
1745.00,0.0096
1744.00,0.0096
1743.00,0.0097
1742.00,0.0096
1741.00,0.0096
1740.00,0.0096
1739.00,0.0096
1738.00,0.0095
1737.00,0.0097
1736.00,0.0099
1735.00,0.0100
1734.00,0.0100
1733.00,0.0101
1732.00,0.0103
1731.00,0.0105
1730.00,0.0107
1729.00,0.0108
1728.00,0.0109
1727.00,0.0109
1726.00,0.0110
1725.00,0.0112
1724.00,0.0114
1723.00,0.0117
1722.00,0.0118
1721.00,0.0120
1720.00,0.0123
1719.00,0.0127
1718.00,0.0130
1717.00,0.0135
1716.00,0.0140
1715.00,0.0144
1714.00,0.0147
1713.00,0.0151
1712.00,0.0157
1711.00,0.0163
1710.00,0.0170
1709.00,0.0178
1708.00,0.0189
1707.00,0.0202
1706.00,0.0218
1705.00,0.0236
1704.00,0.0255
1703.00,0.0271
1702.00,0.0290
1701.00,0.0322
1700.00,0.0366
1699.00,0.0407
1698.00,0.0440
1697.00,0.0480
1696.00,0.0535
1695.00,0.0595
1694.00,0.0644
1693.00,0.0686
1692.00,0.0729
1691.00,0.0777
1690.00,0.0828
1689.00,0.0878
1688.00,0.0922
1687.00,0.0956
1686.00,0.0987
1685.00,0.1028
1684.00,0.1081
1683.00,0.1124
1682.00,0.1146
1681.00,0.1158
1680.00,0.1166
1679.00,0.1172
1678.00,0.1174
1677.00,0.1172
1676.00,0.1172
1675.00,0.1175
1674.00,0.1178
1673.00,0.1178
1672.00,0.1178
1671.00,0.1180
1670.00,0.1190
1669.00,0.1206
1668.00,0.1223
1667.00,0.1237
1666.00,0.1248
1665.00,0.1260
1664.00,0.1276
1663.00,0.1298
1662.00,0.1323
1661.00,0.1343
1660.00,0.1357
1659.00,0.1365
1658.00,0.1371
1657.00,0.1372
1656.00,0.1368
1655.00,0.1360
1654.00,0.1354
1653.00,0.1355
1652.00,0.1351
1651.00,0.1334
1650.00,0.1310
1649.00,0.1279
1648.00,0.1242
1647.00,0.1200
1646.00,0.1157
1645.00,0.1114
1644.00,0.1070
1643.00,0.1026
1642.00,0.0981
1641.00,0.0936
1640.00,0.0893
1639.00,0.0853
1638.00,0.0815
1637.00,0.0776
1636.00,0.0737
1635.00,0.0701
1634.00,0.0672
1633.00,0.0649
1632.00,0.0630
1631.00,0.0614
1630.00,0.0603
1629.00,0.0598
1628.00,0.0601
1627.00,0.0611
1626.00,0.0627
1625.00,0.0650
1624.00,0.0684
1623.00,0.0725
1622.00,0.0764
1621.00,0.0793
1620.00,0.0812
1619.00,0.0822
1618.00,0.0824
1617.00,0.0818
1616.00,0.0807
1615.00,0.0793
1614.00,0.0778
1613.00,0.0764
1612.00,0.0752
1611.00,0.0742
1610.00,0.0731
1609.00,0.0716
1608.00,0.0694
1607.00,0.0666
1606.00,0.0633
1605.00,0.0596
1604.00,0.0558
1603.00,0.0522
1602.00,0.0490
1601.00,0.0461
1600.00,0.0436
1599.00,0.0418
1598.00,0.0404
1597.00,0.0396
1596.00,0.0395
1595.00,0.0400
1594.00,0.0414
1593.00,0.0435
1592.00,0.0464
1591.00,0.0500
1590.00,0.0542
1589.00,0.0586
1588.00,0.0626
1587.00,0.0659
1586.00,0.0680
1585.00,0.0688
1584.00,0.0682
1583.00,0.0664
1582.00,0.0637
1581.00,0.0606
1580.00,0.0574
1579.00,0.0545
1578.00,0.0517
1577.00,0.0490
1576.00,0.0465
1575.00,0.0445
1574.00,0.0431
1573.00,0.0418
1572.00,0.0407
1571.00,0.0395
1570.00,0.0383
1569.00,0.0372
1568.00,0.0362
1567.00,0.0352
1566.00,0.0343
1565.00,0.0334
1564.00,0.0326
1563.00,0.0319
1562.00,0.0312
1561.00,0.0305
1560.00,0.0297
1559.00,0.0291
1558.00,0.0286
1557.00,0.0280
1556.00,0.0275
1555.00,0.0271
1554.00,0.0267
1553.00,0.0263
1552.00,0.0260
1551.00,0.0258
1550.00,0.0256
1549.00,0.0253
1548.00,0.0250
1547.00,0.0248
1546.00,0.0246
1545.00,0.0245
1544.00,0.0244
1543.00,0.0243
1542.00,0.0241
1541.00,0.0238
1540.00,0.0236
1539.00,0.0234
1538.00,0.0231
1537.00,0.0230
1536.00,0.0229
1535.00,0.0229
1534.00,0.0230
1533.00,0.0231
1532.00,0.0231
1531.00,0.0231
1530.00,0.0231
1529.00,0.0232
1528.00,0.0234
1527.00,0.0237
1526.00,0.0241
1525.00,0.0244
1524.00,0.0247
1523.00,0.0251
1522.00,0.0257
1521.00,0.0265
1520.00,0.0271
1519.00,0.0276
1518.00,0.0282
1517.00,0.0289
1516.00,0.0295
1515.00,0.0298
1514.00,0.0300
1513.00,0.0301
1512.00,0.0301
1511.00,0.0302
1510.00,0.0304
1509.00,0.0305
1508.00,0.0307
1507.00,0.0310
1506.00,0.0314
1505.00,0.0315
1504.00,0.0319
1503.00,0.0328
1502.00,0.0342
1501.00,0.0361
1500.00,0.0385
1499.00,0.0413
1498.00,0.0444
1497.00,0.0472
1496.00,0.0492
1495.00,0.0501
1494.00,0.0501
1493.00,0.0495
1492.00,0.0483
1491.00,0.0467
1490.00,0.0447
1489.00,0.0425
1488.00,0.0400
1487.00,0.0375
1486.00,0.0353
1485.00,0.0333
1484.00,0.0316
1483.00,0.0303
1482.00,0.0292
1481.00,0.0284
1480.00,0.0279
1479.00,0.0276
1478.00,0.0275
1477.00,0.0277
1476.00,0.0282
1475.00,0.0290
1474.00,0.0303
1473.00,0.0323
1472.00,0.0351
1471.00,0.0381
1470.00,0.0411
1469.00,0.0443
1468.00,0.0478
1467.00,0.0517
1466.00,0.0561
1465.00,0.0609
1464.00,0.0655
1463.00,0.0689
1462.00,0.0712
1461.00,0.0726
1460.00,0.0732
1459.00,0.0730
1458.00,0.0718
1457.00,0.0697
1456.00,0.0670
1455.00,0.0643
1454.00,0.0620
1453.00,0.0602
1452.00,0.0589
1451.00,0.0582
1450.00,0.0583
1449.00,0.0593
1448.00,0.0611
1447.00,0.0634
1446.00,0.0658
1445.00,0.0682
1444.00,0.0706
1443.00,0.0730
1442.00,0.0753
1441.00,0.0774
1440.00,0.0792
1439.00,0.0809
1438.00,0.0828
1437.00,0.0853
1436.00,0.0881
1435.00,0.0903
1434.00,0.0919
1433.00,0.0932
1432.00,0.0945
1431.00,0.0959
1430.00,0.0973
1429.00,0.0990
1428.00,0.1006
1427.00,0.1021
1426.00,0.1038
1425.00,0.1059
1424.00,0.1082
1423.00,0.1098
1422.00,0.1103
1421.00,0.1097
1420.00,0.1078
1419.00,0.1045
1418.00,0.1003
1417.00,0.0958
1416.00,0.0911
1415.00,0.0866
1414.00,0.0826
1413.00,0.0795
1412.00,0.0771
1411.00,0.0757
1410.00,0.0750
1409.00,0.0751
1408.00,0.0757
1407.00,0.0768
1406.00,0.0785
1405.00,0.0805
1404.00,0.0824
1403.00,0.0838
1402.00,0.0845
1401.00,0.0843
1400.00,0.0832
1399.00,0.0811
1398.00,0.0782
1397.00,0.0746
1396.00,0.0706
1395.00,0.0661
1394.00,0.0619
1393.00,0.0583
1392.00,0.0553
1391.00,0.0529
1390.00,0.0511
1389.00,0.0499
1388.00,0.0493
1387.00,0.0492
1386.00,0.0497
1385.00,0.0506
1384.00,0.0519
1383.00,0.0535
1382.00,0.0553
1381.00,0.0570
1380.00,0.0584
1379.00,0.0592
1378.00,0.0595
1377.00,0.0592
1376.00,0.0584
1375.00,0.0574
1374.00,0.0563
1373.00,0.0552
1372.00,0.0541
1371.00,0.0531
1370.00,0.0523
1369.00,0.0517
1368.00,0.0513
1367.00,0.0513
1366.00,0.0518
1365.00,0.0529
1364.00,0.0547
1363.00,0.0570
1362.00,0.0592
1361.00,0.0606
1360.00,0.0607
1359.00,0.0596
1358.00,0.0574
1357.00,0.0546
1356.00,0.0516
1355.00,0.0487
1354.00,0.0462
1353.00,0.0443
1352.00,0.0429
1351.00,0.0419
1350.00,0.0411
1349.00,0.0406
1348.00,0.0402
1347.00,0.0399
1346.00,0.0396
1345.00,0.0394
1344.00,0.0392
1343.00,0.0391
1342.00,0.0391
1341.00,0.0392
1340.00,0.0394
1339.00,0.0396
1338.00,0.0398
1337.00,0.0400
1336.00,0.0401
1335.00,0.0404
1334.00,0.0408
1333.00,0.0413
1332.00,0.0417
1331.00,0.0421
1330.00,0.0426
1329.00,0.0430
1328.00,0.0435
1327.00,0.0441
1326.00,0.0448
1325.00,0.0455
1324.00,0.0464
1323.00,0.0473
1322.00,0.0482
1321.00,0.0490
1320.00,0.0497
1319.00,0.0502
1318.00,0.0504
1317.00,0.0503
1316.00,0.0499
1315.00,0.0493
1314.00,0.0487
1313.00,0.0480
1312.00,0.0474
1311.00,0.0470
1310.00,0.0469
1309.00,0.0471
1308.00,0.0476
1307.00,0.0483
1306.00,0.0492
1305.00,0.0503
1304.00,0.0515
1303.00,0.0529
1302.00,0.0546
1301.00,0.0566
1300.00,0.0591
1299.00,0.0623
1298.00,0.0662
1297.00,0.0710
1296.00,0.0764
1295.00,0.0823
1294.00,0.0884
1293.00,0.0945
1292.00,0.1002
1291.00,0.1053
1290.00,0.1099
1289.00,0.1137
1288.00,0.1168
1287.00,0.1190
1286.00,0.1203
1285.00,0.1205
1284.00,0.1198
1283.00,0.1182
1282.00,0.1158
1281.00,0.1131
1280.00,0.1102
1279.00,0.1076
1278.00,0.1053
1277.00,0.1036
1276.00,0.1024
1275.00,0.1017
1274.00,0.1011
1273.00,0.1005
1272.00,0.0997
1271.00,0.0985
1270.00,0.0967
1269.00,0.0943
1268.00,0.0913
1267.00,0.0879
1266.00,0.0843
1265.00,0.0806
1264.00,0.0769
1263.00,0.0732
1262.00,0.0698
1261.00,0.0666
1260.00,0.0636
1259.00,0.0608
1258.00,0.0582
1257.00,0.0559
1256.00,0.0538
1255.00,0.0519
1254.00,0.0504
1253.00,0.0491
1252.00,0.0481
1251.00,0.0475
1250.00,0.0472
1249.00,0.0475
1248.00,0.0482
1247.00,0.0493
1246.00,0.0510
1245.00,0.0530
1244.00,0.0552
1243.00,0.0575
1242.00,0.0598
1241.00,0.0619
1240.00,0.0636
1239.00,0.0651
1238.00,0.0662
1237.00,0.0671
1236.00,0.0678
1235.00,0.0683
1234.00,0.0686
1233.00,0.0687
1232.00,0.0685
1231.00,0.0681
1230.00,0.0675
1229.00,0.0669
1228.00,0.0662
1227.00,0.0656
1226.00,0.0651
1225.00,0.0648
1224.00,0.0646
1223.00,0.0645
1222.00,0.0646
1221.00,0.0648
1220.00,0.0650
1219.00,0.0652
1218.00,0.0651
1217.00,0.0647
1216.00,0.0638
1215.00,0.0625
1214.00,0.0607
1213.00,0.0586
1212.00,0.0562
1211.00,0.0539
1210.00,0.0516
1209.00,0.0497
1208.00,0.0480
1207.00,0.0467
1206.00,0.0459
1205.00,0.0456
1204.00,0.0457
1203.00,0.0464
1202.00,0.0476
1201.00,0.0494
1200.00,0.0516
1199.00,0.0542
1198.00,0.0570
1197.00,0.0599
1196.00,0.0626
1195.00,0.0649
1194.00,0.0664
1193.00,0.0670
1192.00,0.0663
1191.00,0.0647
1190.00,0.0622
1189.00,0.0593
1188.00,0.0562
1187.00,0.0531
1186.00,0.0503
1185.00,0.0478
1184.00,0.0457
1183.00,0.0439
1182.00,0.0425
1181.00,0.0413
1180.00,0.0404
1179.00,0.0398
1178.00,0.0394
1177.00,0.0391
1176.00,0.0390
1175.00,0.0390
1174.00,0.0391
1173.00,0.0393
1172.00,0.0396
1171.00,0.0398
1170.00,0.0400
1169.00,0.0403
1168.00,0.0405
1167.00,0.0408
1166.00,0.0414
1165.00,0.0424
1164.00,0.0438
1163.00,0.0458
1162.00,0.0485
1161.00,0.0516
1160.00,0.0549
1159.00,0.0582
1158.00,0.0611
1157.00,0.0632
1156.00,0.0642
1155.00,0.0640
1154.00,0.0627
1153.00,0.0606
1152.00,0.0577
1151.00,0.0545
1150.00,0.0511
1149.00,0.0477
1148.00,0.0445
1147.00,0.0417
1146.00,0.0392
1145.00,0.0371
1144.00,0.0355
1143.00,0.0342
1142.00,0.0334
1141.00,0.0329
1140.00,0.0327
1139.00,0.0330
1138.00,0.0339
1137.00,0.0355
1136.00,0.0379
1135.00,0.0412
1134.00,0.0455
1133.00,0.0504
1132.00,0.0555
1131.00,0.0600
1130.00,0.0633
1129.00,0.0646
1128.00,0.0636
1127.00,0.0608
1126.00,0.0567
1125.00,0.0521
1124.00,0.0475
1123.00,0.0435
1122.00,0.0403
1121.00,0.0378
1120.00,0.0359
1119.00,0.0345
1118.00,0.0335
1117.00,0.0329
1116.00,0.0325
1115.00,0.0323
1114.00,0.0323
1113.00,0.0325
1112.00,0.0327
1111.00,0.0330
1110.00,0.0334
1109.00,0.0339
1108.00,0.0344
1107.00,0.0351
1106.00,0.0361
1105.00,0.0374
1104.00,0.0390
1103.00,0.0408
1102.00,0.0425
1101.00,0.0439
1100.00,0.0445
1099.00,0.0444
1098.00,0.0437
1097.00,0.0424
1096.00,0.0408
1095.00,0.0390
1094.00,0.0374
1093.00,0.0358
1092.00,0.0343
1091.00,0.0330
1090.00,0.0319
1089.00,0.0311
1088.00,0.0304
1087.00,0.0299
1086.00,0.0296
1085.00,0.0294
1084.00,0.0294
1083.00,0.0296
1082.00,0.0299
1081.00,0.0304
1080.00,0.0310
1079.00,0.0318
1078.00,0.0327
1077.00,0.0337
1076.00,0.0347
1075.00,0.0359
1074.00,0.0373
1073.00,0.0389
1072.00,0.0407
1071.00,0.0428
1070.00,0.0453
1069.00,0.0484
1068.00,0.0520
1067.00,0.0561
1066.00,0.0610
1065.00,0.0663
1064.00,0.0722
1063.00,0.0783
1062.00,0.0847
1061.00,0.0908
1060.00,0.0964
1059.00,0.1010
1058.00,0.1043
1057.00,0.1058
1056.00,0.1052
1055.00,0.1025
1054.00,0.0981
1053.00,0.0923
1052.00,0.0856
1051.00,0.0787
1050.00,0.0723
1049.00,0.0666
1048.00,0.0616
1047.00,0.0576
1046.00,0.0545
1045.00,0.0520
1044.00,0.0501
1043.00,0.0487
1042.00,0.0478
1041.00,0.0471
1040.00,0.0467
1039.00,0.0464
1038.00,0.0464
1037.00,0.0465
1036.00,0.0469
1035.00,0.0476
1034.00,0.0487
1033.00,0.0502
1032.00,0.0518
1031.00,0.0531
1030.00,0.0537
1029.00,0.0534
1028.00,0.0522
1027.00,0.0504
1026.00,0.0482
1025.00,0.0461
1024.00,0.0443
1023.00,0.0429
1022.00,0.0418
1021.00,0.0410
1020.00,0.0404
1019.00,0.0400
1018.00,0.0397
1017.00,0.0393
1016.00,0.0387
1015.00,0.0379
1014.00,0.0371
1013.00,0.0363
1012.00,0.0356
1011.00,0.0351
1010.00,0.0350
1009.00,0.0353
1008.00,0.0360
1007.00,0.0372
1006.00,0.0385
1005.00,0.0399
1004.00,0.0410
1003.00,0.0418
1002.00,0.0421
1001.00,0.0420
1000.00,0.0415
999.00,0.0408
998.00,0.0401
997.00,0.0395
996.00,0.0388
995.00,0.0381
994.00,0.0375
993.00,0.0368
992.00,0.0361
991.00,0.0353
990.00,0.0346
989.00,0.0338
988.00,0.0329
987.00,0.0320
986.00,0.0312
985.00,0.0304
984.00,0.0298
983.00,0.0293
982.00,0.0290
981.00,0.0289
980.00,0.0289
979.00,0.0290
978.00,0.0293
977.00,0.0294
976.00,0.0295
975.00,0.0294
974.00,0.0292
973.00,0.0289
972.00,0.0285
971.00,0.0281
970.00,0.0276
969.00,0.0272
968.00,0.0268
967.00,0.0264
966.00,0.0261
965.00,0.0258
964.00,0.0254
963.00,0.0251
962.00,0.0249
961.00,0.0247
960.00,0.0244
959.00,0.0241
958.00,0.0238
957.00,0.0235
956.00,0.0232
955.00,0.0229
954.00,0.0226
953.00,0.0224
952.00,0.0223
951.00,0.0222
950.00,0.0222
949.00,0.0222
948.00,0.0222
947.00,0.0223
946.00,0.0225
945.00,0.0228
944.00,0.0231
943.00,0.0235
942.00,0.0241
941.00,0.0249
940.00,0.0258
939.00,0.0269
938.00,0.0281
937.00,0.0295
936.00,0.0307
935.00,0.0317
934.00,0.0325
933.00,0.0330
932.00,0.0331
931.00,0.0330
930.00,0.0329
929.00,0.0328
928.00,0.0328
927.00,0.0329
926.00,0.0330
925.00,0.0332
924.00,0.0331
923.00,0.0329
922.00,0.0325
921.00,0.0321
920.00,0.0315
919.00,0.0310
918.00,0.0305
917.00,0.0299
916.00,0.0292
915.00,0.0285
914.00,0.0278
913.00,0.0273
912.00,0.0268
911.00,0.0265
910.00,0.0264
909.00,0.0265
908.00,0.0267
907.00,0.0271
906.00,0.0277
905.00,0.0285
904.00,0.0295
903.00,0.0306
902.00,0.0320
901.00,0.0333
900.00,0.0345
899.00,0.0357
898.00,0.0366
897.00,0.0371
896.00,0.0372
895.00,0.0369
894.00,0.0363
893.00,0.0354
892.00,0.0342
891.00,0.0332
890.00,0.0322
889.00,0.0315
888.00,0.0309
887.00,0.0307
886.00,0.0307
885.00,0.0310
884.00,0.0313
883.00,0.0319
882.00,0.0327
881.00,0.0337
880.00,0.0349
879.00,0.0363
878.00,0.0379
877.00,0.0397
876.00,0.0416
875.00,0.0434
874.00,0.0452
873.00,0.0468
872.00,0.0481
871.00,0.0490
870.00,0.0496
869.00,0.0498
868.00,0.0496
867.00,0.0493
866.00,0.0490
865.00,0.0488
864.00,0.0485
863.00,0.0483
862.00,0.0481
861.00,0.0478
860.00,0.0476
859.00,0.0474
858.00,0.0476
857.00,0.0479
856.00,0.0484
855.00,0.0490
854.00,0.0497
853.00,0.0505
852.00,0.0512
851.00,0.0519
850.00,0.0527
849.00,0.0534
848.00,0.0540
847.00,0.0546
846.00,0.0550
845.00,0.0554
844.00,0.0556
843.00,0.0557
842.00,0.0559
841.00,0.0559
840.00,0.0559
839.00,0.0558
838.00,0.0558
837.00,0.0559
836.00,0.0559
835.00,0.0561
834.00,0.0563
833.00,0.0566
832.00,0.0568
831.00,0.0569
830.00,0.0570
829.00,0.0571
828.00,0.0570
827.00,0.0569
826.00,0.0570
825.00,0.0572
824.00,0.0576
823.00,0.0583
822.00,0.0593
821.00,0.0605
820.00,0.0619
819.00,0.0632
818.00,0.0647
817.00,0.0661
816.00,0.0674
815.00,0.0685
814.00,0.0693
813.00,0.0695
812.00,0.0690
811.00,0.0677
810.00,0.0655
809.00,0.0624
808.00,0.0586
807.00,0.0545
806.00,0.0505
805.00,0.0470
804.00,0.0439
803.00,0.0415
802.00,0.0396
801.00,0.0383
800.00,0.0372
799.00,0.0365
798.00,0.0361
797.00,0.0358
796.00,0.0356
795.00,0.0355
794.00,0.0356
793.00,0.0357
792.00,0.0357
791.00,0.0357
790.00,0.0357
789.00,0.0357
788.00,0.0356
787.00,0.0355
786.00,0.0355
785.00,0.0356
784.00,0.0356
783.00,0.0358
782.00,0.0362
781.00,0.0367
780.00,0.0372
779.00,0.0379
778.00,0.0386
777.00,0.0390
776.00,0.0390
775.00,0.0385
774.00,0.0377
773.00,0.0369
772.00,0.0363
771.00,0.0359
770.00,0.0358
769.00,0.0359
768.00,0.0359
767.00,0.0361
766.00,0.0363
765.00,0.0366
764.00,0.0370
763.00,0.0374
762.00,0.0379
761.00,0.0385
760.00,0.0390
759.00,0.0395
758.00,0.0402
757.00,0.0408
756.00,0.0413
755.00,0.0419
754.00,0.0425
753.00,0.0431
752.00,0.0436
751.00,0.0442
750.00,0.0449
749.00,0.0457
748.00,0.0463
747.00,0.0470
746.00,0.0478
745.00,0.0486
744.00,0.0496
743.00,0.0509
742.00,0.0525
741.00,0.0545
740.00,0.0567
739.00,0.0590
738.00,0.0610
737.00,0.0624
736.00,0.0627
735.00,0.0621
734.00,0.0608
733.00,0.0590
732.00,0.0570
731.00,0.0550
730.00,0.0531
729.00,0.0514
728.00,0.0499
727.00,0.0485
726.00,0.0474
725.00,0.0464
724.00,0.0453
723.00,0.0444
722.00,0.0436
721.00,0.0429
720.00,0.0423
719.00,0.0418
718.00,0.0417
717.00,0.0417
716.00,0.0416
715.00,0.0416
714.00,0.0416
713.00,0.0415
712.00,0.0412
711.00,0.0408
710.00,0.0404
709.00,0.0399
708.00,0.0395
707.00,0.0392
706.00,0.0391
705.00,0.0391
704.00,0.0391
703.00,0.0390
702.00,0.0390
701.00,0.0391
700.00,0.0392
699.00,0.0395
698.00,0.0402
697.00,0.0412
696.00,0.0425
695.00,0.0440
694.00,0.0455
693.00,0.0470
692.00,0.0481
691.00,0.0489
690.00,0.0496
689.00,0.0500
688.00,0.0499
687.00,0.0495
686.00,0.0489
685.00,0.0480
684.00,0.0471
683.00,0.0463
682.00,0.0458
681.00,0.0454
680.00,0.0450
679.00,0.0448
678.00,0.0449
677.00,0.0451
676.00,0.0453
675.00,0.0457
674.00,0.0462
673.00,0.0469
672.00,0.0475
671.00,0.0481
670.00,0.0489
669.00,0.0499
668.00,0.0512
667.00,0.0525
666.00,0.0533
665.00,0.0537
664.00,0.0542
663.00,0.0549
662.00,0.0559
661.00,0.0568
660.00,0.0578
659.00,0.0588
658.00,0.0599
657.00,0.0610
656.00,0.0619
655.00,0.0628
654.00,0.0636
653.00,0.0643
652.00,0.0649
651.00,0.0653
650.00,0.0656
649.00,0.0658
648.00,0.0656
647.00,0.0653
646.00,0.0648
645.00,0.0640
644.00,0.0630
643.00,0.0618
642.00,0.0607
641.00,0.0595
640.00,0.0583
639.00,0.0570
638.00,0.0558
637.00,0.0547
636.00,0.0536
635.00,0.0526
634.00,0.0518
633.00,0.0511
632.00,0.0505
631.00,0.0499
630.00,0.0497
629.00,0.0495
628.00,0.0494
627.00,0.0493
626.00,0.0494
625.00,0.0494
624.00,0.0493
623.00,0.0492
622.00,0.0491
621.00,0.0489
620.00,0.0484
619.00,0.0479
618.00,0.0475
617.00,0.0471
616.00,0.0467
615.00,0.0463
614.00,0.0461
613.00,0.0460
612.00,0.0460
611.00,0.0461
610.00,0.0464
609.00,0.0469
608.00,0.0472
607.00,0.0476
606.00,0.0482
605.00,0.0486
604.00,0.0490
603.00,0.0493
602.00,0.0497
601.00,0.0501
600.00,0.0503
599.00,0.0504
598.00,0.0506
597.00,0.0505
596.00,0.0501
595.00,0.0496
594.00,0.0492
593.00,0.0489
592.00,0.0486
591.00,0.0485
590.00,0.0491
589.00,0.0503
588.00,0.0521
587.00,0.0546
586.00,0.0577
585.00,0.0610
584.00,0.0640
583.00,0.0664
582.00,0.0681
581.00,0.0690
580.00,0.0691
579.00,0.0688
578.00,0.0684
577.00,0.0678
576.00,0.0670
575.00,0.0663
574.00,0.0657
573.00,0.0651
572.00,0.0645
571.00,0.0640
570.00,0.0638
569.00,0.0636
568.00,0.0634
567.00,0.0632
566.00,0.0630
565.00,0.0626
564.00,0.0618
563.00,0.0609
562.00,0.0601
561.00,0.0593
560.00,0.0585
559.00,0.0580
558.00,0.0579
557.00,0.0577
556.00,0.0572
555.00,0.0565
554.00,0.0557
553.00,0.0549
552.00,0.0540
551.00,0.0533
550.00,0.0530
549.00,0.0527
548.00,0.0522
547.00,0.0516
546.00,0.0510
545.00,0.0503
544.00,0.0494
543.00,0.0485
542.00,0.0480
541.00,0.0478
540.00,0.0476
539.00,0.0477
538.00,0.0484
537.00,0.0493
536.00,0.0503
535.00,0.0516
534.00,0.0531
533.00,0.0545
532.00,0.0554
531.00,0.0558
530.00,0.0557
529.00,0.0551
528.00,0.0539
527.00,0.0527
526.00,0.0516
525.00,0.0505
524.00,0.0490
523.00,0.0476
522.00,0.0466
521.00,0.0458
520.00,0.0450
519.00,0.0445
518.00,0.0443
517.00,0.0442
516.00,0.0440
515.00,0.0437
514.00,0.0436
513.00,0.0436
512.00,0.0436
511.00,0.0438
510.00,0.0446
509.00,0.0454
508.00,0.0458
507.00,0.0460
506.00,0.0461
505.00,0.0458
504.00,0.0452
503.00,0.0444
502.00,0.0439
501.00,0.0434
500.00,0.0429
499.00,0.0425
498.00,0.0426
497.00,0.0425
496.00,0.0422
495.00,0.0421
494.00,0.0424
493.00,0.0428
492.00,0.0429
491.00,0.0430
490.00,0.0435
489.00,0.0439
488.00,0.0440
487.00,0.0441
486.00,0.0444
485.00,0.0446
484.00,0.0443
483.00,0.0442
482.00,0.0444
481.00,0.0446
480.00,0.0443
479.00,0.0439
478.00,0.0437
477.00,0.0435
476.00,0.0432
475.00,0.0432
474.00,0.0437
473.00,0.0441
472.00,0.0439
471.00,0.0438
470.00,0.0439
469.00,0.0440
468.00,0.0435
467.00,0.0431
466.00,0.0431
465.00,0.0431
464.00,0.0427
463.00,0.0424
462.00,0.0424
461.00,0.0424
460.00,0.0420
459.00,0.0419
458.00,0.0421
457.00,0.0422
456.00,0.0416
455.00,0.0412
454.00,0.0416
453.00,0.0419
452.00,0.0417
451.00,0.0412
450.00,0.0409
449.00,0.0406
448.00,0.0398
447.00,0.0393
446.00,0.0395
445.00,0.0397
444.00,0.0393
443.00,0.0390
442.00,0.0393
441.00,0.0395
440.00,0.0392
439.00,0.0389
438.00,0.0391
437.00,0.0391
436.00,0.0386
435.00,0.0382
434.00,0.0384
433.00,0.0385
432.00,0.0380
431.00,0.0376
430.00,0.0379
429.00,0.0380
428.00,0.0374
427.00,0.0369
426.00,0.0372
425.00,0.0378
424.00,0.0380
423.00,0.0382
422.00,0.0388
421.00,0.0391
420.00,0.0386
419.00,0.0386
418.00,0.0400
417.00,0.0407
416.00,0.0401
415.00,0.0399
414.00,0.0408
413.00,0.0416
412.00,0.0413
411.00,0.0408
410.00,0.0413
409.00,0.0417
408.00,0.0406
407.00,0.0395
406.00,0.0395
405.00,0.0397
404.00,0.0391
403.00,0.0390
402.00,0.0408
401.00,0.0430
400.00,0.0439
