Created as New Dataset,Sample 230 By YargerLab Date Sunday, October 05 2025
cm-1,A
4000.00,0.0063
3999.00,0.0063
3998.00,0.0063
3997.00,0.0063
3996.00,0.0063
3995.00,0.0063
3994.00,0.0063
3993.00,0.0063
3992.00,0.0063
3991.00,0.0063
3990.00,0.0063
3989.00,0.0062
3988.00,0.0062
3987.00,0.0062
3986.00,0.0062
3985.00,0.0062
3984.00,0.0063
3983.00,0.0063
3982.00,0.0063
3981.00,0.0063
3980.00,0.0063
3979.00,0.0062
3978.00,0.0062
3977.00,0.0062
3976.00,0.0062
3975.00,0.0062
3974.00,0.0062
3973.00,0.0063
3972.00,0.0063
3971.00,0.0063
3970.00,0.0062
3969.00,0.0062
3968.00,0.0062
3967.00,0.0062
3966.00,0.0062
3965.00,0.0062
3964.00,0.0062
3963.00,0.0062
3962.00,0.0062
3961.00,0.0062
3960.00,0.0062
3959.00,0.0062
3958.00,0.0062
3957.00,0.0062
3956.00,0.0062
3955.00,0.0062
3954.00,0.0062
3953.00,0.0062
3952.00,0.0062
3951.00,0.0061
3950.00,0.0061
3949.00,0.0061
3948.00,0.0061
3947.00,0.0061
3946.00,0.0061
3945.00,0.0061
3944.00,0.0062
3943.00,0.0062
3942.00,0.0062
3941.00,0.0061
3940.00,0.0061
3939.00,0.0061
3938.00,0.0061
3937.00,0.0061
3936.00,0.0061
3935.00,0.0061
3934.00,0.0061
3933.00,0.0061
3932.00,0.0061
3931.00,0.0062
3930.00,0.0062
3929.00,0.0062
3928.00,0.0062
3927.00,0.0062
3926.00,0.0062
3925.00,0.0062
3924.00,0.0061
3923.00,0.0061
3922.00,0.0061
3921.00,0.0061
3920.00,0.0061
3919.00,0.0061
3918.00,0.0061
3917.00,0.0061
3916.00,0.0061
3915.00,0.0061
3914.00,0.0061
3913.00,0.0061
3912.00,0.0061
3911.00,0.0061
3910.00,0.0061
3909.00,0.0061
3908.00,0.0062
3907.00,0.0062
3906.00,0.0062
3905.00,0.0062
3904.00,0.0061
3903.00,0.0062
3902.00,0.0061
3901.00,0.0061
3900.00,0.0061
3899.00,0.0061
3898.00,0.0061
3897.00,0.0061
3896.00,0.0061
3895.00,0.0061
3894.00,0.0061
3893.00,0.0061
3892.00,0.0062
3891.00,0.0062
3890.00,0.0062
3889.00,0.0062
3888.00,0.0061
3887.00,0.0061
3886.00,0.0061
3885.00,0.0061
3884.00,0.0061
3883.00,0.0061
3882.00,0.0061
3881.00,0.0061
3880.00,0.0061
3879.00,0.0061
3878.00,0.0061
3877.00,0.0061
3876.00,0.0061
3875.00,0.0061
3874.00,0.0061
3873.00,0.0061
3872.00,0.0061
3871.00,0.0061
3870.00,0.0061
3869.00,0.0061
3868.00,0.0061
3867.00,0.0061
3866.00,0.0061
3865.00,0.0060
3864.00,0.0060
3863.00,0.0060
3862.00,0.0060
3861.00,0.0060
3860.00,0.0061
3859.00,0.0061
3858.00,0.0061
3857.00,0.0061
3856.00,0.0061
3855.00,0.0061
3854.00,0.0060
3853.00,0.0060
3852.00,0.0060
3851.00,0.0060
3850.00,0.0060
3849.00,0.0060
3848.00,0.0060
3847.00,0.0060
3846.00,0.0061
3845.00,0.0061
3844.00,0.0060
3843.00,0.0060
3842.00,0.0060
3841.00,0.0060
3840.00,0.0060
3839.00,0.0060
3838.00,0.0060
3837.00,0.0060
3836.00,0.0060
3835.00,0.0060
3834.00,0.0060
3833.00,0.0060
3832.00,0.0060
3831.00,0.0060
3830.00,0.0061
3829.00,0.0061
3828.00,0.0061
3827.00,0.0061
3826.00,0.0061
3825.00,0.0060
3824.00,0.0060
3823.00,0.0060
3822.00,0.0060
3821.00,0.0060
3820.00,0.0060
3819.00,0.0059
3818.00,0.0059
3817.00,0.0059
3816.00,0.0060
3815.00,0.0060
3814.00,0.0060
3813.00,0.0060
3812.00,0.0060
3811.00,0.0060
3810.00,0.0060
3809.00,0.0060
3808.00,0.0060
3807.00,0.0060
3806.00,0.0060
3805.00,0.0060
3804.00,0.0060
3803.00,0.0059
3802.00,0.0059
3801.00,0.0059
3800.00,0.0059
3799.00,0.0059
3798.00,0.0059
3797.00,0.0059
3796.00,0.0060
3795.00,0.0060
3794.00,0.0060
3793.00,0.0060
3792.00,0.0060
3791.00,0.0060
3790.00,0.0060
3789.00,0.0060
3788.00,0.0060
3787.00,0.0060
3786.00,0.0060
3785.00,0.0060
3784.00,0.0060
3783.00,0.0060
3782.00,0.0060
3781.00,0.0060
3780.00,0.0060
3779.00,0.0060
3778.00,0.0060
3777.00,0.0060
3776.00,0.0060
3775.00,0.0060
3774.00,0.0060
3773.00,0.0060
3772.00,0.0059
3771.00,0.0059
3770.00,0.0059
3769.00,0.0060
3768.00,0.0060
3767.00,0.0060
3766.00,0.0060
3765.00,0.0060
3764.00,0.0060
3763.00,0.0060
3762.00,0.0060
3761.00,0.0060
3760.00,0.0060
3759.00,0.0060
3758.00,0.0060
3757.00,0.0060
3756.00,0.0060
3755.00,0.0060
3754.00,0.0059
3753.00,0.0059
3752.00,0.0059
3751.00,0.0059
3750.00,0.0059
3749.00,0.0059
3748.00,0.0059
3747.00,0.0059
3746.00,0.0059
3745.00,0.0059
3744.00,0.0059
3743.00,0.0059
3742.00,0.0058
3741.00,0.0058
3740.00,0.0058
3739.00,0.0058
3738.00,0.0059
3737.00,0.0059
3736.00,0.0059
3735.00,0.0059
3734.00,0.0059
3733.00,0.0059
3732.00,0.0058
3731.00,0.0058
3730.00,0.0058
3729.00,0.0058
3728.00,0.0058
3727.00,0.0058
3726.00,0.0058
3725.00,0.0058
3724.00,0.0058
3723.00,0.0058
3722.00,0.0058
3721.00,0.0059
3720.00,0.0059
3719.00,0.0059
3718.00,0.0059
3717.00,0.0059
3716.00,0.0059
3715.00,0.0059
3714.00,0.0059
3713.00,0.0059
3712.00,0.0058
3711.00,0.0058
3710.00,0.0058
3709.00,0.0058
3708.00,0.0058
3707.00,0.0058
3706.00,0.0058
3705.00,0.0058
3704.00,0.0058
3703.00,0.0059
3702.00,0.0059
3701.00,0.0059
3700.00,0.0059
3699.00,0.0059
3698.00,0.0059
3697.00,0.0059
3696.00,0.0059
3695.00,0.0058
3694.00,0.0058
3693.00,0.0058
3692.00,0.0058
3691.00,0.0059
3690.00,0.0059
3689.00,0.0060
3688.00,0.0060
3687.00,0.0061
3686.00,0.0061
3685.00,0.0061
3684.00,0.0061
3683.00,0.0061
3682.00,0.0061
3681.00,0.0061
3680.00,0.0061
3679.00,0.0061
3678.00,0.0061
3677.00,0.0061
3676.00,0.0061
3675.00,0.0061
3674.00,0.0060
3673.00,0.0060
3672.00,0.0061
3671.00,0.0061
3670.00,0.0061
3669.00,0.0062
3668.00,0.0062
3667.00,0.0063
3666.00,0.0063
3665.00,0.0063
3664.00,0.0063
3663.00,0.0063
3662.00,0.0063
3661.00,0.0063
3660.00,0.0064
3659.00,0.0064
3658.00,0.0064
3657.00,0.0065
3656.00,0.0065
3655.00,0.0065
3654.00,0.0065
3653.00,0.0065
3652.00,0.0065
3651.00,0.0066
3650.00,0.0066
3649.00,0.0067
3648.00,0.0068
3647.00,0.0068
3646.00,0.0069
3645.00,0.0069
3644.00,0.0070
3643.00,0.0070
3642.00,0.0071
3641.00,0.0071
3640.00,0.0071
3639.00,0.0071
3638.00,0.0071
3637.00,0.0071
3636.00,0.0072
3635.00,0.0072
3634.00,0.0073
3633.00,0.0074
3632.00,0.0074
3631.00,0.0074
3630.00,0.0075
3629.00,0.0076
3628.00,0.0076
3627.00,0.0077
3626.00,0.0078
3625.00,0.0078
3624.00,0.0078
3623.00,0.0079
3622.00,0.0079
3621.00,0.0079
3620.00,0.0080
3619.00,0.0081
3618.00,0.0082
3617.00,0.0082
3616.00,0.0083
3615.00,0.0083
3614.00,0.0084
3613.00,0.0084
3612.00,0.0085
3611.00,0.0086
3610.00,0.0086
3609.00,0.0087
3608.00,0.0088
3607.00,0.0089
3606.00,0.0090
3605.00,0.0090
3604.00,0.0091
3603.00,0.0091
3602.00,0.0091
3601.00,0.0092
3600.00,0.0092
3599.00,0.0093
3598.00,0.0093
3597.00,0.0094
3596.00,0.0095
3595.00,0.0096
3594.00,0.0097
3593.00,0.0098
3592.00,0.0099
3591.00,0.0099
3590.00,0.0100
3589.00,0.0100
3588.00,0.0101
3587.00,0.0102
3586.00,0.0104
3585.00,0.0105
3584.00,0.0105
3583.00,0.0106
3582.00,0.0107
3581.00,0.0108
3580.00,0.0109
3579.00,0.0110
3578.00,0.0111
3577.00,0.0112
3576.00,0.0112
3575.00,0.0113
3574.00,0.0113
3573.00,0.0114
3572.00,0.0115
3571.00,0.0116
3570.00,0.0117
3569.00,0.0118
3568.00,0.0119
3567.00,0.0120
3566.00,0.0121
3565.00,0.0123
3564.00,0.0124
3563.00,0.0125
3562.00,0.0125
3561.00,0.0126
3560.00,0.0127
3559.00,0.0128
3558.00,0.0129
3557.00,0.0129
3556.00,0.0130
3555.00,0.0130
3554.00,0.0131
3553.00,0.0132
3552.00,0.0133
3551.00,0.0134
3550.00,0.0135
3549.00,0.0135
3548.00,0.0136
3547.00,0.0137
3546.00,0.0137
3545.00,0.0138
3544.00,0.0139
3543.00,0.0140
3542.00,0.0141
3541.00,0.0142
3540.00,0.0143
3539.00,0.0144
3538.00,0.0144
3537.00,0.0145
3536.00,0.0145
3535.00,0.0146
3534.00,0.0146
3533.00,0.0147
3532.00,0.0148
3531.00,0.0149
3530.00,0.0149
3529.00,0.0150
3528.00,0.0151
3527.00,0.0152
3526.00,0.0153
3525.00,0.0154
3524.00,0.0155
3523.00,0.0155
3522.00,0.0156
3521.00,0.0157
3520.00,0.0157
3519.00,0.0158
3518.00,0.0159
3517.00,0.0160
3516.00,0.0161
3515.00,0.0162
3514.00,0.0163
3513.00,0.0163
3512.00,0.0164
3511.00,0.0164
3510.00,0.0165
3509.00,0.0166
3508.00,0.0167
3507.00,0.0168
3506.00,0.0169
3505.00,0.0169
3504.00,0.0170
3503.00,0.0171
3502.00,0.0172
3501.00,0.0173
3500.00,0.0174
3499.00,0.0175
3498.00,0.0175
3497.00,0.0176
3496.00,0.0177
3495.00,0.0178
3494.00,0.0179
3493.00,0.0179
3492.00,0.0180
3491.00,0.0181
3490.00,0.0181
3489.00,0.0182
3488.00,0.0183
3487.00,0.0184
3486.00,0.0185
3485.00,0.0186
3484.00,0.0187
3483.00,0.0187
3482.00,0.0188
3481.00,0.0189
3480.00,0.0190
3479.00,0.0191
3478.00,0.0192
3477.00,0.0193
3476.00,0.0193
3475.00,0.0194
3474.00,0.0195
3473.00,0.0195
3472.00,0.0196
3471.00,0.0197
3470.00,0.0198
3469.00,0.0199
3468.00,0.0200
3467.00,0.0200
3466.00,0.0200
3465.00,0.0200
3464.00,0.0201
3463.00,0.0201
3462.00,0.0202
3461.00,0.0202
3460.00,0.0203
3459.00,0.0204
3458.00,0.0205
3457.00,0.0205
3456.00,0.0206
3455.00,0.0207
3454.00,0.0207
3453.00,0.0208
3452.00,0.0208
3451.00,0.0209
3450.00,0.0209
3449.00,0.0210
3448.00,0.0211
3447.00,0.0212
3446.00,0.0212
3445.00,0.0213
3444.00,0.0213
3443.00,0.0214
3442.00,0.0214
3441.00,0.0214
3440.00,0.0215
3439.00,0.0215
3438.00,0.0216
3437.00,0.0216
3436.00,0.0217
3435.00,0.0217
3434.00,0.0218
3433.00,0.0218
3432.00,0.0218
3431.00,0.0219
3430.00,0.0219
3429.00,0.0219
3428.00,0.0220
3427.00,0.0220
3426.00,0.0221
3425.00,0.0222
3424.00,0.0222
3423.00,0.0223
3422.00,0.0223
3421.00,0.0224
3420.00,0.0224
3419.00,0.0225
3418.00,0.0225
3417.00,0.0226
3416.00,0.0226
3415.00,0.0226
3414.00,0.0227
3413.00,0.0227
3412.00,0.0227
3411.00,0.0228
3410.00,0.0228
3409.00,0.0229
3408.00,0.0229
3407.00,0.0230
3406.00,0.0230
3405.00,0.0231
3404.00,0.0231
3403.00,0.0231
3402.00,0.0231
3401.00,0.0232
3400.00,0.0232
3399.00,0.0233
3398.00,0.0233
3397.00,0.0234
3396.00,0.0234
3395.00,0.0235
3394.00,0.0235
3393.00,0.0235
3392.00,0.0236
3391.00,0.0236
3390.00,0.0237
3389.00,0.0238
3388.00,0.0239
3387.00,0.0239
3386.00,0.0240
3385.00,0.0240
3384.00,0.0241
3383.00,0.0241
3382.00,0.0242
3381.00,0.0242
3380.00,0.0243
3379.00,0.0243
3378.00,0.0244
3377.00,0.0244
3376.00,0.0245
3375.00,0.0245
3374.00,0.0245
3373.00,0.0245
3372.00,0.0245
3371.00,0.0244
3370.00,0.0244
3369.00,0.0244
3368.00,0.0245
3367.00,0.0247
3366.00,0.0248
3365.00,0.0249
3364.00,0.0250
3363.00,0.0251
3362.00,0.0251
3361.00,0.0251
3360.00,0.0252
3359.00,0.0252
3358.00,0.0253
3357.00,0.0254
3356.00,0.0255
3355.00,0.0255
3354.00,0.0255
3353.00,0.0254
3352.00,0.0254
3351.00,0.0254
3350.00,0.0255
3349.00,0.0256
3348.00,0.0257
3347.00,0.0258
3346.00,0.0258
3345.00,0.0258
3344.00,0.0258
3343.00,0.0258
3342.00,0.0258
3341.00,0.0258
3340.00,0.0258
3339.00,0.0258
3338.00,0.0258
3337.00,0.0259
3336.00,0.0261
3335.00,0.0262
3334.00,0.0263
3333.00,0.0263
3332.00,0.0263
3331.00,0.0264
3330.00,0.0264
3329.00,0.0264
3328.00,0.0263
3327.00,0.0263
3326.00,0.0263
3325.00,0.0264
3324.00,0.0265
3323.00,0.0266
3322.00,0.0267
3321.00,0.0268
3320.00,0.0268
3319.00,0.0269
3318.00,0.0269
3317.00,0.0270
3316.00,0.0270
3315.00,0.0270
3314.00,0.0270
3313.00,0.0270
3312.00,0.0270
3311.00,0.0269
3310.00,0.0268
3309.00,0.0268
3308.00,0.0267
3307.00,0.0267
3306.00,0.0268
3305.00,0.0269
3304.00,0.0271
3303.00,0.0273
3302.00,0.0275
3301.00,0.0276
3300.00,0.0276
3299.00,0.0275
3298.00,0.0275
3297.00,0.0274
3296.00,0.0274
3295.00,0.0274
3294.00,0.0275
3293.00,0.0275
3292.00,0.0276
3291.00,0.0277
3290.00,0.0278
3289.00,0.0279
3288.00,0.0279
3287.00,0.0280
3286.00,0.0280
3285.00,0.0280
3284.00,0.0280
3283.00,0.0280
3282.00,0.0281
3281.00,0.0281
3280.00,0.0281
3279.00,0.0281
3278.00,0.0281
3277.00,0.0280
3276.00,0.0280
3275.00,0.0280
3274.00,0.0280
3273.00,0.0279
3272.00,0.0279
3271.00,0.0279
3270.00,0.0280
3269.00,0.0281
3268.00,0.0282
3267.00,0.0282
3266.00,0.0283
3265.00,0.0283
3264.00,0.0283
3263.00,0.0283
3262.00,0.0283
3261.00,0.0283
3260.00,0.0283
3259.00,0.0283
3258.00,0.0282
3257.00,0.0283
3256.00,0.0283
3255.00,0.0283
3254.00,0.0283
3253.00,0.0284
3252.00,0.0284
3251.00,0.0284
3250.00,0.0284
3249.00,0.0284
3248.00,0.0283
3247.00,0.0284
3246.00,0.0284
3245.00,0.0284
3244.00,0.0285
3243.00,0.0285
3242.00,0.0285
3241.00,0.0286
3240.00,0.0285
3239.00,0.0285
3238.00,0.0285
3237.00,0.0284
3236.00,0.0284
3235.00,0.0283
3234.00,0.0283
3233.00,0.0284
3232.00,0.0284
3231.00,0.0285
3230.00,0.0285
3229.00,0.0285
3228.00,0.0285
3227.00,0.0285
3226.00,0.0284
3225.00,0.0284
3224.00,0.0284
3223.00,0.0284
3222.00,0.0284
3221.00,0.0284
3220.00,0.0284
3219.00,0.0283
3218.00,0.0283
3217.00,0.0283
3216.00,0.0283
3215.00,0.0282
3214.00,0.0281
3213.00,0.0281
3212.00,0.0281
3211.00,0.0281
3210.00,0.0281
3209.00,0.0281
3208.00,0.0281
3207.00,0.0280
3206.00,0.0280
3205.00,0.0279
3204.00,0.0279
3203.00,0.0279
3202.00,0.0279
3201.00,0.0279
3200.00,0.0279
3199.00,0.0279
3198.00,0.0278
3197.00,0.0278
3196.00,0.0278
3195.00,0.0277
3194.00,0.0277
3193.00,0.0277
3192.00,0.0277
3191.00,0.0277
3190.00,0.0277
3189.00,0.0276
3188.00,0.0276
3187.00,0.0276
3186.00,0.0276
3185.00,0.0276
3184.00,0.0276
3183.00,0.0276
3182.00,0.0276
3181.00,0.0275
3180.00,0.0275
3179.00,0.0275
3178.00,0.0275
3177.00,0.0275
3176.00,0.0275
3175.00,0.0275
3174.00,0.0275
3173.00,0.0274
3172.00,0.0274
3171.00,0.0273
3170.00,0.0273
3169.00,0.0273
3168.00,0.0272
3167.00,0.0272
3166.00,0.0272
3165.00,0.0271
3164.00,0.0271
3163.00,0.0270
3162.00,0.0270
3161.00,0.0269
3160.00,0.0269
3159.00,0.0268
3158.00,0.0268
3157.00,0.0267
3156.00,0.0266
3155.00,0.0265
3154.00,0.0265
3153.00,0.0264
3152.00,0.0264
3151.00,0.0264
3150.00,0.0264
3149.00,0.0263
3148.00,0.0263
3147.00,0.0262
3146.00,0.0262
3145.00,0.0261
3144.00,0.0261
3143.00,0.0260
3142.00,0.0259
3141.00,0.0259
3140.00,0.0259
3139.00,0.0258
3138.00,0.0258
3137.00,0.0258
3136.00,0.0257
3135.00,0.0257
3134.00,0.0256
3133.00,0.0256
3132.00,0.0256
3131.00,0.0256
3130.00,0.0255
3129.00,0.0255
3128.00,0.0255
3127.00,0.0255
3126.00,0.0255
3125.00,0.0254
3124.00,0.0254
3123.00,0.0254
3122.00,0.0253
3121.00,0.0253
3120.00,0.0253
3119.00,0.0252
3118.00,0.0252
3117.00,0.0251
3116.00,0.0251
3115.00,0.0250
3114.00,0.0250
3113.00,0.0249
3112.00,0.0248
3111.00,0.0248
3110.00,0.0247
3109.00,0.0247
3108.00,0.0246
3107.00,0.0245
3106.00,0.0244
3105.00,0.0244
3104.00,0.0243
3103.00,0.0242
3102.00,0.0242
3101.00,0.0242
3100.00,0.0242
3099.00,0.0242
3098.00,0.0241
3097.00,0.0241
3096.00,0.0240
3095.00,0.0239
3094.00,0.0239
3093.00,0.0239
3092.00,0.0239
3091.00,0.0240
3090.00,0.0240
3089.00,0.0240
3088.00,0.0240
3087.00,0.0240
3086.00,0.0240
3085.00,0.0240
3084.00,0.0240
3083.00,0.0241
3082.00,0.0241
3081.00,0.0241
3080.00,0.0241
3079.00,0.0241
3078.00,0.0240
3077.00,0.0240
3076.00,0.0240
3075.00,0.0240
3074.00,0.0239
3073.00,0.0239
3072.00,0.0238
3071.00,0.0237
3070.00,0.0236
3069.00,0.0235
3068.00,0.0235
3067.00,0.0234
3066.00,0.0233
3065.00,0.0233
3064.00,0.0232
3063.00,0.0231
3062.00,0.0230
3061.00,0.0230
3060.00,0.0229
3059.00,0.0229
3058.00,0.0228
3057.00,0.0227
3056.00,0.0227
3055.00,0.0227
3054.00,0.0226
3053.00,0.0226
3052.00,0.0226
3051.00,0.0225
3050.00,0.0225
3049.00,0.0224
3048.00,0.0224
3047.00,0.0224
3046.00,0.0224
3045.00,0.0223
3044.00,0.0223
3043.00,0.0222
3042.00,0.0222
3041.00,0.0222
3040.00,0.0221
3039.00,0.0221
3038.00,0.0221
3037.00,0.0221
3036.00,0.0220
3035.00,0.0220
3034.00,0.0220
3033.00,0.0220
3032.00,0.0219
3031.00,0.0219
3030.00,0.0219
3029.00,0.0218
3028.00,0.0218
3027.00,0.0217
3026.00,0.0216
3025.00,0.0215
3024.00,0.0215
3023.00,0.0214
3022.00,0.0214
3021.00,0.0214
3020.00,0.0213
3019.00,0.0213
3018.00,0.0212
3017.00,0.0212
3016.00,0.0213
3015.00,0.0213
3014.00,0.0214
3013.00,0.0215
3012.00,0.0216
3011.00,0.0217
3010.00,0.0218
3009.00,0.0220
3008.00,0.0222
3007.00,0.0224
3006.00,0.0226
3005.00,0.0229
3004.00,0.0233
3003.00,0.0236
3002.00,0.0240
3001.00,0.0245
3000.00,0.0250
2999.00,0.0256
2998.00,0.0263
2997.00,0.0270
2996.00,0.0278
2995.00,0.0286
2994.00,0.0294
2993.00,0.0303
2992.00,0.0313
2991.00,0.0323
2990.00,0.0333
2989.00,0.0343
2988.00,0.0353
2987.00,0.0362
2986.00,0.0371
2985.00,0.0379
2984.00,0.0386
2983.00,0.0392
2982.00,0.0399
2981.00,0.0406
2980.00,0.0412
2979.00,0.0419
2978.00,0.0425
2977.00,0.0430
2976.00,0.0434
2975.00,0.0438
2974.00,0.0442
2973.00,0.0446
2972.00,0.0449
2971.00,0.0454
2970.00,0.0459
2969.00,0.0465
2968.00,0.0472
2967.00,0.0478
2966.00,0.0485
2965.00,0.0493
2964.00,0.0501
2963.00,0.0509
2962.00,0.0517
2961.00,0.0524
2960.00,0.0532
2959.00,0.0539
2958.00,0.0546
2957.00,0.0551
2956.00,0.0556
2955.00,0.0560
2954.00,0.0562
2953.00,0.0563
2952.00,0.0563
2951.00,0.0562
2950.00,0.0560
2949.00,0.0558
2948.00,0.0556
2947.00,0.0554
2946.00,0.0553
2945.00,0.0553
2944.00,0.0554
2943.00,0.0556
2942.00,0.0559
2941.00,0.0563
2940.00,0.0568
2939.00,0.0573
2938.00,0.0579
2937.00,0.0586
2936.00,0.0594
2935.00,0.0602
2934.00,0.0610
2933.00,0.0617
2932.00,0.0625
2931.00,0.0631
2930.00,0.0637
2929.00,0.0643
2928.00,0.0647
2927.00,0.0650
2926.00,0.0652
2925.00,0.0653
2924.00,0.0652
2923.00,0.0649
2922.00,0.0646
2921.00,0.0641
2920.00,0.0634
2919.00,0.0627
2918.00,0.0618
2917.00,0.0608
2916.00,0.0598
2915.00,0.0587
2914.00,0.0577
2913.00,0.0566
2912.00,0.0555
2911.00,0.0544
2910.00,0.0533
2909.00,0.0523
2908.00,0.0513
2907.00,0.0504
2906.00,0.0496
2905.00,0.0489
2904.00,0.0482
2903.00,0.0476
2902.00,0.0471
2901.00,0.0467
2900.00,0.0464
2899.00,0.0461
2898.00,0.0458
2897.00,0.0455
2896.00,0.0453
2895.00,0.0452
2894.00,0.0450
2893.00,0.0448
2892.00,0.0446
2891.00,0.0444
2890.00,0.0443
2889.00,0.0441
2888.00,0.0439
2887.00,0.0438
2886.00,0.0437
2885.00,0.0435
2884.00,0.0435
2883.00,0.0434
2882.00,0.0435
2881.00,0.0436
2880.00,0.0437
2879.00,0.0439
2878.00,0.0442
2877.00,0.0446
2876.00,0.0449
2875.00,0.0453
2874.00,0.0457
2873.00,0.0460
2872.00,0.0463
2871.00,0.0466
2870.00,0.0466
2869.00,0.0466
2868.00,0.0466
2867.00,0.0465
2866.00,0.0465
2865.00,0.0465
2864.00,0.0466
2863.00,0.0468
2862.00,0.0470
2861.00,0.0473
2860.00,0.0475
2859.00,0.0477
2858.00,0.0477
2857.00,0.0476
2856.00,0.0472
2855.00,0.0467
2854.00,0.0459
2853.00,0.0450
2852.00,0.0440
2851.00,0.0428
2850.00,0.0417
2849.00,0.0404
2848.00,0.0392
2847.00,0.0381
2846.00,0.0369
2845.00,0.0358
2844.00,0.0347
2843.00,0.0337
2842.00,0.0327
2841.00,0.0318
2840.00,0.0310
2839.00,0.0302
2838.00,0.0296
2837.00,0.0291
2836.00,0.0286
2835.00,0.0281
2834.00,0.0277
2833.00,0.0274
2832.00,0.0271
2831.00,0.0268
2830.00,0.0265
2829.00,0.0262
2828.00,0.0259
2827.00,0.0256
2826.00,0.0254
2825.00,0.0251
2824.00,0.0249
2823.00,0.0246
2822.00,0.0243
2821.00,0.0241
2820.00,0.0238
2819.00,0.0235
2818.00,0.0233
2817.00,0.0230
2816.00,0.0227
2815.00,0.0224
2814.00,0.0220
2813.00,0.0218
2812.00,0.0215
2811.00,0.0212
2810.00,0.0209
2809.00,0.0207
2808.00,0.0205
2807.00,0.0202
2806.00,0.0200
2805.00,0.0198
2804.00,0.0195
2803.00,0.0193
2802.00,0.0191
2801.00,0.0189
2800.00,0.0187
2799.00,0.0186
2798.00,0.0184
2797.00,0.0182
2796.00,0.0181
2795.00,0.0180
2794.00,0.0178
2793.00,0.0177
2792.00,0.0175
2791.00,0.0174
2790.00,0.0173
2789.00,0.0172
2788.00,0.0171
2787.00,0.0170
2786.00,0.0169
2785.00,0.0168
2784.00,0.0167
2783.00,0.0166
2782.00,0.0166
2781.00,0.0165
2780.00,0.0164
2779.00,0.0163
2778.00,0.0162
2777.00,0.0161
2776.00,0.0160
2775.00,0.0159
2774.00,0.0158
2773.00,0.0158
2772.00,0.0157
2771.00,0.0157
2770.00,0.0156
2769.00,0.0156
2768.00,0.0155
2767.00,0.0154
2766.00,0.0154
2765.00,0.0153
2764.00,0.0153
2763.00,0.0153
2762.00,0.0152
2761.00,0.0152
2760.00,0.0152
2759.00,0.0152
2758.00,0.0152
2757.00,0.0152
2756.00,0.0152
2755.00,0.0152
2754.00,0.0152
2753.00,0.0152
2752.00,0.0152
2751.00,0.0152
2750.00,0.0152
2749.00,0.0152
2748.00,0.0152
2747.00,0.0152
2746.00,0.0152
2745.00,0.0153
2744.00,0.0153
2743.00,0.0153
2742.00,0.0153
2741.00,0.0153
2740.00,0.0153
2739.00,0.0153
2738.00,0.0153
2737.00,0.0154
2736.00,0.0154
2735.00,0.0154
2734.00,0.0154
2733.00,0.0154
2732.00,0.0154
2731.00,0.0153
2730.00,0.0153
2729.00,0.0152
2728.00,0.0152
2727.00,0.0151
2726.00,0.0151
2725.00,0.0150
2724.00,0.0150
2723.00,0.0150
2722.00,0.0149
2721.00,0.0149
2720.00,0.0148
2719.00,0.0148
2718.00,0.0147
2717.00,0.0147
2716.00,0.0147
2715.00,0.0147
2714.00,0.0146
2713.00,0.0146
2712.00,0.0146
2711.00,0.0145
2710.00,0.0145
2709.00,0.0144
2708.00,0.0144
2707.00,0.0144
2706.00,0.0143
2705.00,0.0143
2704.00,0.0143
2703.00,0.0142
2702.00,0.0142
2701.00,0.0141
2700.00,0.0141
2699.00,0.0140
2698.00,0.0140
2697.00,0.0140
2696.00,0.0139
2695.00,0.0139
2694.00,0.0139
2693.00,0.0138
2692.00,0.0137
2691.00,0.0137
2690.00,0.0136
2689.00,0.0136
2688.00,0.0136
2687.00,0.0136
2686.00,0.0135
2685.00,0.0135
2684.00,0.0135
2683.00,0.0134
2682.00,0.0134
2681.00,0.0133
2680.00,0.0133
2679.00,0.0133
2678.00,0.0133
2677.00,0.0133
2676.00,0.0133
2675.00,0.0133
2674.00,0.0132
2673.00,0.0132
2672.00,0.0132
2671.00,0.0132
2670.00,0.0132
2669.00,0.0132
2668.00,0.0132
2667.00,0.0132
2666.00,0.0132
2665.00,0.0132
2664.00,0.0132
2663.00,0.0132
2662.00,0.0132
2661.00,0.0132
2660.00,0.0132
2659.00,0.0132
2658.00,0.0132
2657.00,0.0131
2656.00,0.0131
2655.00,0.0130
2654.00,0.0130
2653.00,0.0130
2652.00,0.0130
2651.00,0.0130
2650.00,0.0129
2649.00,0.0129
2648.00,0.0128
2647.00,0.0128
2646.00,0.0128
2645.00,0.0127
2644.00,0.0127
2643.00,0.0126
2642.00,0.0126
2641.00,0.0126
2640.00,0.0125
2639.00,0.0125
2638.00,0.0125
2637.00,0.0124
2636.00,0.0124
2635.00,0.0123
2634.00,0.0123
2633.00,0.0122
2632.00,0.0122
2631.00,0.0121
2630.00,0.0121
2629.00,0.0121
2628.00,0.0121
2627.00,0.0121
2626.00,0.0120
2625.00,0.0120
2624.00,0.0120
2623.00,0.0120
2622.00,0.0120
2621.00,0.0120
2620.00,0.0120
2619.00,0.0119
2618.00,0.0119
2617.00,0.0119
2616.00,0.0119
2615.00,0.0119
2614.00,0.0119
2613.00,0.0118
2612.00,0.0118
2611.00,0.0118
2610.00,0.0117
2609.00,0.0117
2608.00,0.0117
2607.00,0.0117
2606.00,0.0116
2605.00,0.0116
2604.00,0.0116
2603.00,0.0116
2602.00,0.0116
2601.00,0.0116
2600.00,0.0116
2599.00,0.0116
2598.00,0.0115
2597.00,0.0115
2596.00,0.0115
2595.00,0.0115
2594.00,0.0115
2593.00,0.0115
2592.00,0.0115
2591.00,0.0115
2590.00,0.0115
2589.00,0.0114
2588.00,0.0114
2587.00,0.0114
2586.00,0.0113
2585.00,0.0113
2584.00,0.0114
2583.00,0.0113
2582.00,0.0113
2581.00,0.0113
2580.00,0.0113
2579.00,0.0113
2578.00,0.0113
2577.00,0.0113
2576.00,0.0113
2575.00,0.0113
2574.00,0.0113
2573.00,0.0112
2572.00,0.0112
2571.00,0.0112
2570.00,0.0111
2569.00,0.0111
2568.00,0.0111
2567.00,0.0110
2566.00,0.0110
2565.00,0.0109
2564.00,0.0109
2563.00,0.0109
2562.00,0.0108
2561.00,0.0108
2560.00,0.0108
2559.00,0.0108
2558.00,0.0108
2557.00,0.0107
2556.00,0.0107
2555.00,0.0107
2554.00,0.0107
2553.00,0.0106
2552.00,0.0106
2551.00,0.0106
2550.00,0.0106
2549.00,0.0106
2548.00,0.0106
2547.00,0.0106
2546.00,0.0106
2545.00,0.0105
2544.00,0.0105
2543.00,0.0105
2542.00,0.0105
2541.00,0.0104
2540.00,0.0103
2539.00,0.0103
2538.00,0.0102
2537.00,0.0102
2536.00,0.0102
2535.00,0.0102
2534.00,0.0101
2533.00,0.0101
2532.00,0.0101
2531.00,0.0101
2530.00,0.0101
2529.00,0.0101
2528.00,0.0100
2527.00,0.0099
2526.00,0.0099
2525.00,0.0098
2524.00,0.0098
2523.00,0.0098
2522.00,0.0097
2521.00,0.0096
2520.00,0.0096
2519.00,0.0095
2518.00,0.0095
2517.00,0.0094
2516.00,0.0094
2515.00,0.0094
2514.00,0.0094
2513.00,0.0094
2512.00,0.0094
2511.00,0.0094
2510.00,0.0093
2509.00,0.0093
2508.00,0.0092
2507.00,0.0092
2506.00,0.0092
2505.00,0.0092
2504.00,0.0092
2503.00,0.0091
2502.00,0.0091
2501.00,0.0091
2500.00,0.0091
2499.00,0.0091
2498.00,0.0091
2497.00,0.0091
2496.00,0.0091
2495.00,0.0091
2494.00,0.0090
2493.00,0.0090
2492.00,0.0090
2491.00,0.0089
2490.00,0.0089
2489.00,0.0089
2488.00,0.0089
2487.00,0.0090
2486.00,0.0089
2485.00,0.0089
2484.00,0.0089
2483.00,0.0089
2482.00,0.0088
2481.00,0.0088
2480.00,0.0089
2479.00,0.0088
2478.00,0.0088
2477.00,0.0088
2476.00,0.0088
2475.00,0.0088
2474.00,0.0088
2473.00,0.0087
2472.00,0.0087
2471.00,0.0087
2470.00,0.0087
2469.00,0.0087
2468.00,0.0087
2467.00,0.0087
2466.00,0.0086
2465.00,0.0087
2464.00,0.0087
2463.00,0.0087
2462.00,0.0087
2461.00,0.0087
2460.00,0.0087
2459.00,0.0087
2458.00,0.0087
2457.00,0.0087
2456.00,0.0087
2455.00,0.0087
2454.00,0.0087
2453.00,0.0087
2452.00,0.0087
2451.00,0.0087
2450.00,0.0086
2449.00,0.0086
2448.00,0.0086
2447.00,0.0086
2446.00,0.0086
2445.00,0.0086
2444.00,0.0086
2443.00,0.0085
2442.00,0.0085
2441.00,0.0084
2440.00,0.0085
2439.00,0.0085
2438.00,0.0085
2437.00,0.0085
2436.00,0.0084
2435.00,0.0084
2434.00,0.0084
2433.00,0.0084
2432.00,0.0084
2431.00,0.0084
2430.00,0.0084
2429.00,0.0084
2428.00,0.0084
2427.00,0.0084
2426.00,0.0083
2425.00,0.0084
2424.00,0.0084
2423.00,0.0084
2422.00,0.0084
2421.00,0.0084
2420.00,0.0084
2419.00,0.0084
2418.00,0.0084
2417.00,0.0084
2416.00,0.0083
2415.00,0.0083
2414.00,0.0083
2413.00,0.0082
2412.00,0.0082
2411.00,0.0082
2410.00,0.0082
2409.00,0.0082
2408.00,0.0081
2407.00,0.0081
2406.00,0.0081
2405.00,0.0081
2404.00,0.0081
2403.00,0.0081
2402.00,0.0081
2401.00,0.0082
2400.00,0.0082
2399.00,0.0082
2398.00,0.0082
2397.00,0.0082
2396.00,0.0081
2395.00,0.0081
2394.00,0.0081
2393.00,0.0081
2392.00,0.0081
2391.00,0.0081
2390.00,0.0080
2389.00,0.0080
2388.00,0.0080
2387.00,0.0079
2386.00,0.0078
2385.00,0.0078
2384.00,0.0077
2383.00,0.0077
2382.00,0.0077
2381.00,0.0076
2380.00,0.0075
2379.00,0.0075
2378.00,0.0075
2377.00,0.0075
2376.00,0.0075
2375.00,0.0075
2374.00,0.0075
2373.00,0.0076
2372.00,0.0076
2371.00,0.0075
2370.00,0.0075
2369.00,0.0074
2368.00,0.0074
2367.00,0.0074
2366.00,0.0075
2365.00,0.0075
2364.00,0.0075
2363.00,0.0075
2362.00,0.0075
2361.00,0.0075
2360.00,0.0075
2359.00,0.0075
2358.00,0.0075
2357.00,0.0076
2356.00,0.0077
2355.00,0.0077
2354.00,0.0077
2353.00,0.0077
2352.00,0.0076
2351.00,0.0076
2350.00,0.0076
2349.00,0.0076
2348.00,0.0077
2347.00,0.0077
2346.00,0.0078
2345.00,0.0077
2344.00,0.0077
2343.00,0.0077
2342.00,0.0078
2341.00,0.0078
2340.00,0.0079
2339.00,0.0079
2338.00,0.0079
2337.00,0.0079
2336.00,0.0080
2335.00,0.0080
2334.00,0.0080
2333.00,0.0080
2332.00,0.0080
2331.00,0.0080
2330.00,0.0080
2329.00,0.0082
2328.00,0.0085
2327.00,0.0089
2326.00,0.0092
2325.00,0.0093
2324.00,0.0092
2323.00,0.0090
2322.00,0.0088
2321.00,0.0086
2320.00,0.0085
2319.00,0.0084
2318.00,0.0084
2317.00,0.0083
2316.00,0.0083
2315.00,0.0083
2314.00,0.0082
2313.00,0.0082
2312.00,0.0082
2311.00,0.0081
2310.00,0.0081
2309.00,0.0080
2308.00,0.0080
2307.00,0.0081
2306.00,0.0081
2305.00,0.0081
2304.00,0.0082
2303.00,0.0082
2302.00,0.0082
2301.00,0.0081
2300.00,0.0081
2299.00,0.0081
2298.00,0.0082
2297.00,0.0082
2296.00,0.0083
2295.00,0.0084
2294.00,0.0084
2293.00,0.0085
2292.00,0.0086
2291.00,0.0086
2290.00,0.0087
2289.00,0.0087
2288.00,0.0088
2287.00,0.0087
2286.00,0.0087
2285.00,0.0086
2284.00,0.0086
2283.00,0.0086
2282.00,0.0085
2281.00,0.0084
2280.00,0.0084
2279.00,0.0084
2278.00,0.0083
2277.00,0.0083
2276.00,0.0083
2275.00,0.0083
2274.00,0.0083
2273.00,0.0083
2272.00,0.0082
2271.00,0.0081
2270.00,0.0081
2269.00,0.0080
2268.00,0.0079
2267.00,0.0078
2266.00,0.0077
2265.00,0.0077
2264.00,0.0078
2263.00,0.0079
2262.00,0.0080
2261.00,0.0080
2260.00,0.0080
2259.00,0.0080
2258.00,0.0079
2257.00,0.0078
2256.00,0.0077
2255.00,0.0077
2254.00,0.0076
2253.00,0.0077
2252.00,0.0077
2251.00,0.0076
2250.00,0.0076
2249.00,0.0076
2248.00,0.0077
2247.00,0.0077
2246.00,0.0078
2245.00,0.0078
2244.00,0.0078
2243.00,0.0078
2242.00,0.0077
2241.00,0.0077
2240.00,0.0078
2239.00,0.0079
2238.00,0.0079
2237.00,0.0080
2236.00,0.0080
2235.00,0.0079
2234.00,0.0078
2233.00,0.0078
2232.00,0.0078
2231.00,0.0077
2230.00,0.0077
2229.00,0.0077
2228.00,0.0077
2227.00,0.0078
2226.00,0.0078
2225.00,0.0078
2224.00,0.0078
2223.00,0.0078
2222.00,0.0078
2221.00,0.0077
2220.00,0.0077
2219.00,0.0078
2218.00,0.0079
2217.00,0.0080
2216.00,0.0080
2215.00,0.0080
2214.00,0.0078
2213.00,0.0077
2212.00,0.0077
2211.00,0.0078
2210.00,0.0078
2209.00,0.0078
2208.00,0.0078
2207.00,0.0078
2206.00,0.0078
2205.00,0.0077
2204.00,0.0077
2203.00,0.0076
2202.00,0.0076
2201.00,0.0076
2200.00,0.0077
2199.00,0.0077
2198.00,0.0076
2197.00,0.0076
2196.00,0.0077
2195.00,0.0078
2194.00,0.0078
2193.00,0.0077
2192.00,0.0078
2191.00,0.0078
2190.00,0.0080
2189.00,0.0081
2188.00,0.0081
2187.00,0.0080
2186.00,0.0079
2185.00,0.0077
2184.00,0.0075
2183.00,0.0074
2182.00,0.0073
2181.00,0.0075
2180.00,0.0076
2179.00,0.0077
2178.00,0.0075
2177.00,0.0073
2176.00,0.0072
2175.00,0.0072
2174.00,0.0073
2173.00,0.0075
2172.00,0.0077
2171.00,0.0079
2170.00,0.0081
2169.00,0.0083
2168.00,0.0085
2167.00,0.0085
2166.00,0.0083
2165.00,0.0083
2164.00,0.0084
2163.00,0.0085
2162.00,0.0082
2161.00,0.0074
2160.00,0.0063
2159.00,0.0054
2158.00,0.0048
2157.00,0.0048
2156.00,0.0050
2155.00,0.0052
2154.00,0.0052
2153.00,0.0054
2152.00,0.0056
2151.00,0.0057
2150.00,0.0058
2149.00,0.0058
2148.00,0.0058
2147.00,0.0058
2146.00,0.0059
2145.00,0.0060
2144.00,0.0061
2143.00,0.0061
2142.00,0.0061
2141.00,0.0059
2140.00,0.0059
2139.00,0.0058
2138.00,0.0056
2137.00,0.0055
2136.00,0.0054
2135.00,0.0054
2134.00,0.0053
2133.00,0.0054
2132.00,0.0055
2131.00,0.0056
2130.00,0.0057
2129.00,0.0059
2128.00,0.0060
2127.00,0.0061
2126.00,0.0061
2125.00,0.0061
2124.00,0.0061
2123.00,0.0062
2122.00,0.0063
2121.00,0.0064
2120.00,0.0066
2119.00,0.0068
2118.00,0.0069
2117.00,0.0069
2116.00,0.0069
2115.00,0.0069
2114.00,0.0068
2113.00,0.0069
2112.00,0.0069
2111.00,0.0069
2110.00,0.0069
2109.00,0.0069
2108.00,0.0069
2107.00,0.0069
2106.00,0.0069
2105.00,0.0069
2104.00,0.0070
2103.00,0.0070
2102.00,0.0070
2101.00,0.0069
2100.00,0.0070
2099.00,0.0070
2098.00,0.0069
2097.00,0.0069
2096.00,0.0068
2095.00,0.0067
2094.00,0.0066
2093.00,0.0067
2092.00,0.0069
2091.00,0.0070
2090.00,0.0071
2089.00,0.0071
2088.00,0.0072
2087.00,0.0073
2086.00,0.0073
2085.00,0.0073
2084.00,0.0072
2083.00,0.0071
2082.00,0.0070
2081.00,0.0070
2080.00,0.0070
2079.00,0.0070
2078.00,0.0070
2077.00,0.0070
2076.00,0.0070
2075.00,0.0070
2074.00,0.0070
2073.00,0.0071
2072.00,0.0071
2071.00,0.0071
2070.00,0.0070
2069.00,0.0070
2068.00,0.0070
2067.00,0.0069
2066.00,0.0069
2065.00,0.0068
2064.00,0.0067
2063.00,0.0065
2062.00,0.0064
2061.00,0.0065
2060.00,0.0066
2059.00,0.0067
2058.00,0.0067
2057.00,0.0067
2056.00,0.0068
2055.00,0.0068
2054.00,0.0070
2053.00,0.0074
2052.00,0.0078
2051.00,0.0078
2050.00,0.0076
2049.00,0.0072
2048.00,0.0070
2047.00,0.0067
2046.00,0.0065
2045.00,0.0064
2044.00,0.0065
2043.00,0.0065
2042.00,0.0065
2041.00,0.0066
2040.00,0.0067
2039.00,0.0067
2038.00,0.0067
2037.00,0.0066
2036.00,0.0066
2035.00,0.0063
2034.00,0.0061
2033.00,0.0061
2032.00,0.0062
2031.00,0.0064
2030.00,0.0065
2029.00,0.0065
2028.00,0.0064
2027.00,0.0062
2026.00,0.0061
2025.00,0.0060
2024.00,0.0060
2023.00,0.0059
2022.00,0.0058
2021.00,0.0059
2020.00,0.0060
2019.00,0.0061
2018.00,0.0061
2017.00,0.0061
2016.00,0.0063
2015.00,0.0064
2014.00,0.0064
2013.00,0.0064
2012.00,0.0064
2011.00,0.0063
2010.00,0.0061
2009.00,0.0058
2008.00,0.0054
2007.00,0.0051
2006.00,0.0049
2005.00,0.0051
2004.00,0.0054
2003.00,0.0057
2002.00,0.0057
2001.00,0.0058
2000.00,0.0059
1999.00,0.0060
1998.00,0.0061
1997.00,0.0062
1996.00,0.0064
1995.00,0.0065
1994.00,0.0065
1993.00,0.0065
1992.00,0.0065
1991.00,0.0064
1990.00,0.0064
1989.00,0.0065
1988.00,0.0068
1987.00,0.0070
1986.00,0.0070
1985.00,0.0070
1984.00,0.0071
1983.00,0.0072
1982.00,0.0073
1981.00,0.0074
1980.00,0.0074
1979.00,0.0070
1978.00,0.0063
1977.00,0.0058
1976.00,0.0055
1975.00,0.0054
1974.00,0.0054
1973.00,0.0054
1972.00,0.0055
1971.00,0.0055
1970.00,0.0054
1969.00,0.0054
1968.00,0.0056
1967.00,0.0057
1966.00,0.0057
1965.00,0.0057
1964.00,0.0058
1963.00,0.0057
1962.00,0.0055
1961.00,0.0053
1960.00,0.0053
1959.00,0.0052
1958.00,0.0052
1957.00,0.0054
1956.00,0.0057
1955.00,0.0059
1954.00,0.0059
1953.00,0.0058
1952.00,0.0058
1951.00,0.0058
1950.00,0.0057
1949.00,0.0057
1948.00,0.0058
1947.00,0.0059
1946.00,0.0061
1945.00,0.0062
1944.00,0.0063
1943.00,0.0062
1942.00,0.0061
1941.00,0.0060
1940.00,0.0060
1939.00,0.0061
1938.00,0.0061
1937.00,0.0063
1936.00,0.0064
1935.00,0.0065
1934.00,0.0064
1933.00,0.0064
1932.00,0.0063
1931.00,0.0063
1930.00,0.0063
1929.00,0.0064
1928.00,0.0065
1927.00,0.0066
1926.00,0.0066
1925.00,0.0065
1924.00,0.0066
1923.00,0.0066
1922.00,0.0066
1921.00,0.0067
1920.00,0.0067
1919.00,0.0067
1918.00,0.0068
1917.00,0.0068
1916.00,0.0068
1915.00,0.0068
1914.00,0.0068
1913.00,0.0068
1912.00,0.0069
1911.00,0.0070
1910.00,0.0070
1909.00,0.0069
1908.00,0.0069
1907.00,0.0069
1906.00,0.0068
1905.00,0.0068
1904.00,0.0068
1903.00,0.0069
1902.00,0.0069
1901.00,0.0069
1900.00,0.0069
1899.00,0.0069
1898.00,0.0068
1897.00,0.0069
1896.00,0.0069
1895.00,0.0070
1894.00,0.0069
1893.00,0.0069
1892.00,0.0069
1891.00,0.0070
1890.00,0.0071
1889.00,0.0071
1888.00,0.0070
1887.00,0.0070
1886.00,0.0069
1885.00,0.0069
1884.00,0.0069
1883.00,0.0069
1882.00,0.0069
1881.00,0.0069
1880.00,0.0070
1879.00,0.0070
1878.00,0.0069
1877.00,0.0069
1876.00,0.0069
1875.00,0.0069
1874.00,0.0069
1873.00,0.0069
1872.00,0.0069
1871.00,0.0068
1870.00,0.0068
1869.00,0.0069
1868.00,0.0070
1867.00,0.0070
1866.00,0.0069
1865.00,0.0069
1864.00,0.0069
1863.00,0.0070
1862.00,0.0070
1861.00,0.0070
1860.00,0.0070
1859.00,0.0071
1858.00,0.0071
1857.00,0.0070
1856.00,0.0071
1855.00,0.0071
1854.00,0.0070
1853.00,0.0070
1852.00,0.0070
1851.00,0.0070
1850.00,0.0070
1849.00,0.0070
1848.00,0.0071
1847.00,0.0071
1846.00,0.0072
1845.00,0.0072
1844.00,0.0073
1843.00,0.0073
1842.00,0.0072
1841.00,0.0071
1840.00,0.0071
1839.00,0.0071
1838.00,0.0071
1837.00,0.0071
1836.00,0.0071
1835.00,0.0071
1834.00,0.0070
1833.00,0.0070
1832.00,0.0071
1831.00,0.0071
1830.00,0.0072
1829.00,0.0071
1828.00,0.0071
1827.00,0.0071
1826.00,0.0071
1825.00,0.0071
1824.00,0.0072
1823.00,0.0071
1822.00,0.0070
1821.00,0.0070
1820.00,0.0069
1819.00,0.0068
1818.00,0.0067
1817.00,0.0067
1816.00,0.0068
1815.00,0.0068
1814.00,0.0069
1813.00,0.0070
1812.00,0.0071
1811.00,0.0071
1810.00,0.0071
1809.00,0.0071
1808.00,0.0071
1807.00,0.0071
1806.00,0.0071
1805.00,0.0071
1804.00,0.0072
1803.00,0.0072
1802.00,0.0072
1801.00,0.0072
1800.00,0.0073
1799.00,0.0073
1798.00,0.0073
1797.00,0.0073
1796.00,0.0074
1795.00,0.0074
1794.00,0.0074
1793.00,0.0075
1792.00,0.0075
1791.00,0.0075
1790.00,0.0074
1789.00,0.0074
1788.00,0.0074
1787.00,0.0074
1786.00,0.0074
1785.00,0.0074
1784.00,0.0074
1783.00,0.0074
1782.00,0.0074
1781.00,0.0074
1780.00,0.0074
1779.00,0.0073
1778.00,0.0071
1777.00,0.0070
1776.00,0.0071
1775.00,0.0071
1774.00,0.0071
1773.00,0.0072
1772.00,0.0072
1771.00,0.0072
1770.00,0.0070
1769.00,0.0069
1768.00,0.0070
1767.00,0.0071
1766.00,0.0071
1765.00,0.0072
1764.00,0.0073
1763.00,0.0075
1762.00,0.0077
1761.00,0.0078
1760.00,0.0079
1759.00,0.0079
1758.00,0.0080
1757.00,0.0081
1756.00,0.0082
1755.00,0.0083
1754.00,0.0083
1753.00,0.0084
1752.00,0.0087
1751.00,0.0089
1750.00,0.0090
1749.00,0.0091
1748.00,0.0092
1747.00,0.0093
1746.00,0.0093
1745.00,0.0094
1744.00,0.0095
1743.00,0.0096
1742.00,0.0096
1741.00,0.0097
1740.00,0.0099
1739.00,0.0100
1738.00,0.0100
1737.00,0.0101
1736.00,0.0104
1735.00,0.0107
1734.00,0.0109
1733.00,0.0112
1732.00,0.0113
1731.00,0.0115
1730.00,0.0116
1729.00,0.0118
1728.00,0.0120
1727.00,0.0122
1726.00,0.0124
1725.00,0.0126
1724.00,0.0130
1723.00,0.0133
1722.00,0.0135
1721.00,0.0137
1720.00,0.0141
1719.00,0.0147
1718.00,0.0152
1717.00,0.0159
1716.00,0.0165
1715.00,0.0171
1714.00,0.0176
1713.00,0.0183
1712.00,0.0193
1711.00,0.0203
1710.00,0.0214
1709.00,0.0226
1708.00,0.0242
1707.00,0.0261
1706.00,0.0282
1705.00,0.0307
1704.00,0.0332
1703.00,0.0355
1702.00,0.0383
1701.00,0.0428
1700.00,0.0489
1699.00,0.0547
1698.00,0.0595
1697.00,0.0652
1696.00,0.0729
1695.00,0.0813
1694.00,0.0887
1693.00,0.0953
1692.00,0.1021
1691.00,0.1096
1690.00,0.1176
1689.00,0.1256
1688.00,0.1328
1687.00,0.1391
1686.00,0.1452
1685.00,0.1530
1684.00,0.1622
1683.00,0.1697
1682.00,0.1742
1681.00,0.1775
1680.00,0.1804
1679.00,0.1830
1678.00,0.1848
1677.00,0.1864
1676.00,0.1884
1675.00,0.1907
1674.00,0.1926
1673.00,0.1938
1672.00,0.1948
1671.00,0.1964
1670.00,0.1990
1669.00,0.2025
1668.00,0.2061
1667.00,0.2091
1666.00,0.2115
1665.00,0.2140
1664.00,0.2172
1663.00,0.2211
1662.00,0.2252
1661.00,0.2285
1660.00,0.2309
1659.00,0.2326
1658.00,0.2336
1657.00,0.2338
1656.00,0.2333
1655.00,0.2323
1654.00,0.2316
1653.00,0.2314
1652.00,0.2300
1651.00,0.2266
1650.00,0.2217
1649.00,0.2158
1648.00,0.2091
1647.00,0.2019
1646.00,0.1942
1645.00,0.1863
1644.00,0.1785
1643.00,0.1705
1642.00,0.1624
1641.00,0.1543
1640.00,0.1466
1639.00,0.1393
1638.00,0.1323
1637.00,0.1254
1636.00,0.1185
1635.00,0.1121
1634.00,0.1066
1633.00,0.1020
1632.00,0.0980
1631.00,0.0945
1630.00,0.0916
1629.00,0.0895
1628.00,0.0886
1627.00,0.0885
1626.00,0.0894
1625.00,0.0913
1624.00,0.0946
1623.00,0.0989
1622.00,0.1032
1621.00,0.1064
1620.00,0.1086
1619.00,0.1099
1618.00,0.1101
1617.00,0.1093
1616.00,0.1074
1615.00,0.1048
1614.00,0.1021
1613.00,0.0997
1612.00,0.0976
1611.00,0.0958
1610.00,0.0940
1609.00,0.0916
1608.00,0.0884
1607.00,0.0846
1606.00,0.0801
1605.00,0.0753
1604.00,0.0704
1603.00,0.0657
1602.00,0.0615
1601.00,0.0578
1600.00,0.0546
1599.00,0.0521
1598.00,0.0503
1597.00,0.0491
1596.00,0.0486
1595.00,0.0491
1594.00,0.0504
1593.00,0.0527
1592.00,0.0560
1591.00,0.0603
1590.00,0.0652
1589.00,0.0704
1588.00,0.0753
1587.00,0.0794
1586.00,0.0821
1585.00,0.0831
1584.00,0.0824
1583.00,0.0803
1582.00,0.0770
1581.00,0.0730
1580.00,0.0690
1579.00,0.0653
1578.00,0.0619
1577.00,0.0586
1576.00,0.0556
1575.00,0.0530
1574.00,0.0509
1573.00,0.0490
1572.00,0.0475
1571.00,0.0460
1570.00,0.0446
1569.00,0.0432
1568.00,0.0419
1567.00,0.0407
1566.00,0.0395
1565.00,0.0385
1564.00,0.0374
1563.00,0.0365
1562.00,0.0357
1561.00,0.0350
1560.00,0.0342
1559.00,0.0337
1558.00,0.0331
1557.00,0.0322
1556.00,0.0315
1555.00,0.0309
1554.00,0.0304
1553.00,0.0300
1552.00,0.0295
1551.00,0.0291
1550.00,0.0288
1549.00,0.0285
1548.00,0.0282
1547.00,0.0279
1546.00,0.0276
1545.00,0.0275
1544.00,0.0274
1543.00,0.0273
1542.00,0.0272
1541.00,0.0273
1540.00,0.0273
1539.00,0.0272
1538.00,0.0268
1537.00,0.0264
1536.00,0.0261
1535.00,0.0260
1534.00,0.0260
1533.00,0.0261
1532.00,0.0261
1531.00,0.0261
1530.00,0.0262
1529.00,0.0264
1528.00,0.0266
1527.00,0.0270
1526.00,0.0274
1525.00,0.0278
1524.00,0.0282
1523.00,0.0288
1522.00,0.0298
1521.00,0.0307
1520.00,0.0314
1519.00,0.0319
1518.00,0.0326
1517.00,0.0333
1516.00,0.0341
1515.00,0.0345
1514.00,0.0348
1513.00,0.0350
1512.00,0.0353
1511.00,0.0354
1510.00,0.0356
1509.00,0.0359
1508.00,0.0365
1507.00,0.0375
1506.00,0.0385
1505.00,0.0394
1504.00,0.0405
1503.00,0.0420
1502.00,0.0441
1501.00,0.0469
1500.00,0.0505
1499.00,0.0545
1498.00,0.0588
1497.00,0.0628
1496.00,0.0658
1495.00,0.0674
1494.00,0.0676
1493.00,0.0668
1492.00,0.0651
1491.00,0.0626
1490.00,0.0597
1489.00,0.0563
1488.00,0.0528
1487.00,0.0493
1486.00,0.0461
1485.00,0.0434
1484.00,0.0411
1483.00,0.0392
1482.00,0.0377
1481.00,0.0367
1480.00,0.0360
1479.00,0.0356
1478.00,0.0356
1477.00,0.0361
1476.00,0.0370
1475.00,0.0383
1474.00,0.0402
1473.00,0.0434
1472.00,0.0475
1471.00,0.0520
1470.00,0.0567
1469.00,0.0619
1468.00,0.0675
1467.00,0.0737
1466.00,0.0807
1465.00,0.0884
1464.00,0.0957
1463.00,0.1015
1462.00,0.1054
1461.00,0.1078
1460.00,0.1087
1459.00,0.1082
1458.00,0.1060
1457.00,0.1021
1456.00,0.0973
1455.00,0.0927
1454.00,0.0889
1453.00,0.0858
1452.00,0.0837
1451.00,0.0826
1450.00,0.0828
1449.00,0.0845
1448.00,0.0874
1447.00,0.0912
1446.00,0.0953
1445.00,0.0996
1444.00,0.1040
1443.00,0.1083
1442.00,0.1125
1441.00,0.1162
1440.00,0.1194
1439.00,0.1222
1438.00,0.1252
1437.00,0.1288
1436.00,0.1327
1435.00,0.1358
1434.00,0.1379
1433.00,0.1397
1432.00,0.1415
1431.00,0.1434
1430.00,0.1456
1429.00,0.1481
1428.00,0.1508
1427.00,0.1538
1426.00,0.1572
1425.00,0.1611
1424.00,0.1651
1423.00,0.1679
1422.00,0.1689
1421.00,0.1679
1420.00,0.1644
1419.00,0.1584
1418.00,0.1508
1417.00,0.1425
1416.00,0.1341
1415.00,0.1261
1414.00,0.1190
1413.00,0.1130
1412.00,0.1082
1411.00,0.1048
1410.00,0.1026
1409.00,0.1015
1408.00,0.1013
1407.00,0.1018
1406.00,0.1030
1405.00,0.1047
1404.00,0.1064
1403.00,0.1075
1402.00,0.1080
1401.00,0.1075
1400.00,0.1057
1399.00,0.1027
1398.00,0.0986
1397.00,0.0939
1396.00,0.0886
1395.00,0.0831
1394.00,0.0779
1393.00,0.0735
1392.00,0.0698
1391.00,0.0669
1390.00,0.0648
1389.00,0.0634
1388.00,0.0627
1387.00,0.0628
1386.00,0.0636
1385.00,0.0649
1384.00,0.0668
1383.00,0.0690
1382.00,0.0715
1381.00,0.0738
1380.00,0.0757
1379.00,0.0769
1378.00,0.0774
1377.00,0.0773
1376.00,0.0766
1375.00,0.0756
1374.00,0.0744
1373.00,0.0731
1372.00,0.0717
1371.00,0.0704
1370.00,0.0692
1369.00,0.0682
1368.00,0.0674
1367.00,0.0670
1366.00,0.0670
1365.00,0.0678
1364.00,0.0693
1363.00,0.0713
1362.00,0.0733
1361.00,0.0745
1360.00,0.0744
1359.00,0.0728
1358.00,0.0701
1357.00,0.0665
1356.00,0.0627
1355.00,0.0591
1354.00,0.0561
1353.00,0.0538
1352.00,0.0520
1351.00,0.0508
1350.00,0.0499
1349.00,0.0493
1348.00,0.0488
1347.00,0.0484
1346.00,0.0482
1345.00,0.0480
1344.00,0.0478
1343.00,0.0477
1342.00,0.0477
1341.00,0.0478
1340.00,0.0481
1339.00,0.0484
1338.00,0.0489
1337.00,0.0495
1336.00,0.0501
1335.00,0.0508
1334.00,0.0517
1333.00,0.0526
1332.00,0.0535
1331.00,0.0544
1330.00,0.0554
1329.00,0.0564
1328.00,0.0575
1327.00,0.0586
1326.00,0.0600
1325.00,0.0615
1324.00,0.0630
1323.00,0.0646
1322.00,0.0661
1321.00,0.0675
1320.00,0.0686
1319.00,0.0693
1318.00,0.0695
1317.00,0.0693
1316.00,0.0686
1315.00,0.0676
1314.00,0.0664
1313.00,0.0652
1312.00,0.0641
1311.00,0.0632
1310.00,0.0627
1309.00,0.0626
1308.00,0.0629
1307.00,0.0636
1306.00,0.0648
1305.00,0.0664
1304.00,0.0682
1303.00,0.0705
1302.00,0.0733
1301.00,0.0769
1300.00,0.0812
1299.00,0.0868
1298.00,0.0936
1297.00,0.1018
1296.00,0.1112
1295.00,0.1215
1294.00,0.1322
1293.00,0.1428
1292.00,0.1529
1291.00,0.1619
1290.00,0.1698
1289.00,0.1764
1288.00,0.1815
1287.00,0.1850
1286.00,0.1868
1285.00,0.1868
1284.00,0.1851
1283.00,0.1819
1282.00,0.1776
1281.00,0.1729
1280.00,0.1683
1279.00,0.1642
1278.00,0.1611
1277.00,0.1590
1276.00,0.1578
1275.00,0.1571
1274.00,0.1568
1273.00,0.1563
1272.00,0.1552
1271.00,0.1531
1270.00,0.1501
1269.00,0.1460
1268.00,0.1409
1267.00,0.1351
1266.00,0.1290
1265.00,0.1227
1264.00,0.1164
1263.00,0.1102
1262.00,0.1044
1261.00,0.0990
1260.00,0.0939
1259.00,0.0891
1258.00,0.0848
1257.00,0.0809
1256.00,0.0773
1255.00,0.0742
1254.00,0.0715
1253.00,0.0693
1252.00,0.0675
1251.00,0.0662
1250.00,0.0655
1249.00,0.0654
1248.00,0.0659
1247.00,0.0671
1246.00,0.0689
1245.00,0.0712
1244.00,0.0738
1243.00,0.0766
1242.00,0.0795
1241.00,0.0821
1240.00,0.0843
1239.00,0.0862
1238.00,0.0878
1237.00,0.0891
1236.00,0.0901
1235.00,0.0909
1234.00,0.0914
1233.00,0.0916
1232.00,0.0915
1231.00,0.0910
1230.00,0.0904
1229.00,0.0897
1228.00,0.0889
1227.00,0.0881
1226.00,0.0874
1225.00,0.0869
1224.00,0.0865
1223.00,0.0864
1222.00,0.0864
1221.00,0.0866
1220.00,0.0867
1219.00,0.0868
1218.00,0.0865
1217.00,0.0857
1216.00,0.0843
1215.00,0.0823
1214.00,0.0797
1213.00,0.0767
1212.00,0.0734
1211.00,0.0701
1210.00,0.0670
1209.00,0.0642
1208.00,0.0618
1207.00,0.0599
1206.00,0.0586
1205.00,0.0578
1204.00,0.0576
1203.00,0.0581
1202.00,0.0592
1201.00,0.0610
1200.00,0.0633
1199.00,0.0660
1198.00,0.0691
1197.00,0.0723
1196.00,0.0754
1195.00,0.0779
1194.00,0.0796
1193.00,0.0800
1192.00,0.0792
1191.00,0.0771
1190.00,0.0741
1189.00,0.0706
1188.00,0.0669
1187.00,0.0633
1186.00,0.0601
1185.00,0.0573
1184.00,0.0549
1183.00,0.0530
1182.00,0.0515
1181.00,0.0504
1180.00,0.0496
1179.00,0.0492
1178.00,0.0490
1177.00,0.0491
1176.00,0.0493
1175.00,0.0496
1174.00,0.0501
1173.00,0.0507
1172.00,0.0512
1171.00,0.0517
1170.00,0.0521
1169.00,0.0524
1168.00,0.0526
1167.00,0.0528
1166.00,0.0533
1165.00,0.0541
1164.00,0.0553
1163.00,0.0572
1162.00,0.0598
1161.00,0.0630
1160.00,0.0666
1159.00,0.0701
1158.00,0.0731
1157.00,0.0753
1156.00,0.0761
1155.00,0.0756
1154.00,0.0739
1153.00,0.0711
1152.00,0.0677
1151.00,0.0638
1150.00,0.0598
1149.00,0.0559
1148.00,0.0521
1147.00,0.0486
1146.00,0.0457
1145.00,0.0433
1144.00,0.0413
1143.00,0.0397
1142.00,0.0387
1141.00,0.0381
1140.00,0.0378
1139.00,0.0382
1138.00,0.0392
1137.00,0.0410
1136.00,0.0438
1135.00,0.0476
1134.00,0.0525
1133.00,0.0581
1132.00,0.0639
1131.00,0.0690
1130.00,0.0726
1129.00,0.0739
1128.00,0.0727
1127.00,0.0693
1126.00,0.0646
1125.00,0.0594
1124.00,0.0545
1123.00,0.0503
1122.00,0.0470
1121.00,0.0444
1120.00,0.0425
1119.00,0.0411
1118.00,0.0403
1117.00,0.0397
1116.00,0.0394
1115.00,0.0394
1114.00,0.0395
1113.00,0.0398
1112.00,0.0401
1111.00,0.0405
1110.00,0.0410
1109.00,0.0415
1108.00,0.0421
1107.00,0.0430
1106.00,0.0442
1105.00,0.0456
1104.00,0.0474
1103.00,0.0493
1102.00,0.0512
1101.00,0.0527
1100.00,0.0534
1099.00,0.0533
1098.00,0.0525
1097.00,0.0510
1096.00,0.0492
1095.00,0.0473
1094.00,0.0454
1093.00,0.0436
1092.00,0.0419
1091.00,0.0405
1090.00,0.0393
1089.00,0.0383
1088.00,0.0376
1087.00,0.0371
1086.00,0.0368
1085.00,0.0368
1084.00,0.0368
1083.00,0.0370
1082.00,0.0374
1081.00,0.0381
1080.00,0.0389
1079.00,0.0399
1078.00,0.0411
1077.00,0.0424
1076.00,0.0437
1075.00,0.0451
1074.00,0.0467
1073.00,0.0484
1072.00,0.0504
1071.00,0.0527
1070.00,0.0556
1069.00,0.0590
1068.00,0.0631
1067.00,0.0679
1066.00,0.0734
1065.00,0.0796
1064.00,0.0863
1063.00,0.0934
1062.00,0.1008
1061.00,0.1080
1060.00,0.1145
1059.00,0.1198
1058.00,0.1234
1057.00,0.1246
1056.00,0.1234
1055.00,0.1198
1054.00,0.1143
1053.00,0.1076
1052.00,0.1003
1051.00,0.0934
1050.00,0.0872
1049.00,0.0822
1048.00,0.0784
1047.00,0.0759
1046.00,0.0746
1045.00,0.0741
1044.00,0.0743
1043.00,0.0750
1042.00,0.0761
1041.00,0.0774
1040.00,0.0787
1039.00,0.0800
1038.00,0.0811
1037.00,0.0822
1036.00,0.0831
1035.00,0.0840
1034.00,0.0851
1033.00,0.0863
1032.00,0.0873
1031.00,0.0880
1030.00,0.0878
1029.00,0.0866
1028.00,0.0842
1027.00,0.0810
1026.00,0.0774
1025.00,0.0738
1024.00,0.0706
1023.00,0.0678
1022.00,0.0656
1021.00,0.0638
1020.00,0.0624
1019.00,0.0612
1018.00,0.0600
1017.00,0.0588
1016.00,0.0572
1015.00,0.0554
1014.00,0.0534
1013.00,0.0513
1012.00,0.0494
1011.00,0.0479
1010.00,0.0470
1009.00,0.0467
1008.00,0.0472
1007.00,0.0483
1006.00,0.0500
1005.00,0.0518
1004.00,0.0534
1003.00,0.0544
1002.00,0.0547
1001.00,0.0542
1000.00,0.0531
999.00,0.0518
998.00,0.0503
997.00,0.0490
996.00,0.0476
995.00,0.0464
994.00,0.0453
993.00,0.0443
992.00,0.0432
991.00,0.0422
990.00,0.0411
989.00,0.0400
988.00,0.0387
987.00,0.0375
986.00,0.0363
985.00,0.0353
984.00,0.0344
983.00,0.0338
982.00,0.0334
981.00,0.0332
980.00,0.0330
979.00,0.0331
978.00,0.0332
977.00,0.0333
976.00,0.0332
975.00,0.0331
974.00,0.0329
973.00,0.0325
972.00,0.0320
971.00,0.0314
970.00,0.0309
969.00,0.0303
968.00,0.0298
967.00,0.0294
966.00,0.0290
965.00,0.0286
964.00,0.0282
963.00,0.0279
962.00,0.0275
961.00,0.0272
960.00,0.0268
959.00,0.0264
958.00,0.0260
957.00,0.0257
956.00,0.0253
955.00,0.0250
954.00,0.0247
953.00,0.0246
952.00,0.0244
951.00,0.0243
950.00,0.0243
949.00,0.0243
948.00,0.0244
947.00,0.0245
946.00,0.0247
945.00,0.0249
944.00,0.0253
943.00,0.0258
942.00,0.0266
941.00,0.0276
940.00,0.0288
939.00,0.0303
938.00,0.0320
937.00,0.0338
936.00,0.0356
935.00,0.0372
934.00,0.0385
933.00,0.0392
932.00,0.0392
931.00,0.0389
930.00,0.0384
929.00,0.0380
928.00,0.0377
927.00,0.0376
926.00,0.0377
925.00,0.0376
924.00,0.0374
923.00,0.0369
922.00,0.0364
921.00,0.0358
920.00,0.0351
919.00,0.0343
918.00,0.0335
917.00,0.0328
916.00,0.0319
915.00,0.0312
914.00,0.0305
913.00,0.0300
912.00,0.0296
911.00,0.0294
910.00,0.0294
909.00,0.0296
908.00,0.0300
907.00,0.0305
906.00,0.0314
905.00,0.0325
904.00,0.0338
903.00,0.0353
902.00,0.0370
901.00,0.0387
900.00,0.0404
899.00,0.0418
898.00,0.0430
897.00,0.0437
896.00,0.0438
895.00,0.0435
894.00,0.0427
893.00,0.0416
892.00,0.0402
891.00,0.0388
890.00,0.0377
889.00,0.0367
888.00,0.0360
887.00,0.0357
886.00,0.0357
885.00,0.0359
884.00,0.0363
883.00,0.0369
882.00,0.0379
881.00,0.0391
880.00,0.0404
879.00,0.0421
878.00,0.0440
877.00,0.0461
876.00,0.0483
875.00,0.0505
874.00,0.0527
873.00,0.0546
872.00,0.0561
871.00,0.0573
870.00,0.0580
869.00,0.0584
868.00,0.0583
867.00,0.0580
866.00,0.0578
865.00,0.0576
864.00,0.0574
863.00,0.0573
862.00,0.0573
861.00,0.0573
860.00,0.0573
859.00,0.0575
858.00,0.0580
857.00,0.0586
856.00,0.0595
855.00,0.0605
854.00,0.0617
853.00,0.0630
852.00,0.0643
851.00,0.0656
850.00,0.0668
849.00,0.0679
848.00,0.0688
847.00,0.0696
846.00,0.0704
845.00,0.0709
844.00,0.0712
843.00,0.0714
842.00,0.0714
841.00,0.0714
840.00,0.0713
839.00,0.0712
838.00,0.0712
837.00,0.0712
836.00,0.0712
835.00,0.0713
834.00,0.0716
833.00,0.0718
832.00,0.0719
831.00,0.0719
830.00,0.0719
829.00,0.0718
828.00,0.0715
827.00,0.0712
826.00,0.0710
825.00,0.0710
824.00,0.0712
823.00,0.0717
822.00,0.0725
821.00,0.0735
820.00,0.0747
819.00,0.0758
818.00,0.0770
817.00,0.0781
816.00,0.0790
815.00,0.0797
814.00,0.0801
813.00,0.0800
812.00,0.0790
811.00,0.0771
810.00,0.0742
809.00,0.0704
808.00,0.0659
807.00,0.0612
806.00,0.0568
805.00,0.0529
804.00,0.0496
803.00,0.0471
802.00,0.0452
801.00,0.0439
800.00,0.0430
799.00,0.0423
798.00,0.0419
797.00,0.0417
796.00,0.0416
795.00,0.0417
794.00,0.0418
793.00,0.0420
792.00,0.0420
791.00,0.0421
790.00,0.0422
789.00,0.0423
788.00,0.0423
787.00,0.0422
786.00,0.0422
785.00,0.0423
784.00,0.0424
783.00,0.0427
782.00,0.0431
781.00,0.0438
780.00,0.0445
779.00,0.0453
778.00,0.0461
777.00,0.0466
776.00,0.0465
775.00,0.0459
774.00,0.0451
773.00,0.0443
772.00,0.0438
771.00,0.0436
770.00,0.0438
769.00,0.0441
768.00,0.0445
767.00,0.0448
766.00,0.0453
765.00,0.0459
764.00,0.0465
763.00,0.0472
762.00,0.0481
761.00,0.0489
760.00,0.0498
759.00,0.0507
758.00,0.0518
757.00,0.0528
756.00,0.0537
755.00,0.0546
754.00,0.0555
753.00,0.0565
752.00,0.0574
751.00,0.0583
750.00,0.0593
749.00,0.0603
748.00,0.0613
747.00,0.0624
746.00,0.0635
745.00,0.0648
744.00,0.0663
743.00,0.0680
742.00,0.0702
741.00,0.0727
740.00,0.0755
739.00,0.0783
738.00,0.0808
737.00,0.0825
736.00,0.0830
735.00,0.0823
734.00,0.0807
733.00,0.0785
732.00,0.0759
731.00,0.0733
730.00,0.0709
729.00,0.0687
728.00,0.0665
727.00,0.0645
726.00,0.0628
725.00,0.0612
724.00,0.0597
723.00,0.0584
722.00,0.0573
721.00,0.0563
720.00,0.0556
719.00,0.0550
718.00,0.0548
717.00,0.0546
716.00,0.0545
715.00,0.0545
714.00,0.0544
713.00,0.0543
712.00,0.0540
711.00,0.0535
710.00,0.0530
709.00,0.0525
708.00,0.0520
707.00,0.0517
706.00,0.0517
705.00,0.0517
704.00,0.0518
703.00,0.0518
702.00,0.0519
701.00,0.0520
700.00,0.0523
699.00,0.0528
698.00,0.0538
697.00,0.0551
696.00,0.0567
695.00,0.0585
694.00,0.0604
693.00,0.0622
692.00,0.0637
691.00,0.0650
690.00,0.0660
689.00,0.0665
688.00,0.0667
687.00,0.0664
686.00,0.0660
685.00,0.0653
684.00,0.0646
683.00,0.0638
682.00,0.0633
681.00,0.0630
680.00,0.0628
679.00,0.0628
678.00,0.0631
677.00,0.0635
676.00,0.0639
675.00,0.0646
674.00,0.0654
673.00,0.0664
672.00,0.0674
671.00,0.0684
670.00,0.0696
669.00,0.0713
668.00,0.0734
667.00,0.0753
666.00,0.0765
665.00,0.0773
664.00,0.0783
663.00,0.0796
662.00,0.0812
661.00,0.0830
660.00,0.0847
659.00,0.0866
658.00,0.0886
657.00,0.0905
656.00,0.0922
655.00,0.0938
654.00,0.0954
653.00,0.0968
652.00,0.0980
651.00,0.0990
650.00,0.0998
649.00,0.1002
648.00,0.1002
647.00,0.0997
646.00,0.0990
645.00,0.0978
644.00,0.0964
643.00,0.0946
642.00,0.0928
641.00,0.0909
640.00,0.0889
639.00,0.0870
638.00,0.0853
637.00,0.0835
636.00,0.0818
635.00,0.0803
634.00,0.0790
633.00,0.0779
632.00,0.0768
631.00,0.0760
630.00,0.0754
629.00,0.0750
628.00,0.0746
627.00,0.0743
626.00,0.0743
625.00,0.0742
624.00,0.0740
623.00,0.0738
622.00,0.0735
621.00,0.0731
620.00,0.0725
619.00,0.0718
618.00,0.0713
617.00,0.0709
616.00,0.0703
615.00,0.0698
614.00,0.0695
613.00,0.0694
612.00,0.0694
611.00,0.0696
610.00,0.0701
609.00,0.0706
608.00,0.0711
607.00,0.0716
606.00,0.0723
605.00,0.0729
604.00,0.0733
603.00,0.0738
602.00,0.0743
601.00,0.0747
600.00,0.0750
599.00,0.0752
598.00,0.0754
597.00,0.0753
596.00,0.0748
595.00,0.0743
594.00,0.0740
593.00,0.0738
592.00,0.0738
591.00,0.0743
590.00,0.0755
589.00,0.0773
588.00,0.0798
587.00,0.0832
586.00,0.0873
585.00,0.0917
584.00,0.0958
583.00,0.0991
582.00,0.1018
581.00,0.1035
580.00,0.1042
579.00,0.1042
578.00,0.1038
577.00,0.1032
576.00,0.1024
575.00,0.1017
574.00,0.1011
573.00,0.1006
572.00,0.0999
571.00,0.0993
570.00,0.0990
569.00,0.0986
568.00,0.0982
567.00,0.0977
566.00,0.0971
565.00,0.0963
564.00,0.0951
563.00,0.0937
562.00,0.0923
561.00,0.0909
560.00,0.0895
559.00,0.0884
558.00,0.0878
557.00,0.0873
556.00,0.0864
555.00,0.0852
554.00,0.0840
553.00,0.0827
552.00,0.0816
551.00,0.0808
550.00,0.0804
549.00,0.0799
548.00,0.0789
547.00,0.0777
546.00,0.0765
545.00,0.0752
544.00,0.0739
543.00,0.0729
542.00,0.0724
541.00,0.0720
540.00,0.0716
539.00,0.0716
538.00,0.0722
537.00,0.0732
536.00,0.0744
535.00,0.0759
534.00,0.0777
533.00,0.0792
532.00,0.0802
531.00,0.0806
530.00,0.0805
529.00,0.0799
528.00,0.0785
527.00,0.0768
526.00,0.0749
525.00,0.0730
524.00,0.0711
523.00,0.0696
522.00,0.0687
521.00,0.0678
520.00,0.0669
519.00,0.0662
518.00,0.0658
517.00,0.0654
516.00,0.0648
515.00,0.0644
514.00,0.0643
513.00,0.0644
512.00,0.0646
511.00,0.0650
510.00,0.0659
509.00,0.0669
508.00,0.0674
507.00,0.0675
506.00,0.0675
505.00,0.0670
504.00,0.0661
503.00,0.0652
502.00,0.0647
501.00,0.0643
500.00,0.0638
499.00,0.0634
498.00,0.0633
497.00,0.0631
496.00,0.0629
495.00,0.0628
494.00,0.0631
493.00,0.0636
492.00,0.0638
491.00,0.0641
490.00,0.0647
489.00,0.0653
488.00,0.0655
487.00,0.0657
486.00,0.0661
485.00,0.0663
484.00,0.0662
483.00,0.0660
482.00,0.0660
481.00,0.0659
480.00,0.0654
479.00,0.0650
478.00,0.0650
477.00,0.0651
476.00,0.0650
475.00,0.0650
474.00,0.0654
473.00,0.0656
472.00,0.0655
471.00,0.0653
470.00,0.0655
469.00,0.0654
468.00,0.0646
467.00,0.0638
466.00,0.0636
465.00,0.0637
464.00,0.0635
463.00,0.0635
462.00,0.0639
461.00,0.0640
460.00,0.0633
459.00,0.0626
458.00,0.0625
457.00,0.0624
456.00,0.0618
455.00,0.0611
454.00,0.0609
453.00,0.0607
452.00,0.0602
451.00,0.0599
450.00,0.0601
449.00,0.0601
448.00,0.0595
447.00,0.0590
446.00,0.0591
445.00,0.0592
444.00,0.0588
443.00,0.0584
442.00,0.0585
441.00,0.0584
440.00,0.0577
439.00,0.0571
438.00,0.0570
437.00,0.0570
436.00,0.0567
435.00,0.0567
434.00,0.0571
433.00,0.0573
432.00,0.0567
431.00,0.0561
430.00,0.0561
429.00,0.0561
428.00,0.0558
427.00,0.0555
426.00,0.0559
425.00,0.0560
424.00,0.0557
423.00,0.0556
422.00,0.0563
421.00,0.0564
420.00,0.0554
419.00,0.0548
418.00,0.0561
417.00,0.0579
416.00,0.0589
415.00,0.0601
414.00,0.0620
413.00,0.0634
412.00,0.0634
411.00,0.0633
410.00,0.0640
409.00,0.0641
408.00,0.0625
407.00,0.0608
406.00,0.0604
405.00,0.0603
404.00,0.0590
403.00,0.0582
402.00,0.0591
401.00,0.0598
400.00,0.0581
