Created as New Dataset,Sample 231 By YargerLab Date Sunday, October 05 2025
cm-1,A
4000.00,0.0053
3999.00,0.0053
3998.00,0.0053
3997.00,0.0052
3996.00,0.0053
3995.00,0.0053
3994.00,0.0053
3993.00,0.0053
3992.00,0.0053
3991.00,0.0053
3990.00,0.0052
3989.00,0.0052
3988.00,0.0052
3987.00,0.0052
3986.00,0.0052
3985.00,0.0052
3984.00,0.0052
3983.00,0.0052
3982.00,0.0052
3981.00,0.0052
3980.00,0.0052
3979.00,0.0053
3978.00,0.0053
3977.00,0.0053
3976.00,0.0053
3975.00,0.0053
3974.00,0.0052
3973.00,0.0052
3972.00,0.0052
3971.00,0.0052
3970.00,0.0052
3969.00,0.0052
3968.00,0.0052
3967.00,0.0052
3966.00,0.0052
3965.00,0.0052
3964.00,0.0052
3963.00,0.0052
3962.00,0.0052
3961.00,0.0052
3960.00,0.0052
3959.00,0.0052
3958.00,0.0052
3957.00,0.0052
3956.00,0.0052
3955.00,0.0052
3954.00,0.0052
3953.00,0.0052
3952.00,0.0051
3951.00,0.0051
3950.00,0.0051
3949.00,0.0051
3948.00,0.0051
3947.00,0.0051
3946.00,0.0051
3945.00,0.0051
3944.00,0.0051
3943.00,0.0051
3942.00,0.0051
3941.00,0.0051
3940.00,0.0051
3939.00,0.0051
3938.00,0.0051
3937.00,0.0051
3936.00,0.0051
3935.00,0.0051
3934.00,0.0051
3933.00,0.0051
3932.00,0.0051
3931.00,0.0051
3930.00,0.0051
3929.00,0.0051
3928.00,0.0051
3927.00,0.0051
3926.00,0.0051
3925.00,0.0051
3924.00,0.0051
3923.00,0.0051
3922.00,0.0051
3921.00,0.0051
3920.00,0.0051
3919.00,0.0051
3918.00,0.0051
3917.00,0.0051
3916.00,0.0051
3915.00,0.0051
3914.00,0.0051
3913.00,0.0051
3912.00,0.0051
3911.00,0.0051
3910.00,0.0051
3909.00,0.0051
3908.00,0.0051
3907.00,0.0051
3906.00,0.0051
3905.00,0.0051
3904.00,0.0051
3903.00,0.0050
3902.00,0.0050
3901.00,0.0050
3900.00,0.0050
3899.00,0.0051
3898.00,0.0051
3897.00,0.0051
3896.00,0.0051
3895.00,0.0051
3894.00,0.0051
3893.00,0.0051
3892.00,0.0051
3891.00,0.0051
3890.00,0.0051
3889.00,0.0051
3888.00,0.0051
3887.00,0.0051
3886.00,0.0051
3885.00,0.0051
3884.00,0.0051
3883.00,0.0050
3882.00,0.0050
3881.00,0.0050
3880.00,0.0050
3879.00,0.0050
3878.00,0.0051
3877.00,0.0051
3876.00,0.0051
3875.00,0.0051
3874.00,0.0050
3873.00,0.0050
3872.00,0.0050
3871.00,0.0050
3870.00,0.0050
3869.00,0.0050
3868.00,0.0050
3867.00,0.0050
3866.00,0.0050
3865.00,0.0050
3864.00,0.0050
3863.00,0.0050
3862.00,0.0050
3861.00,0.0050
3860.00,0.0050
3859.00,0.0050
3858.00,0.0051
3857.00,0.0051
3856.00,0.0051
3855.00,0.0051
3854.00,0.0051
3853.00,0.0050
3852.00,0.0050
3851.00,0.0050
3850.00,0.0050
3849.00,0.0050
3848.00,0.0050
3847.00,0.0050
3846.00,0.0050
3845.00,0.0050
3844.00,0.0050
3843.00,0.0050
3842.00,0.0049
3841.00,0.0049
3840.00,0.0049
3839.00,0.0050
3838.00,0.0050
3837.00,0.0050
3836.00,0.0050
3835.00,0.0050
3834.00,0.0050
3833.00,0.0050
3832.00,0.0050
3831.00,0.0050
3830.00,0.0050
3829.00,0.0050
3828.00,0.0050
3827.00,0.0050
3826.00,0.0050
3825.00,0.0050
3824.00,0.0050
3823.00,0.0050
3822.00,0.0050
3821.00,0.0050
3820.00,0.0050
3819.00,0.0050
3818.00,0.0050
3817.00,0.0049
3816.00,0.0049
3815.00,0.0050
3814.00,0.0050
3813.00,0.0051
3812.00,0.0051
3811.00,0.0051
3810.00,0.0050
3809.00,0.0050
3808.00,0.0050
3807.00,0.0050
3806.00,0.0050
3805.00,0.0050
3804.00,0.0050
3803.00,0.0050
3802.00,0.0050
3801.00,0.0050
3800.00,0.0050
3799.00,0.0050
3798.00,0.0049
3797.00,0.0049
3796.00,0.0049
3795.00,0.0050
3794.00,0.0050
3793.00,0.0050
3792.00,0.0050
3791.00,0.0050
3790.00,0.0050
3789.00,0.0050
3788.00,0.0050
3787.00,0.0050
3786.00,0.0050
3785.00,0.0050
3784.00,0.0050
3783.00,0.0050
3782.00,0.0050
3781.00,0.0050
3780.00,0.0050
3779.00,0.0050
3778.00,0.0050
3777.00,0.0051
3776.00,0.0051
3775.00,0.0051
3774.00,0.0050
3773.00,0.0050
3772.00,0.0050
3771.00,0.0050
3770.00,0.0050
3769.00,0.0050
3768.00,0.0050
3767.00,0.0050
3766.00,0.0050
3765.00,0.0050
3764.00,0.0050
3763.00,0.0050
3762.00,0.0050
3761.00,0.0050
3760.00,0.0050
3759.00,0.0050
3758.00,0.0050
3757.00,0.0050
3756.00,0.0050
3755.00,0.0050
3754.00,0.0050
3753.00,0.0050
3752.00,0.0050
3751.00,0.0050
3750.00,0.0050
3749.00,0.0050
3748.00,0.0050
3747.00,0.0050
3746.00,0.0050
3745.00,0.0050
3744.00,0.0050
3743.00,0.0049
3742.00,0.0049
3741.00,0.0049
3740.00,0.0048
3739.00,0.0048
3738.00,0.0048
3737.00,0.0048
3736.00,0.0048
3735.00,0.0048
3734.00,0.0048
3733.00,0.0048
3732.00,0.0049
3731.00,0.0049
3730.00,0.0049
3729.00,0.0049
3728.00,0.0049
3727.00,0.0049
3726.00,0.0049
3725.00,0.0049
3724.00,0.0049
3723.00,0.0049
3722.00,0.0049
3721.00,0.0049
3720.00,0.0049
3719.00,0.0049
3718.00,0.0049
3717.00,0.0049
3716.00,0.0048
3715.00,0.0048
3714.00,0.0048
3713.00,0.0048
3712.00,0.0048
3711.00,0.0048
3710.00,0.0048
3709.00,0.0048
3708.00,0.0048
3707.00,0.0048
3706.00,0.0048
3705.00,0.0048
3704.00,0.0048
3703.00,0.0049
3702.00,0.0049
3701.00,0.0049
3700.00,0.0049
3699.00,0.0049
3698.00,0.0049
3697.00,0.0048
3696.00,0.0048
3695.00,0.0048
3694.00,0.0048
3693.00,0.0048
3692.00,0.0048
3691.00,0.0048
3690.00,0.0049
3689.00,0.0049
3688.00,0.0050
3687.00,0.0050
3686.00,0.0051
3685.00,0.0051
3684.00,0.0051
3683.00,0.0051
3682.00,0.0051
3681.00,0.0051
3680.00,0.0051
3679.00,0.0051
3678.00,0.0050
3677.00,0.0050
3676.00,0.0050
3675.00,0.0050
3674.00,0.0050
3673.00,0.0050
3672.00,0.0051
3671.00,0.0051
3670.00,0.0051
3669.00,0.0052
3668.00,0.0052
3667.00,0.0052
3666.00,0.0052
3665.00,0.0052
3664.00,0.0052
3663.00,0.0053
3662.00,0.0053
3661.00,0.0053
3660.00,0.0053
3659.00,0.0053
3658.00,0.0053
3657.00,0.0053
3656.00,0.0053
3655.00,0.0053
3654.00,0.0053
3653.00,0.0053
3652.00,0.0054
3651.00,0.0054
3650.00,0.0055
3649.00,0.0055
3648.00,0.0056
3647.00,0.0056
3646.00,0.0057
3645.00,0.0057
3644.00,0.0057
3643.00,0.0058
3642.00,0.0058
3641.00,0.0059
3640.00,0.0059
3639.00,0.0059
3638.00,0.0059
3637.00,0.0059
3636.00,0.0059
3635.00,0.0060
3634.00,0.0060
3633.00,0.0060
3632.00,0.0060
3631.00,0.0061
3630.00,0.0061
3629.00,0.0062
3628.00,0.0063
3627.00,0.0063
3626.00,0.0063
3625.00,0.0064
3624.00,0.0064
3623.00,0.0064
3622.00,0.0064
3621.00,0.0064
3620.00,0.0065
3619.00,0.0065
3618.00,0.0066
3617.00,0.0066
3616.00,0.0067
3615.00,0.0067
3614.00,0.0068
3613.00,0.0068
3612.00,0.0069
3611.00,0.0070
3610.00,0.0070
3609.00,0.0071
3608.00,0.0072
3607.00,0.0072
3606.00,0.0073
3605.00,0.0073
3604.00,0.0074
3603.00,0.0074
3602.00,0.0074
3601.00,0.0074
3600.00,0.0074
3599.00,0.0075
3598.00,0.0075
3597.00,0.0076
3596.00,0.0077
3595.00,0.0078
3594.00,0.0078
3593.00,0.0079
3592.00,0.0079
3591.00,0.0079
3590.00,0.0079
3589.00,0.0080
3588.00,0.0080
3587.00,0.0081
3586.00,0.0082
3585.00,0.0083
3584.00,0.0083
3583.00,0.0084
3582.00,0.0084
3581.00,0.0085
3580.00,0.0086
3579.00,0.0087
3578.00,0.0088
3577.00,0.0088
3576.00,0.0089
3575.00,0.0089
3574.00,0.0090
3573.00,0.0090
3572.00,0.0091
3571.00,0.0092
3570.00,0.0092
3569.00,0.0093
3568.00,0.0093
3567.00,0.0094
3566.00,0.0095
3565.00,0.0096
3564.00,0.0097
3563.00,0.0098
3562.00,0.0099
3561.00,0.0100
3560.00,0.0100
3559.00,0.0101
3558.00,0.0101
3557.00,0.0102
3556.00,0.0102
3555.00,0.0102
3554.00,0.0103
3553.00,0.0104
3552.00,0.0105
3551.00,0.0105
3550.00,0.0106
3549.00,0.0107
3548.00,0.0107
3547.00,0.0108
3546.00,0.0109
3545.00,0.0109
3544.00,0.0110
3543.00,0.0111
3542.00,0.0111
3541.00,0.0112
3540.00,0.0113
3539.00,0.0113
3538.00,0.0114
3537.00,0.0115
3536.00,0.0115
3535.00,0.0116
3534.00,0.0117
3533.00,0.0117
3532.00,0.0118
3531.00,0.0119
3530.00,0.0119
3529.00,0.0120
3528.00,0.0121
3527.00,0.0121
3526.00,0.0122
3525.00,0.0123
3524.00,0.0123
3523.00,0.0124
3522.00,0.0125
3521.00,0.0125
3520.00,0.0126
3519.00,0.0126
3518.00,0.0127
3517.00,0.0128
3516.00,0.0129
3515.00,0.0129
3514.00,0.0130
3513.00,0.0131
3512.00,0.0131
3511.00,0.0132
3510.00,0.0133
3509.00,0.0134
3508.00,0.0134
3507.00,0.0135
3506.00,0.0135
3505.00,0.0136
3504.00,0.0136
3503.00,0.0137
3502.00,0.0138
3501.00,0.0139
3500.00,0.0140
3499.00,0.0140
3498.00,0.0141
3497.00,0.0142
3496.00,0.0143
3495.00,0.0144
3494.00,0.0144
3493.00,0.0145
3492.00,0.0145
3491.00,0.0146
3490.00,0.0146
3489.00,0.0147
3488.00,0.0148
3487.00,0.0149
3486.00,0.0150
3485.00,0.0150
3484.00,0.0151
3483.00,0.0152
3482.00,0.0152
3481.00,0.0153
3480.00,0.0154
3479.00,0.0155
3478.00,0.0155
3477.00,0.0156
3476.00,0.0157
3475.00,0.0157
3474.00,0.0158
3473.00,0.0159
3472.00,0.0159
3471.00,0.0160
3470.00,0.0161
3469.00,0.0162
3468.00,0.0162
3467.00,0.0163
3466.00,0.0163
3465.00,0.0164
3464.00,0.0164
3463.00,0.0165
3462.00,0.0165
3461.00,0.0165
3460.00,0.0166
3459.00,0.0167
3458.00,0.0167
3457.00,0.0168
3456.00,0.0168
3455.00,0.0169
3454.00,0.0169
3453.00,0.0170
3452.00,0.0170
3451.00,0.0171
3450.00,0.0171
3449.00,0.0172
3448.00,0.0173
3447.00,0.0174
3446.00,0.0174
3445.00,0.0175
3444.00,0.0175
3443.00,0.0176
3442.00,0.0176
3441.00,0.0177
3440.00,0.0178
3439.00,0.0178
3438.00,0.0179
3437.00,0.0179
3436.00,0.0180
3435.00,0.0180
3434.00,0.0181
3433.00,0.0181
3432.00,0.0182
3431.00,0.0183
3430.00,0.0183
3429.00,0.0183
3428.00,0.0183
3427.00,0.0184
3426.00,0.0184
3425.00,0.0185
3424.00,0.0186
3423.00,0.0186
3422.00,0.0187
3421.00,0.0188
3420.00,0.0188
3419.00,0.0189
3418.00,0.0189
3417.00,0.0190
3416.00,0.0190
3415.00,0.0191
3414.00,0.0191
3413.00,0.0192
3412.00,0.0192
3411.00,0.0193
3410.00,0.0194
3409.00,0.0194
3408.00,0.0195
3407.00,0.0196
3406.00,0.0196
3405.00,0.0197
3404.00,0.0197
3403.00,0.0197
3402.00,0.0198
3401.00,0.0198
3400.00,0.0198
3399.00,0.0199
3398.00,0.0200
3397.00,0.0201
3396.00,0.0201
3395.00,0.0201
3394.00,0.0202
3393.00,0.0202
3392.00,0.0203
3391.00,0.0204
3390.00,0.0205
3389.00,0.0206
3388.00,0.0207
3387.00,0.0208
3386.00,0.0208
3385.00,0.0209
3384.00,0.0210
3383.00,0.0210
3382.00,0.0211
3381.00,0.0212
3380.00,0.0212
3379.00,0.0213
3378.00,0.0213
3377.00,0.0214
3376.00,0.0214
3375.00,0.0215
3374.00,0.0215
3373.00,0.0215
3372.00,0.0215
3371.00,0.0214
3370.00,0.0214
3369.00,0.0215
3368.00,0.0216
3367.00,0.0218
3366.00,0.0219
3365.00,0.0221
3364.00,0.0222
3363.00,0.0223
3362.00,0.0223
3361.00,0.0223
3360.00,0.0224
3359.00,0.0225
3358.00,0.0226
3357.00,0.0227
3356.00,0.0228
3355.00,0.0228
3354.00,0.0228
3353.00,0.0228
3352.00,0.0227
3351.00,0.0227
3350.00,0.0229
3349.00,0.0230
3348.00,0.0231
3347.00,0.0232
3346.00,0.0233
3345.00,0.0233
3344.00,0.0233
3343.00,0.0233
3342.00,0.0233
3341.00,0.0233
3340.00,0.0233
3339.00,0.0234
3338.00,0.0234
3337.00,0.0236
3336.00,0.0237
3335.00,0.0238
3334.00,0.0239
3333.00,0.0240
3332.00,0.0241
3331.00,0.0242
3330.00,0.0242
3329.00,0.0242
3328.00,0.0242
3327.00,0.0242
3326.00,0.0243
3325.00,0.0243
3324.00,0.0245
3323.00,0.0246
3322.00,0.0247
3321.00,0.0248
3320.00,0.0249
3319.00,0.0250
3318.00,0.0250
3317.00,0.0251
3316.00,0.0251
3315.00,0.0252
3314.00,0.0252
3313.00,0.0252
3312.00,0.0252
3311.00,0.0251
3310.00,0.0250
3309.00,0.0250
3308.00,0.0249
3307.00,0.0249
3306.00,0.0250
3305.00,0.0252
3304.00,0.0254
3303.00,0.0256
3302.00,0.0258
3301.00,0.0259
3300.00,0.0260
3299.00,0.0260
3298.00,0.0259
3297.00,0.0259
3296.00,0.0259
3295.00,0.0259
3294.00,0.0259
3293.00,0.0260
3292.00,0.0261
3291.00,0.0262
3290.00,0.0263
3289.00,0.0264
3288.00,0.0265
3287.00,0.0265
3286.00,0.0266
3285.00,0.0266
3284.00,0.0267
3283.00,0.0267
3282.00,0.0267
3281.00,0.0268
3280.00,0.0268
3279.00,0.0268
3278.00,0.0268
3277.00,0.0268
3276.00,0.0268
3275.00,0.0267
3274.00,0.0267
3273.00,0.0267
3272.00,0.0267
3271.00,0.0267
3270.00,0.0267
3269.00,0.0268
3268.00,0.0269
3267.00,0.0270
3266.00,0.0270
3265.00,0.0271
3264.00,0.0271
3263.00,0.0271
3262.00,0.0271
3261.00,0.0271
3260.00,0.0271
3259.00,0.0272
3258.00,0.0272
3257.00,0.0272
3256.00,0.0272
3255.00,0.0273
3254.00,0.0273
3253.00,0.0274
3252.00,0.0274
3251.00,0.0274
3250.00,0.0274
3249.00,0.0274
3248.00,0.0274
3247.00,0.0274
3246.00,0.0274
3245.00,0.0275
3244.00,0.0275
3243.00,0.0276
3242.00,0.0276
3241.00,0.0276
3240.00,0.0276
3239.00,0.0276
3238.00,0.0276
3237.00,0.0275
3236.00,0.0275
3235.00,0.0274
3234.00,0.0274
3233.00,0.0275
3232.00,0.0276
3231.00,0.0276
3230.00,0.0277
3229.00,0.0277
3228.00,0.0277
3227.00,0.0277
3226.00,0.0276
3225.00,0.0276
3224.00,0.0276
3223.00,0.0276
3222.00,0.0276
3221.00,0.0276
3220.00,0.0276
3219.00,0.0276
3218.00,0.0276
3217.00,0.0276
3216.00,0.0276
3215.00,0.0276
3214.00,0.0275
3213.00,0.0275
3212.00,0.0275
3211.00,0.0275
3210.00,0.0275
3209.00,0.0274
3208.00,0.0274
3207.00,0.0274
3206.00,0.0273
3205.00,0.0273
3204.00,0.0273
3203.00,0.0273
3202.00,0.0273
3201.00,0.0273
3200.00,0.0273
3199.00,0.0273
3198.00,0.0272
3197.00,0.0272
3196.00,0.0272
3195.00,0.0272
3194.00,0.0272
3193.00,0.0272
3192.00,0.0272
3191.00,0.0272
3190.00,0.0272
3189.00,0.0271
3188.00,0.0271
3187.00,0.0271
3186.00,0.0271
3185.00,0.0271
3184.00,0.0271
3183.00,0.0270
3182.00,0.0270
3181.00,0.0270
3180.00,0.0270
3179.00,0.0270
3178.00,0.0270
3177.00,0.0270
3176.00,0.0270
3175.00,0.0270
3174.00,0.0270
3173.00,0.0269
3172.00,0.0269
3171.00,0.0268
3170.00,0.0268
3169.00,0.0268
3168.00,0.0267
3167.00,0.0267
3166.00,0.0266
3165.00,0.0265
3164.00,0.0265
3163.00,0.0264
3162.00,0.0264
3161.00,0.0264
3160.00,0.0263
3159.00,0.0263
3158.00,0.0262
3157.00,0.0262
3156.00,0.0261
3155.00,0.0260
3154.00,0.0260
3153.00,0.0259
3152.00,0.0259
3151.00,0.0259
3150.00,0.0258
3149.00,0.0258
3148.00,0.0258
3147.00,0.0257
3146.00,0.0256
3145.00,0.0256
3144.00,0.0255
3143.00,0.0254
3142.00,0.0254
3141.00,0.0253
3140.00,0.0252
3139.00,0.0252
3138.00,0.0252
3137.00,0.0251
3136.00,0.0251
3135.00,0.0251
3134.00,0.0250
3133.00,0.0250
3132.00,0.0250
3131.00,0.0249
3130.00,0.0249
3129.00,0.0249
3128.00,0.0249
3127.00,0.0248
3126.00,0.0248
3125.00,0.0248
3124.00,0.0247
3123.00,0.0247
3122.00,0.0247
3121.00,0.0247
3120.00,0.0246
3119.00,0.0246
3118.00,0.0245
3117.00,0.0245
3116.00,0.0244
3115.00,0.0244
3114.00,0.0243
3113.00,0.0242
3112.00,0.0241
3111.00,0.0240
3110.00,0.0240
3109.00,0.0239
3108.00,0.0238
3107.00,0.0238
3106.00,0.0237
3105.00,0.0236
3104.00,0.0235
3103.00,0.0235
3102.00,0.0234
3101.00,0.0234
3100.00,0.0234
3099.00,0.0233
3098.00,0.0233
3097.00,0.0233
3096.00,0.0232
3095.00,0.0232
3094.00,0.0232
3093.00,0.0232
3092.00,0.0232
3091.00,0.0232
3090.00,0.0232
3089.00,0.0233
3088.00,0.0233
3087.00,0.0233
3086.00,0.0233
3085.00,0.0233
3084.00,0.0233
3083.00,0.0233
3082.00,0.0233
3081.00,0.0233
3080.00,0.0233
3079.00,0.0233
3078.00,0.0233
3077.00,0.0233
3076.00,0.0232
3075.00,0.0232
3074.00,0.0231
3073.00,0.0230
3072.00,0.0230
3071.00,0.0229
3070.00,0.0228
3069.00,0.0227
3068.00,0.0226
3067.00,0.0226
3066.00,0.0225
3065.00,0.0224
3064.00,0.0223
3063.00,0.0222
3062.00,0.0221
3061.00,0.0221
3060.00,0.0220
3059.00,0.0220
3058.00,0.0219
3057.00,0.0218
3056.00,0.0218
3055.00,0.0217
3054.00,0.0217
3053.00,0.0216
3052.00,0.0216
3051.00,0.0215
3050.00,0.0215
3049.00,0.0214
3048.00,0.0214
3047.00,0.0214
3046.00,0.0213
3045.00,0.0213
3044.00,0.0213
3043.00,0.0212
3042.00,0.0212
3041.00,0.0212
3040.00,0.0211
3039.00,0.0211
3038.00,0.0211
3037.00,0.0211
3036.00,0.0210
3035.00,0.0210
3034.00,0.0209
3033.00,0.0209
3032.00,0.0209
3031.00,0.0208
3030.00,0.0208
3029.00,0.0207
3028.00,0.0206
3027.00,0.0206
3026.00,0.0205
3025.00,0.0204
3024.00,0.0204
3023.00,0.0203
3022.00,0.0202
3021.00,0.0201
3020.00,0.0201
3019.00,0.0200
3018.00,0.0200
3017.00,0.0199
3016.00,0.0199
3015.00,0.0200
3014.00,0.0200
3013.00,0.0201
3012.00,0.0202
3011.00,0.0202
3010.00,0.0204
3009.00,0.0205
3008.00,0.0207
3007.00,0.0208
3006.00,0.0210
3005.00,0.0213
3004.00,0.0216
3003.00,0.0219
3002.00,0.0223
3001.00,0.0227
3000.00,0.0232
2999.00,0.0237
2998.00,0.0243
2997.00,0.0250
2996.00,0.0257
2995.00,0.0265
2994.00,0.0273
2993.00,0.0281
2992.00,0.0290
2991.00,0.0300
2990.00,0.0309
2989.00,0.0319
2988.00,0.0328
2987.00,0.0337
2986.00,0.0345
2985.00,0.0353
2984.00,0.0359
2983.00,0.0365
2982.00,0.0371
2981.00,0.0377
2980.00,0.0383
2979.00,0.0389
2978.00,0.0394
2977.00,0.0398
2976.00,0.0402
2975.00,0.0405
2974.00,0.0408
2973.00,0.0411
2972.00,0.0415
2971.00,0.0419
2970.00,0.0425
2969.00,0.0431
2968.00,0.0437
2967.00,0.0444
2966.00,0.0451
2965.00,0.0459
2964.00,0.0466
2963.00,0.0473
2962.00,0.0481
2961.00,0.0488
2960.00,0.0495
2959.00,0.0502
2958.00,0.0508
2957.00,0.0514
2956.00,0.0518
2955.00,0.0521
2954.00,0.0522
2953.00,0.0523
2952.00,0.0522
2951.00,0.0520
2950.00,0.0518
2949.00,0.0515
2948.00,0.0513
2947.00,0.0512
2946.00,0.0511
2945.00,0.0512
2944.00,0.0514
2943.00,0.0517
2942.00,0.0521
2941.00,0.0527
2940.00,0.0533
2939.00,0.0540
2938.00,0.0548
2937.00,0.0556
2936.00,0.0564
2935.00,0.0573
2934.00,0.0582
2933.00,0.0590
2932.00,0.0598
2931.00,0.0605
2930.00,0.0611
2929.00,0.0616
2928.00,0.0620
2927.00,0.0623
2926.00,0.0625
2925.00,0.0624
2924.00,0.0623
2923.00,0.0620
2922.00,0.0615
2921.00,0.0610
2920.00,0.0603
2919.00,0.0595
2918.00,0.0585
2917.00,0.0576
2916.00,0.0565
2915.00,0.0554
2914.00,0.0543
2913.00,0.0532
2912.00,0.0521
2911.00,0.0510
2910.00,0.0499
2909.00,0.0490
2908.00,0.0480
2907.00,0.0472
2906.00,0.0464
2905.00,0.0456
2904.00,0.0449
2903.00,0.0444
2902.00,0.0438
2901.00,0.0434
2900.00,0.0430
2899.00,0.0426
2898.00,0.0423
2897.00,0.0420
2896.00,0.0417
2895.00,0.0415
2894.00,0.0413
2893.00,0.0411
2892.00,0.0408
2891.00,0.0406
2890.00,0.0403
2889.00,0.0401
2888.00,0.0399
2887.00,0.0398
2886.00,0.0396
2885.00,0.0395
2884.00,0.0394
2883.00,0.0394
2882.00,0.0394
2881.00,0.0395
2880.00,0.0397
2879.00,0.0400
2878.00,0.0403
2877.00,0.0407
2876.00,0.0411
2875.00,0.0416
2874.00,0.0420
2873.00,0.0425
2872.00,0.0428
2871.00,0.0431
2870.00,0.0433
2869.00,0.0433
2868.00,0.0433
2867.00,0.0432
2866.00,0.0432
2865.00,0.0433
2864.00,0.0435
2863.00,0.0437
2862.00,0.0440
2861.00,0.0444
2860.00,0.0447
2859.00,0.0450
2858.00,0.0451
2857.00,0.0450
2856.00,0.0447
2855.00,0.0442
2854.00,0.0435
2853.00,0.0426
2852.00,0.0416
2851.00,0.0405
2850.00,0.0393
2849.00,0.0381
2848.00,0.0369
2847.00,0.0357
2846.00,0.0346
2845.00,0.0334
2844.00,0.0323
2843.00,0.0312
2842.00,0.0302
2841.00,0.0293
2840.00,0.0285
2839.00,0.0278
2838.00,0.0272
2837.00,0.0266
2836.00,0.0262
2835.00,0.0258
2834.00,0.0254
2833.00,0.0251
2832.00,0.0247
2831.00,0.0244
2830.00,0.0242
2829.00,0.0239
2828.00,0.0236
2827.00,0.0233
2826.00,0.0231
2825.00,0.0228
2824.00,0.0225
2823.00,0.0223
2822.00,0.0220
2821.00,0.0217
2820.00,0.0214
2819.00,0.0211
2818.00,0.0209
2817.00,0.0206
2816.00,0.0203
2815.00,0.0201
2814.00,0.0198
2813.00,0.0195
2812.00,0.0192
2811.00,0.0190
2810.00,0.0187
2809.00,0.0185
2808.00,0.0182
2807.00,0.0180
2806.00,0.0178
2805.00,0.0176
2804.00,0.0174
2803.00,0.0173
2802.00,0.0171
2801.00,0.0169
2800.00,0.0167
2799.00,0.0165
2798.00,0.0164
2797.00,0.0162
2796.00,0.0161
2795.00,0.0160
2794.00,0.0159
2793.00,0.0158
2792.00,0.0157
2791.00,0.0155
2790.00,0.0154
2789.00,0.0153
2788.00,0.0152
2787.00,0.0151
2786.00,0.0150
2785.00,0.0149
2784.00,0.0149
2783.00,0.0148
2782.00,0.0147
2781.00,0.0146
2780.00,0.0145
2779.00,0.0144
2778.00,0.0143
2777.00,0.0142
2776.00,0.0141
2775.00,0.0141
2774.00,0.0140
2773.00,0.0139
2772.00,0.0139
2771.00,0.0139
2770.00,0.0138
2769.00,0.0138
2768.00,0.0137
2767.00,0.0136
2766.00,0.0136
2765.00,0.0135
2764.00,0.0135
2763.00,0.0135
2762.00,0.0135
2761.00,0.0134
2760.00,0.0134
2759.00,0.0134
2758.00,0.0134
2757.00,0.0134
2756.00,0.0134
2755.00,0.0134
2754.00,0.0134
2753.00,0.0134
2752.00,0.0134
2751.00,0.0135
2750.00,0.0135
2749.00,0.0135
2748.00,0.0135
2747.00,0.0135
2746.00,0.0135
2745.00,0.0136
2744.00,0.0136
2743.00,0.0136
2742.00,0.0136
2741.00,0.0136
2740.00,0.0136
2739.00,0.0136
2738.00,0.0136
2737.00,0.0137
2736.00,0.0137
2735.00,0.0137
2734.00,0.0137
2733.00,0.0137
2732.00,0.0137
2731.00,0.0137
2730.00,0.0136
2729.00,0.0136
2728.00,0.0135
2727.00,0.0134
2726.00,0.0134
2725.00,0.0133
2724.00,0.0133
2723.00,0.0133
2722.00,0.0132
2721.00,0.0132
2720.00,0.0132
2719.00,0.0131
2718.00,0.0131
2717.00,0.0130
2716.00,0.0130
2715.00,0.0130
2714.00,0.0129
2713.00,0.0129
2712.00,0.0128
2711.00,0.0128
2710.00,0.0128
2709.00,0.0127
2708.00,0.0127
2707.00,0.0127
2706.00,0.0127
2705.00,0.0126
2704.00,0.0126
2703.00,0.0125
2702.00,0.0124
2701.00,0.0124
2700.00,0.0123
2699.00,0.0123
2698.00,0.0123
2697.00,0.0122
2696.00,0.0122
2695.00,0.0122
2694.00,0.0121
2693.00,0.0121
2692.00,0.0120
2691.00,0.0120
2690.00,0.0120
2689.00,0.0119
2688.00,0.0119
2687.00,0.0118
2686.00,0.0118
2685.00,0.0117
2684.00,0.0117
2683.00,0.0117
2682.00,0.0117
2681.00,0.0116
2680.00,0.0116
2679.00,0.0116
2678.00,0.0116
2677.00,0.0116
2676.00,0.0116
2675.00,0.0115
2674.00,0.0115
2673.00,0.0115
2672.00,0.0115
2671.00,0.0115
2670.00,0.0115
2669.00,0.0115
2668.00,0.0115
2667.00,0.0115
2666.00,0.0115
2665.00,0.0115
2664.00,0.0116
2663.00,0.0116
2662.00,0.0116
2661.00,0.0116
2660.00,0.0115
2659.00,0.0115
2658.00,0.0115
2657.00,0.0114
2656.00,0.0114
2655.00,0.0113
2654.00,0.0113
2653.00,0.0113
2652.00,0.0113
2651.00,0.0113
2650.00,0.0112
2649.00,0.0112
2648.00,0.0112
2647.00,0.0111
2646.00,0.0111
2645.00,0.0111
2644.00,0.0110
2643.00,0.0110
2642.00,0.0109
2641.00,0.0109
2640.00,0.0109
2639.00,0.0108
2638.00,0.0108
2637.00,0.0108
2636.00,0.0107
2635.00,0.0107
2634.00,0.0106
2633.00,0.0106
2632.00,0.0106
2631.00,0.0106
2630.00,0.0106
2629.00,0.0105
2628.00,0.0105
2627.00,0.0105
2626.00,0.0104
2625.00,0.0104
2624.00,0.0104
2623.00,0.0104
2622.00,0.0103
2621.00,0.0103
2620.00,0.0103
2619.00,0.0103
2618.00,0.0103
2617.00,0.0103
2616.00,0.0103
2615.00,0.0103
2614.00,0.0103
2613.00,0.0102
2612.00,0.0102
2611.00,0.0102
2610.00,0.0101
2609.00,0.0101
2608.00,0.0101
2607.00,0.0100
2606.00,0.0100
2605.00,0.0100
2604.00,0.0100
2603.00,0.0100
2602.00,0.0100
2601.00,0.0100
2600.00,0.0100
2599.00,0.0099
2598.00,0.0099
2597.00,0.0099
2596.00,0.0099
2595.00,0.0099
2594.00,0.0099
2593.00,0.0099
2592.00,0.0099
2591.00,0.0099
2590.00,0.0099
2589.00,0.0098
2588.00,0.0098
2587.00,0.0097
2586.00,0.0097
2585.00,0.0097
2584.00,0.0098
2583.00,0.0098
2582.00,0.0098
2581.00,0.0097
2580.00,0.0097
2579.00,0.0097
2578.00,0.0097
2577.00,0.0097
2576.00,0.0097
2575.00,0.0097
2574.00,0.0097
2573.00,0.0097
2572.00,0.0097
2571.00,0.0097
2570.00,0.0097
2569.00,0.0096
2568.00,0.0096
2567.00,0.0095
2566.00,0.0095
2565.00,0.0094
2564.00,0.0094
2563.00,0.0094
2562.00,0.0093
2561.00,0.0093
2560.00,0.0092
2559.00,0.0092
2558.00,0.0092
2557.00,0.0091
2556.00,0.0091
2555.00,0.0091
2554.00,0.0091
2553.00,0.0091
2552.00,0.0091
2551.00,0.0091
2550.00,0.0091
2549.00,0.0091
2548.00,0.0091
2547.00,0.0091
2546.00,0.0091
2545.00,0.0091
2544.00,0.0090
2543.00,0.0089
2542.00,0.0089
2541.00,0.0088
2540.00,0.0088
2539.00,0.0087
2538.00,0.0087
2537.00,0.0087
2536.00,0.0087
2535.00,0.0087
2534.00,0.0086
2533.00,0.0086
2532.00,0.0086
2531.00,0.0086
2530.00,0.0085
2529.00,0.0085
2528.00,0.0084
2527.00,0.0084
2526.00,0.0083
2525.00,0.0082
2524.00,0.0082
2523.00,0.0082
2522.00,0.0081
2521.00,0.0081
2520.00,0.0081
2519.00,0.0080
2518.00,0.0079
2517.00,0.0079
2516.00,0.0079
2515.00,0.0079
2514.00,0.0078
2513.00,0.0078
2512.00,0.0078
2511.00,0.0078
2510.00,0.0077
2509.00,0.0077
2508.00,0.0077
2507.00,0.0076
2506.00,0.0076
2505.00,0.0076
2504.00,0.0076
2503.00,0.0075
2502.00,0.0075
2501.00,0.0075
2500.00,0.0075
2499.00,0.0075
2498.00,0.0075
2497.00,0.0075
2496.00,0.0075
2495.00,0.0074
2494.00,0.0074
2493.00,0.0074
2492.00,0.0074
2491.00,0.0074
2490.00,0.0073
2489.00,0.0073
2488.00,0.0073
2487.00,0.0074
2486.00,0.0074
2485.00,0.0074
2484.00,0.0073
2483.00,0.0073
2482.00,0.0073
2481.00,0.0073
2480.00,0.0073
2479.00,0.0073
2478.00,0.0072
2477.00,0.0072
2476.00,0.0072
2475.00,0.0071
2474.00,0.0071
2473.00,0.0071
2472.00,0.0071
2471.00,0.0071
2470.00,0.0071
2469.00,0.0071
2468.00,0.0071
2467.00,0.0070
2466.00,0.0070
2465.00,0.0070
2464.00,0.0070
2463.00,0.0071
2462.00,0.0071
2461.00,0.0071
2460.00,0.0071
2459.00,0.0071
2458.00,0.0071
2457.00,0.0071
2456.00,0.0071
2455.00,0.0071
2454.00,0.0071
2453.00,0.0072
2452.00,0.0071
2451.00,0.0071
2450.00,0.0071
2449.00,0.0071
2448.00,0.0070
2447.00,0.0070
2446.00,0.0070
2445.00,0.0069
2444.00,0.0069
2443.00,0.0069
2442.00,0.0069
2441.00,0.0069
2440.00,0.0069
2439.00,0.0069
2438.00,0.0069
2437.00,0.0068
2436.00,0.0068
2435.00,0.0067
2434.00,0.0067
2433.00,0.0067
2432.00,0.0068
2431.00,0.0068
2430.00,0.0068
2429.00,0.0068
2428.00,0.0067
2427.00,0.0067
2426.00,0.0067
2425.00,0.0067
2424.00,0.0068
2423.00,0.0068
2422.00,0.0068
2421.00,0.0068
2420.00,0.0068
2419.00,0.0067
2418.00,0.0067
2417.00,0.0067
2416.00,0.0067
2415.00,0.0067
2414.00,0.0066
2413.00,0.0066
2412.00,0.0066
2411.00,0.0066
2410.00,0.0066
2409.00,0.0066
2408.00,0.0065
2407.00,0.0065
2406.00,0.0065
2405.00,0.0065
2404.00,0.0065
2403.00,0.0065
2402.00,0.0065
2401.00,0.0065
2400.00,0.0065
2399.00,0.0065
2398.00,0.0065
2397.00,0.0065
2396.00,0.0065
2395.00,0.0065
2394.00,0.0065
2393.00,0.0065
2392.00,0.0065
2391.00,0.0064
2390.00,0.0064
2389.00,0.0064
2388.00,0.0063
2387.00,0.0063
2386.00,0.0063
2385.00,0.0062
2384.00,0.0062
2383.00,0.0061
2382.00,0.0061
2381.00,0.0060
2380.00,0.0060
2379.00,0.0059
2378.00,0.0059
2377.00,0.0059
2376.00,0.0059
2375.00,0.0059
2374.00,0.0059
2373.00,0.0059
2372.00,0.0059
2371.00,0.0059
2370.00,0.0058
2369.00,0.0058
2368.00,0.0058
2367.00,0.0058
2366.00,0.0057
2365.00,0.0057
2364.00,0.0057
2363.00,0.0058
2362.00,0.0058
2361.00,0.0058
2360.00,0.0059
2359.00,0.0059
2358.00,0.0059
2357.00,0.0060
2356.00,0.0060
2355.00,0.0060
2354.00,0.0060
2353.00,0.0060
2352.00,0.0059
2351.00,0.0059
2350.00,0.0060
2349.00,0.0060
2348.00,0.0061
2347.00,0.0061
2346.00,0.0061
2345.00,0.0060
2344.00,0.0060
2343.00,0.0060
2342.00,0.0061
2341.00,0.0061
2340.00,0.0062
2339.00,0.0063
2338.00,0.0063
2337.00,0.0063
2336.00,0.0063
2335.00,0.0063
2334.00,0.0063
2333.00,0.0063
2332.00,0.0063
2331.00,0.0063
2330.00,0.0063
2329.00,0.0064
2328.00,0.0067
2327.00,0.0071
2326.00,0.0074
2325.00,0.0075
2324.00,0.0074
2323.00,0.0072
2322.00,0.0070
2321.00,0.0069
2320.00,0.0068
2319.00,0.0068
2318.00,0.0067
2317.00,0.0066
2316.00,0.0066
2315.00,0.0065
2314.00,0.0065
2313.00,0.0065
2312.00,0.0065
2311.00,0.0064
2310.00,0.0064
2309.00,0.0064
2308.00,0.0064
2307.00,0.0064
2306.00,0.0064
2305.00,0.0065
2304.00,0.0065
2303.00,0.0065
2302.00,0.0065
2301.00,0.0065
2300.00,0.0065
2299.00,0.0065
2298.00,0.0066
2297.00,0.0066
2296.00,0.0067
2295.00,0.0067
2294.00,0.0068
2293.00,0.0068
2292.00,0.0069
2291.00,0.0070
2290.00,0.0070
2289.00,0.0070
2288.00,0.0070
2287.00,0.0070
2286.00,0.0069
2285.00,0.0069
2284.00,0.0069
2283.00,0.0069
2282.00,0.0069
2281.00,0.0068
2280.00,0.0068
2279.00,0.0067
2278.00,0.0067
2277.00,0.0067
2276.00,0.0066
2275.00,0.0066
2274.00,0.0066
2273.00,0.0066
2272.00,0.0066
2271.00,0.0065
2270.00,0.0064
2269.00,0.0062
2268.00,0.0061
2267.00,0.0060
2266.00,0.0060
2265.00,0.0060
2264.00,0.0060
2263.00,0.0061
2262.00,0.0062
2261.00,0.0063
2260.00,0.0063
2259.00,0.0063
2258.00,0.0062
2257.00,0.0061
2256.00,0.0061
2255.00,0.0060
2254.00,0.0060
2253.00,0.0061
2252.00,0.0062
2251.00,0.0062
2250.00,0.0062
2249.00,0.0061
2248.00,0.0061
2247.00,0.0061
2246.00,0.0061
2245.00,0.0061
2244.00,0.0061
2243.00,0.0061
2242.00,0.0061
2241.00,0.0061
2240.00,0.0061
2239.00,0.0062
2238.00,0.0062
2237.00,0.0063
2236.00,0.0063
2235.00,0.0063
2234.00,0.0063
2233.00,0.0062
2232.00,0.0062
2231.00,0.0061
2230.00,0.0061
2229.00,0.0061
2228.00,0.0062
2227.00,0.0062
2226.00,0.0062
2225.00,0.0062
2224.00,0.0061
2223.00,0.0061
2222.00,0.0061
2221.00,0.0062
2220.00,0.0062
2219.00,0.0063
2218.00,0.0064
2217.00,0.0064
2216.00,0.0064
2215.00,0.0063
2214.00,0.0062
2213.00,0.0062
2212.00,0.0062
2211.00,0.0063
2210.00,0.0063
2209.00,0.0062
2208.00,0.0061
2207.00,0.0060
2206.00,0.0060
2205.00,0.0060
2204.00,0.0061
2203.00,0.0060
2202.00,0.0060
2201.00,0.0060
2200.00,0.0060
2199.00,0.0059
2198.00,0.0058
2197.00,0.0059
2196.00,0.0060
2195.00,0.0061
2194.00,0.0061
2193.00,0.0061
2192.00,0.0062
2191.00,0.0062
2190.00,0.0063
2189.00,0.0063
2188.00,0.0064
2187.00,0.0063
2186.00,0.0061
2185.00,0.0060
2184.00,0.0058
2183.00,0.0057
2182.00,0.0056
2181.00,0.0057
2180.00,0.0058
2179.00,0.0058
2178.00,0.0057
2177.00,0.0055
2176.00,0.0055
2175.00,0.0055
2174.00,0.0057
2173.00,0.0059
2172.00,0.0062
2171.00,0.0063
2170.00,0.0064
2169.00,0.0065
2168.00,0.0066
2167.00,0.0066
2166.00,0.0066
2165.00,0.0067
2164.00,0.0068
2163.00,0.0069
2162.00,0.0065
2161.00,0.0057
2160.00,0.0046
2159.00,0.0036
2158.00,0.0032
2157.00,0.0033
2156.00,0.0036
2155.00,0.0038
2154.00,0.0037
2153.00,0.0038
2152.00,0.0039
2151.00,0.0040
2150.00,0.0040
2149.00,0.0040
2148.00,0.0040
2147.00,0.0040
2146.00,0.0040
2145.00,0.0041
2144.00,0.0042
2143.00,0.0042
2142.00,0.0042
2141.00,0.0043
2140.00,0.0043
2139.00,0.0042
2138.00,0.0040
2137.00,0.0038
2136.00,0.0037
2135.00,0.0036
2134.00,0.0036
2133.00,0.0037
2132.00,0.0039
2131.00,0.0040
2130.00,0.0041
2129.00,0.0043
2128.00,0.0044
2127.00,0.0045
2126.00,0.0045
2125.00,0.0046
2124.00,0.0047
2123.00,0.0047
2122.00,0.0047
2121.00,0.0048
2120.00,0.0049
2119.00,0.0050
2118.00,0.0051
2117.00,0.0052
2116.00,0.0052
2115.00,0.0053
2114.00,0.0052
2113.00,0.0053
2112.00,0.0053
2111.00,0.0053
2110.00,0.0053
2109.00,0.0053
2108.00,0.0053
2107.00,0.0053
2106.00,0.0053
2105.00,0.0053
2104.00,0.0054
2103.00,0.0054
2102.00,0.0054
2101.00,0.0054
2100.00,0.0054
2099.00,0.0054
2098.00,0.0052
2097.00,0.0051
2096.00,0.0049
2095.00,0.0048
2094.00,0.0048
2093.00,0.0049
2092.00,0.0052
2091.00,0.0053
2090.00,0.0054
2089.00,0.0055
2088.00,0.0055
2087.00,0.0055
2086.00,0.0055
2085.00,0.0055
2084.00,0.0054
2083.00,0.0053
2082.00,0.0052
2081.00,0.0052
2080.00,0.0053
2079.00,0.0054
2078.00,0.0054
2077.00,0.0055
2076.00,0.0055
2075.00,0.0054
2074.00,0.0053
2073.00,0.0053
2072.00,0.0053
2071.00,0.0052
2070.00,0.0050
2069.00,0.0050
2068.00,0.0050
2067.00,0.0050
2066.00,0.0051
2065.00,0.0051
2064.00,0.0051
2063.00,0.0050
2062.00,0.0049
2061.00,0.0049
2060.00,0.0050
2059.00,0.0050
2058.00,0.0051
2057.00,0.0052
2056.00,0.0053
2055.00,0.0053
2054.00,0.0055
2053.00,0.0058
2052.00,0.0061
2051.00,0.0061
2050.00,0.0058
2049.00,0.0054
2048.00,0.0052
2047.00,0.0051
2046.00,0.0049
2045.00,0.0048
2044.00,0.0049
2043.00,0.0049
2042.00,0.0049
2041.00,0.0051
2040.00,0.0053
2039.00,0.0054
2038.00,0.0053
2037.00,0.0052
2036.00,0.0051
2035.00,0.0049
2034.00,0.0047
2033.00,0.0047
2032.00,0.0048
2031.00,0.0049
2030.00,0.0049
2029.00,0.0048
2028.00,0.0047
2027.00,0.0045
2026.00,0.0044
2025.00,0.0044
2024.00,0.0045
2023.00,0.0045
2022.00,0.0043
2021.00,0.0043
2020.00,0.0046
2019.00,0.0048
2018.00,0.0049
2017.00,0.0050
2016.00,0.0050
2015.00,0.0049
2014.00,0.0048
2013.00,0.0047
2012.00,0.0047
2011.00,0.0047
2010.00,0.0044
2009.00,0.0041
2008.00,0.0037
2007.00,0.0033
2006.00,0.0032
2005.00,0.0035
2004.00,0.0039
2003.00,0.0043
2002.00,0.0044
2001.00,0.0045
2000.00,0.0047
1999.00,0.0048
1998.00,0.0048
1997.00,0.0049
1996.00,0.0050
1995.00,0.0050
1994.00,0.0050
1993.00,0.0050
1992.00,0.0049
1991.00,0.0048
1990.00,0.0047
1989.00,0.0047
1988.00,0.0050
1987.00,0.0051
1986.00,0.0052
1985.00,0.0053
1984.00,0.0054
1983.00,0.0055
1982.00,0.0057
1981.00,0.0059
1980.00,0.0059
1979.00,0.0056
1978.00,0.0051
1977.00,0.0046
1976.00,0.0044
1975.00,0.0043
1974.00,0.0043
1973.00,0.0044
1972.00,0.0045
1971.00,0.0045
1970.00,0.0043
1969.00,0.0043
1968.00,0.0045
1967.00,0.0045
1966.00,0.0044
1965.00,0.0044
1964.00,0.0044
1963.00,0.0043
1962.00,0.0041
1961.00,0.0038
1960.00,0.0037
1959.00,0.0037
1958.00,0.0038
1957.00,0.0040
1956.00,0.0042
1955.00,0.0043
1954.00,0.0043
1953.00,0.0044
1952.00,0.0045
1951.00,0.0045
1950.00,0.0044
1949.00,0.0045
1948.00,0.0046
1947.00,0.0046
1946.00,0.0046
1945.00,0.0047
1944.00,0.0047
1943.00,0.0047
1942.00,0.0046
1941.00,0.0046
1940.00,0.0046
1939.00,0.0047
1938.00,0.0047
1937.00,0.0048
1936.00,0.0049
1935.00,0.0049
1934.00,0.0048
1933.00,0.0047
1932.00,0.0048
1931.00,0.0048
1930.00,0.0048
1929.00,0.0049
1928.00,0.0049
1927.00,0.0050
1926.00,0.0050
1925.00,0.0050
1924.00,0.0050
1923.00,0.0051
1922.00,0.0052
1921.00,0.0052
1920.00,0.0053
1919.00,0.0053
1918.00,0.0053
1917.00,0.0053
1916.00,0.0054
1915.00,0.0054
1914.00,0.0053
1913.00,0.0053
1912.00,0.0053
1911.00,0.0053
1910.00,0.0053
1909.00,0.0054
1908.00,0.0054
1907.00,0.0054
1906.00,0.0054
1905.00,0.0054
1904.00,0.0054
1903.00,0.0055
1902.00,0.0055
1901.00,0.0055
1900.00,0.0055
1899.00,0.0054
1898.00,0.0054
1897.00,0.0054
1896.00,0.0055
1895.00,0.0055
1894.00,0.0055
1893.00,0.0055
1892.00,0.0056
1891.00,0.0057
1890.00,0.0057
1889.00,0.0057
1888.00,0.0057
1887.00,0.0057
1886.00,0.0056
1885.00,0.0055
1884.00,0.0056
1883.00,0.0056
1882.00,0.0056
1881.00,0.0055
1880.00,0.0056
1879.00,0.0055
1878.00,0.0054
1877.00,0.0054
1876.00,0.0054
1875.00,0.0054
1874.00,0.0054
1873.00,0.0054
1872.00,0.0055
1871.00,0.0055
1870.00,0.0055
1869.00,0.0056
1868.00,0.0056
1867.00,0.0056
1866.00,0.0056
1865.00,0.0056
1864.00,0.0056
1863.00,0.0055
1862.00,0.0055
1861.00,0.0055
1860.00,0.0056
1859.00,0.0056
1858.00,0.0056
1857.00,0.0056
1856.00,0.0056
1855.00,0.0057
1854.00,0.0056
1853.00,0.0056
1852.00,0.0056
1851.00,0.0056
1850.00,0.0056
1849.00,0.0056
1848.00,0.0057
1847.00,0.0058
1846.00,0.0058
1845.00,0.0059
1844.00,0.0059
1843.00,0.0059
1842.00,0.0058
1841.00,0.0058
1840.00,0.0057
1839.00,0.0057
1838.00,0.0056
1837.00,0.0056
1836.00,0.0056
1835.00,0.0056
1834.00,0.0056
1833.00,0.0056
1832.00,0.0057
1831.00,0.0057
1830.00,0.0057
1829.00,0.0057
1828.00,0.0057
1827.00,0.0058
1826.00,0.0057
1825.00,0.0057
1824.00,0.0058
1823.00,0.0057
1822.00,0.0056
1821.00,0.0055
1820.00,0.0055
1819.00,0.0054
1818.00,0.0053
1817.00,0.0053
1816.00,0.0053
1815.00,0.0054
1814.00,0.0055
1813.00,0.0055
1812.00,0.0056
1811.00,0.0057
1810.00,0.0057
1809.00,0.0057
1808.00,0.0057
1807.00,0.0057
1806.00,0.0057
1805.00,0.0057
1804.00,0.0058
1803.00,0.0058
1802.00,0.0059
1801.00,0.0059
1800.00,0.0060
1799.00,0.0060
1798.00,0.0060
1797.00,0.0060
1796.00,0.0060
1795.00,0.0061
1794.00,0.0061
1793.00,0.0061
1792.00,0.0062
1791.00,0.0062
1790.00,0.0061
1789.00,0.0061
1788.00,0.0061
1787.00,0.0060
1786.00,0.0060
1785.00,0.0060
1784.00,0.0060
1783.00,0.0060
1782.00,0.0060
1781.00,0.0059
1780.00,0.0059
1779.00,0.0058
1778.00,0.0056
1777.00,0.0055
1776.00,0.0055
1775.00,0.0055
1774.00,0.0055
1773.00,0.0054
1772.00,0.0054
1771.00,0.0055
1770.00,0.0055
1769.00,0.0055
1768.00,0.0056
1767.00,0.0056
1766.00,0.0056
1765.00,0.0057
1764.00,0.0058
1763.00,0.0060
1762.00,0.0061
1761.00,0.0062
1760.00,0.0063
1759.00,0.0064
1758.00,0.0064
1757.00,0.0065
1756.00,0.0066
1755.00,0.0067
1754.00,0.0067
1753.00,0.0068
1752.00,0.0069
1751.00,0.0070
1750.00,0.0072
1749.00,0.0073
1748.00,0.0075
1747.00,0.0075
1746.00,0.0075
1745.00,0.0076
1744.00,0.0077
1743.00,0.0078
1742.00,0.0078
1741.00,0.0079
1740.00,0.0080
1739.00,0.0081
1738.00,0.0082
1737.00,0.0083
1736.00,0.0085
1735.00,0.0086
1734.00,0.0086
1733.00,0.0087
1732.00,0.0090
1731.00,0.0093
1730.00,0.0094
1729.00,0.0096
1728.00,0.0098
1727.00,0.0100
1726.00,0.0101
1725.00,0.0103
1724.00,0.0105
1723.00,0.0108
1722.00,0.0109
1721.00,0.0112
1720.00,0.0116
1719.00,0.0119
1718.00,0.0122
1717.00,0.0126
1716.00,0.0133
1715.00,0.0139
1714.00,0.0145
1713.00,0.0152
1712.00,0.0160
1711.00,0.0169
1710.00,0.0178
1709.00,0.0190
1708.00,0.0204
1707.00,0.0221
1706.00,0.0240
1705.00,0.0261
1704.00,0.0284
1703.00,0.0305
1702.00,0.0329
1701.00,0.0369
1700.00,0.0422
1699.00,0.0471
1698.00,0.0511
1697.00,0.0558
1696.00,0.0623
1695.00,0.0696
1694.00,0.0762
1693.00,0.0821
1692.00,0.0880
1691.00,0.0944
1690.00,0.1012
1689.00,0.1079
1688.00,0.1138
1687.00,0.1186
1686.00,0.1233
1685.00,0.1294
1684.00,0.1368
1683.00,0.1428
1682.00,0.1463
1681.00,0.1485
1680.00,0.1504
1679.00,0.1518
1678.00,0.1529
1677.00,0.1538
1676.00,0.1551
1675.00,0.1568
1674.00,0.1583
1673.00,0.1592
1672.00,0.1602
1671.00,0.1618
1670.00,0.1646
1669.00,0.1683
1668.00,0.1719
1667.00,0.1749
1666.00,0.1773
1665.00,0.1798
1664.00,0.1831
1663.00,0.1872
1662.00,0.1913
1661.00,0.1946
1660.00,0.1970
1659.00,0.1986
1658.00,0.1995
1657.00,0.1998
1656.00,0.1992
1655.00,0.1983
1654.00,0.1978
1653.00,0.1981
1652.00,0.1973
1651.00,0.1944
1650.00,0.1901
1649.00,0.1850
1648.00,0.1793
1647.00,0.1730
1646.00,0.1663
1645.00,0.1594
1644.00,0.1524
1643.00,0.1453
1642.00,0.1381
1641.00,0.1310
1640.00,0.1242
1639.00,0.1179
1638.00,0.1118
1637.00,0.1058
1636.00,0.0999
1635.00,0.0947
1634.00,0.0902
1633.00,0.0864
1632.00,0.0831
1631.00,0.0804
1630.00,0.0783
1629.00,0.0772
1628.00,0.0772
1627.00,0.0781
1626.00,0.0799
1625.00,0.0826
1624.00,0.0866
1623.00,0.0916
1622.00,0.0963
1621.00,0.1000
1620.00,0.1024
1619.00,0.1036
1618.00,0.1036
1617.00,0.1025
1616.00,0.1007
1615.00,0.0985
1614.00,0.0963
1613.00,0.0942
1612.00,0.0923
1611.00,0.0907
1610.00,0.0890
1609.00,0.0867
1608.00,0.0836
1607.00,0.0798
1606.00,0.0753
1605.00,0.0705
1604.00,0.0657
1603.00,0.0611
1602.00,0.0569
1601.00,0.0532
1600.00,0.0501
1599.00,0.0477
1598.00,0.0461
1597.00,0.0451
1596.00,0.0449
1595.00,0.0456
1594.00,0.0472
1593.00,0.0499
1592.00,0.0536
1591.00,0.0582
1590.00,0.0635
1589.00,0.0691
1588.00,0.0743
1587.00,0.0786
1586.00,0.0814
1585.00,0.0824
1584.00,0.0816
1583.00,0.0793
1582.00,0.0758
1581.00,0.0717
1580.00,0.0675
1579.00,0.0636
1578.00,0.0598
1577.00,0.0561
1576.00,0.0528
1575.00,0.0503
1574.00,0.0484
1573.00,0.0469
1572.00,0.0455
1571.00,0.0440
1570.00,0.0425
1569.00,0.0410
1568.00,0.0397
1567.00,0.0385
1566.00,0.0373
1565.00,0.0361
1564.00,0.0350
1563.00,0.0341
1562.00,0.0332
1561.00,0.0323
1560.00,0.0314
1559.00,0.0307
1558.00,0.0302
1557.00,0.0296
1556.00,0.0290
1555.00,0.0284
1554.00,0.0279
1553.00,0.0274
1552.00,0.0270
1551.00,0.0267
1550.00,0.0264
1549.00,0.0261
1548.00,0.0257
1547.00,0.0255
1546.00,0.0252
1545.00,0.0251
1544.00,0.0250
1543.00,0.0249
1542.00,0.0247
1541.00,0.0244
1540.00,0.0242
1539.00,0.0239
1538.00,0.0238
1537.00,0.0237
1536.00,0.0237
1535.00,0.0237
1534.00,0.0238
1533.00,0.0239
1532.00,0.0240
1531.00,0.0240
1530.00,0.0240
1529.00,0.0242
1528.00,0.0245
1527.00,0.0249
1526.00,0.0253
1525.00,0.0258
1524.00,0.0262
1523.00,0.0268
1522.00,0.0275
1521.00,0.0285
1520.00,0.0294
1519.00,0.0302
1518.00,0.0310
1517.00,0.0319
1516.00,0.0326
1515.00,0.0331
1514.00,0.0334
1513.00,0.0336
1512.00,0.0338
1511.00,0.0339
1510.00,0.0341
1509.00,0.0342
1508.00,0.0344
1507.00,0.0348
1506.00,0.0355
1505.00,0.0363
1504.00,0.0373
1503.00,0.0387
1502.00,0.0407
1501.00,0.0434
1500.00,0.0467
1499.00,0.0506
1498.00,0.0546
1497.00,0.0582
1496.00,0.0609
1495.00,0.0622
1494.00,0.0622
1493.00,0.0613
1492.00,0.0595
1491.00,0.0571
1490.00,0.0542
1489.00,0.0510
1488.00,0.0477
1487.00,0.0444
1486.00,0.0414
1485.00,0.0389
1484.00,0.0368
1483.00,0.0351
1482.00,0.0338
1481.00,0.0329
1480.00,0.0324
1479.00,0.0322
1478.00,0.0323
1477.00,0.0328
1476.00,0.0336
1475.00,0.0348
1474.00,0.0366
1473.00,0.0394
1472.00,0.0433
1471.00,0.0475
1470.00,0.0520
1469.00,0.0567
1468.00,0.0618
1467.00,0.0675
1466.00,0.0738
1465.00,0.0807
1464.00,0.0871
1463.00,0.0920
1462.00,0.0953
1461.00,0.0971
1460.00,0.0977
1459.00,0.0970
1458.00,0.0948
1457.00,0.0914
1456.00,0.0873
1455.00,0.0835
1454.00,0.0803
1453.00,0.0778
1452.00,0.0761
1451.00,0.0753
1450.00,0.0758
1449.00,0.0775
1448.00,0.0804
1447.00,0.0840
1446.00,0.0878
1445.00,0.0916
1444.00,0.0954
1443.00,0.0991
1442.00,0.1025
1441.00,0.1055
1440.00,0.1080
1439.00,0.1101
1438.00,0.1125
1437.00,0.1155
1436.00,0.1188
1435.00,0.1213
1434.00,0.1231
1433.00,0.1246
1432.00,0.1262
1431.00,0.1280
1430.00,0.1300
1429.00,0.1322
1428.00,0.1345
1427.00,0.1369
1426.00,0.1395
1425.00,0.1424
1424.00,0.1454
1423.00,0.1474
1422.00,0.1479
1421.00,0.1467
1420.00,0.1435
1419.00,0.1384
1418.00,0.1319
1417.00,0.1250
1416.00,0.1181
1415.00,0.1116
1414.00,0.1058
1413.00,0.1012
1412.00,0.0978
1411.00,0.0956
1410.00,0.0944
1409.00,0.0943
1408.00,0.0949
1407.00,0.0961
1406.00,0.0980
1405.00,0.1003
1404.00,0.1026
1403.00,0.1042
1402.00,0.1050
1401.00,0.1048
1400.00,0.1033
1399.00,0.1004
1398.00,0.0964
1397.00,0.0917
1396.00,0.0863
1395.00,0.0806
1394.00,0.0752
1393.00,0.0705
1392.00,0.0667
1391.00,0.0636
1390.00,0.0612
1389.00,0.0596
1388.00,0.0588
1387.00,0.0588
1386.00,0.0596
1385.00,0.0609
1384.00,0.0627
1383.00,0.0649
1382.00,0.0674
1381.00,0.0697
1380.00,0.0714
1379.00,0.0724
1378.00,0.0727
1377.00,0.0723
1376.00,0.0713
1375.00,0.0699
1374.00,0.0684
1373.00,0.0669
1372.00,0.0654
1371.00,0.0640
1370.00,0.0628
1369.00,0.0619
1368.00,0.0614
1367.00,0.0613
1366.00,0.0618
1365.00,0.0630
1364.00,0.0651
1363.00,0.0678
1362.00,0.0704
1361.00,0.0720
1360.00,0.0721
1359.00,0.0706
1358.00,0.0677
1357.00,0.0640
1356.00,0.0600
1355.00,0.0563
1354.00,0.0533
1353.00,0.0509
1352.00,0.0491
1351.00,0.0479
1350.00,0.0470
1349.00,0.0463
1348.00,0.0459
1347.00,0.0455
1346.00,0.0452
1345.00,0.0450
1344.00,0.0449
1343.00,0.0447
1342.00,0.0447
1341.00,0.0448
1340.00,0.0450
1339.00,0.0453
1338.00,0.0457
1337.00,0.0462
1336.00,0.0468
1335.00,0.0474
1334.00,0.0481
1333.00,0.0488
1332.00,0.0496
1331.00,0.0504
1330.00,0.0511
1329.00,0.0520
1328.00,0.0528
1327.00,0.0537
1326.00,0.0548
1325.00,0.0560
1324.00,0.0573
1323.00,0.0586
1322.00,0.0598
1321.00,0.0609
1320.00,0.0618
1319.00,0.0623
1318.00,0.0624
1317.00,0.0620
1316.00,0.0614
1315.00,0.0604
1314.00,0.0594
1313.00,0.0584
1312.00,0.0575
1311.00,0.0569
1310.00,0.0567
1309.00,0.0569
1308.00,0.0574
1307.00,0.0584
1306.00,0.0597
1305.00,0.0612
1304.00,0.0631
1303.00,0.0652
1302.00,0.0677
1301.00,0.0709
1300.00,0.0748
1299.00,0.0796
1298.00,0.0857
1297.00,0.0929
1296.00,0.1011
1295.00,0.1100
1294.00,0.1192
1293.00,0.1281
1292.00,0.1363
1291.00,0.1435
1290.00,0.1496
1289.00,0.1545
1288.00,0.1582
1287.00,0.1607
1286.00,0.1618
1285.00,0.1615
1284.00,0.1599
1283.00,0.1571
1282.00,0.1534
1281.00,0.1494
1280.00,0.1454
1279.00,0.1417
1278.00,0.1388
1277.00,0.1366
1276.00,0.1351
1275.00,0.1341
1274.00,0.1332
1273.00,0.1322
1272.00,0.1307
1271.00,0.1285
1270.00,0.1254
1269.00,0.1216
1268.00,0.1170
1267.00,0.1120
1266.00,0.1066
1265.00,0.1013
1264.00,0.0960
1263.00,0.0909
1262.00,0.0861
1261.00,0.0816
1260.00,0.0774
1259.00,0.0735
1258.00,0.0700
1257.00,0.0667
1256.00,0.0638
1255.00,0.0612
1254.00,0.0590
1253.00,0.0573
1252.00,0.0559
1251.00,0.0551
1250.00,0.0547
1249.00,0.0550
1248.00,0.0559
1247.00,0.0573
1246.00,0.0594
1245.00,0.0620
1244.00,0.0649
1243.00,0.0680
1242.00,0.0711
1241.00,0.0739
1240.00,0.0763
1239.00,0.0782
1238.00,0.0798
1237.00,0.0810
1236.00,0.0819
1235.00,0.0825
1234.00,0.0829
1233.00,0.0829
1232.00,0.0826
1231.00,0.0820
1230.00,0.0812
1229.00,0.0802
1228.00,0.0793
1227.00,0.0784
1226.00,0.0777
1225.00,0.0771
1224.00,0.0768
1223.00,0.0767
1222.00,0.0767
1221.00,0.0770
1220.00,0.0772
1219.00,0.0774
1218.00,0.0773
1217.00,0.0767
1216.00,0.0756
1215.00,0.0738
1214.00,0.0714
1213.00,0.0685
1212.00,0.0653
1211.00,0.0621
1210.00,0.0591
1209.00,0.0564
1208.00,0.0541
1207.00,0.0523
1206.00,0.0511
1205.00,0.0505
1204.00,0.0505
1203.00,0.0512
1202.00,0.0526
1201.00,0.0546
1200.00,0.0573
1199.00,0.0604
1198.00,0.0638
1197.00,0.0673
1196.00,0.0707
1195.00,0.0735
1194.00,0.0753
1193.00,0.0760
1192.00,0.0752
1191.00,0.0731
1190.00,0.0700
1189.00,0.0662
1188.00,0.0623
1187.00,0.0585
1186.00,0.0550
1185.00,0.0520
1184.00,0.0495
1183.00,0.0474
1182.00,0.0457
1181.00,0.0444
1180.00,0.0434
1179.00,0.0428
1178.00,0.0425
1177.00,0.0424
1176.00,0.0425
1175.00,0.0427
1174.00,0.0430
1173.00,0.0434
1172.00,0.0438
1171.00,0.0441
1170.00,0.0444
1169.00,0.0446
1168.00,0.0449
1167.00,0.0452
1166.00,0.0459
1165.00,0.0469
1164.00,0.0486
1163.00,0.0509
1162.00,0.0540
1161.00,0.0578
1160.00,0.0619
1159.00,0.0660
1158.00,0.0695
1157.00,0.0720
1156.00,0.0731
1155.00,0.0727
1154.00,0.0709
1153.00,0.0681
1152.00,0.0644
1151.00,0.0603
1150.00,0.0561
1149.00,0.0519
1148.00,0.0479
1147.00,0.0443
1146.00,0.0412
1145.00,0.0388
1144.00,0.0368
1143.00,0.0353
1142.00,0.0343
1141.00,0.0337
1140.00,0.0336
1139.00,0.0341
1138.00,0.0352
1137.00,0.0372
1136.00,0.0401
1135.00,0.0442
1134.00,0.0494
1133.00,0.0554
1132.00,0.0617
1131.00,0.0673
1130.00,0.0712
1129.00,0.0727
1128.00,0.0715
1127.00,0.0680
1126.00,0.0629
1125.00,0.0572
1124.00,0.0518
1123.00,0.0471
1122.00,0.0433
1121.00,0.0404
1120.00,0.0382
1119.00,0.0367
1118.00,0.0356
1117.00,0.0349
1116.00,0.0346
1115.00,0.0345
1114.00,0.0346
1113.00,0.0348
1112.00,0.0352
1111.00,0.0355
1110.00,0.0360
1109.00,0.0366
1108.00,0.0372
1107.00,0.0382
1106.00,0.0394
1105.00,0.0410
1104.00,0.0429
1103.00,0.0451
1102.00,0.0471
1101.00,0.0487
1100.00,0.0496
1099.00,0.0495
1098.00,0.0485
1097.00,0.0468
1096.00,0.0448
1095.00,0.0426
1094.00,0.0405
1093.00,0.0385
1092.00,0.0368
1091.00,0.0352
1090.00,0.0339
1089.00,0.0329
1088.00,0.0321
1087.00,0.0315
1086.00,0.0312
1085.00,0.0311
1084.00,0.0311
1083.00,0.0313
1082.00,0.0318
1081.00,0.0324
1080.00,0.0332
1079.00,0.0341
1078.00,0.0353
1077.00,0.0366
1076.00,0.0380
1075.00,0.0395
1074.00,0.0411
1073.00,0.0430
1072.00,0.0451
1071.00,0.0476
1070.00,0.0506
1069.00,0.0543
1068.00,0.0586
1067.00,0.0637
1066.00,0.0695
1065.00,0.0759
1064.00,0.0829
1063.00,0.0903
1062.00,0.0979
1061.00,0.1054
1060.00,0.1123
1059.00,0.1180
1058.00,0.1220
1057.00,0.1237
1056.00,0.1229
1055.00,0.1197
1054.00,0.1143
1053.00,0.1074
1052.00,0.0998
1051.00,0.0923
1050.00,0.0854
1049.00,0.0795
1048.00,0.0749
1047.00,0.0716
1046.00,0.0696
1045.00,0.0686
1044.00,0.0683
1043.00,0.0686
1042.00,0.0694
1041.00,0.0704
1040.00,0.0715
1039.00,0.0726
1038.00,0.0737
1037.00,0.0748
1036.00,0.0760
1035.00,0.0773
1034.00,0.0788
1033.00,0.0804
1032.00,0.0820
1031.00,0.0833
1030.00,0.0836
1029.00,0.0828
1028.00,0.0807
1027.00,0.0776
1026.00,0.0739
1025.00,0.0702
1024.00,0.0668
1023.00,0.0639
1022.00,0.0614
1021.00,0.0594
1020.00,0.0577
1019.00,0.0562
1018.00,0.0547
1017.00,0.0533
1016.00,0.0516
1015.00,0.0497
1014.00,0.0477
1013.00,0.0457
1012.00,0.0440
1011.00,0.0427
1010.00,0.0420
1009.00,0.0420
1008.00,0.0426
1007.00,0.0439
1006.00,0.0455
1005.00,0.0472
1004.00,0.0486
1003.00,0.0495
1002.00,0.0497
1001.00,0.0492
1000.00,0.0482
999.00,0.0470
998.00,0.0457
997.00,0.0445
996.00,0.0434
995.00,0.0424
994.00,0.0414
993.00,0.0405
992.00,0.0395
991.00,0.0385
990.00,0.0374
989.00,0.0362
988.00,0.0350
987.00,0.0337
986.00,0.0325
985.00,0.0315
984.00,0.0306
983.00,0.0299
982.00,0.0295
981.00,0.0293
980.00,0.0293
979.00,0.0294
978.00,0.0295
977.00,0.0297
976.00,0.0298
975.00,0.0297
974.00,0.0295
973.00,0.0291
972.00,0.0286
971.00,0.0281
970.00,0.0275
969.00,0.0269
968.00,0.0264
967.00,0.0259
966.00,0.0254
965.00,0.0250
964.00,0.0246
963.00,0.0243
962.00,0.0239
961.00,0.0236
960.00,0.0232
959.00,0.0228
958.00,0.0224
957.00,0.0220
956.00,0.0216
955.00,0.0213
954.00,0.0210
953.00,0.0208
952.00,0.0206
951.00,0.0206
950.00,0.0205
949.00,0.0206
948.00,0.0207
947.00,0.0208
946.00,0.0210
945.00,0.0213
944.00,0.0217
943.00,0.0222
942.00,0.0229
941.00,0.0239
940.00,0.0251
939.00,0.0266
938.00,0.0283
937.00,0.0301
936.00,0.0318
935.00,0.0332
934.00,0.0343
933.00,0.0349
932.00,0.0349
931.00,0.0346
930.00,0.0342
929.00,0.0339
928.00,0.0338
927.00,0.0339
926.00,0.0341
925.00,0.0342
924.00,0.0341
923.00,0.0337
922.00,0.0332
921.00,0.0326
920.00,0.0319
919.00,0.0312
918.00,0.0304
917.00,0.0295
916.00,0.0286
915.00,0.0278
914.00,0.0271
913.00,0.0265
912.00,0.0260
911.00,0.0258
910.00,0.0257
909.00,0.0259
908.00,0.0262
907.00,0.0267
906.00,0.0276
905.00,0.0286
904.00,0.0300
903.00,0.0316
902.00,0.0333
901.00,0.0351
900.00,0.0369
899.00,0.0384
898.00,0.0396
897.00,0.0403
896.00,0.0405
895.00,0.0401
894.00,0.0392
893.00,0.0380
892.00,0.0366
891.00,0.0352
890.00,0.0339
889.00,0.0329
888.00,0.0323
887.00,0.0320
886.00,0.0320
885.00,0.0323
884.00,0.0327
883.00,0.0335
882.00,0.0345
881.00,0.0358
880.00,0.0374
879.00,0.0392
878.00,0.0413
877.00,0.0436
876.00,0.0459
875.00,0.0483
874.00,0.0506
873.00,0.0526
872.00,0.0542
871.00,0.0554
870.00,0.0561
869.00,0.0563
868.00,0.0562
867.00,0.0559
866.00,0.0555
865.00,0.0552
864.00,0.0549
863.00,0.0547
862.00,0.0545
861.00,0.0542
860.00,0.0541
859.00,0.0541
858.00,0.0544
857.00,0.0549
856.00,0.0556
855.00,0.0565
854.00,0.0576
853.00,0.0587
852.00,0.0598
851.00,0.0610
850.00,0.0621
849.00,0.0631
848.00,0.0640
847.00,0.0647
846.00,0.0653
845.00,0.0657
844.00,0.0661
843.00,0.0663
842.00,0.0664
841.00,0.0663
840.00,0.0663
839.00,0.0662
838.00,0.0662
837.00,0.0663
836.00,0.0664
835.00,0.0667
834.00,0.0670
833.00,0.0672
832.00,0.0674
831.00,0.0675
830.00,0.0676
829.00,0.0675
828.00,0.0674
827.00,0.0673
826.00,0.0674
825.00,0.0676
824.00,0.0681
823.00,0.0689
822.00,0.0701
821.00,0.0715
820.00,0.0731
819.00,0.0747
818.00,0.0763
817.00,0.0778
816.00,0.0792
815.00,0.0804
814.00,0.0811
813.00,0.0813
812.00,0.0806
811.00,0.0787
810.00,0.0756
809.00,0.0714
808.00,0.0664
807.00,0.0611
806.00,0.0561
805.00,0.0517
804.00,0.0481
803.00,0.0452
802.00,0.0431
801.00,0.0415
800.00,0.0405
799.00,0.0398
798.00,0.0394
797.00,0.0392
796.00,0.0391
795.00,0.0391
794.00,0.0392
793.00,0.0393
792.00,0.0394
791.00,0.0395
790.00,0.0396
789.00,0.0396
788.00,0.0396
787.00,0.0395
786.00,0.0395
785.00,0.0396
784.00,0.0398
783.00,0.0401
782.00,0.0405
781.00,0.0412
780.00,0.0421
779.00,0.0430
778.00,0.0438
777.00,0.0443
776.00,0.0443
775.00,0.0436
774.00,0.0426
773.00,0.0417
772.00,0.0411
771.00,0.0409
770.00,0.0410
769.00,0.0412
768.00,0.0415
767.00,0.0418
766.00,0.0421
765.00,0.0426
764.00,0.0431
763.00,0.0437
762.00,0.0444
761.00,0.0452
760.00,0.0461
759.00,0.0470
758.00,0.0479
757.00,0.0488
756.00,0.0497
755.00,0.0506
754.00,0.0514
753.00,0.0523
752.00,0.0531
751.00,0.0540
750.00,0.0548
749.00,0.0558
748.00,0.0567
747.00,0.0578
746.00,0.0589
745.00,0.0602
744.00,0.0616
743.00,0.0634
742.00,0.0655
741.00,0.0680
740.00,0.0709
739.00,0.0738
738.00,0.0764
737.00,0.0782
736.00,0.0788
735.00,0.0780
734.00,0.0763
733.00,0.0738
732.00,0.0711
731.00,0.0684
730.00,0.0660
729.00,0.0637
728.00,0.0617
727.00,0.0598
726.00,0.0582
725.00,0.0567
724.00,0.0554
723.00,0.0542
722.00,0.0531
721.00,0.0522
720.00,0.0515
719.00,0.0511
718.00,0.0509
717.00,0.0507
716.00,0.0506
715.00,0.0506
714.00,0.0506
713.00,0.0504
712.00,0.0502
711.00,0.0498
710.00,0.0493
709.00,0.0487
708.00,0.0483
707.00,0.0480
706.00,0.0478
705.00,0.0478
704.00,0.0479
703.00,0.0479
702.00,0.0479
701.00,0.0480
700.00,0.0483
699.00,0.0488
698.00,0.0498
697.00,0.0511
696.00,0.0528
695.00,0.0547
694.00,0.0567
693.00,0.0586
692.00,0.0603
691.00,0.0616
690.00,0.0625
689.00,0.0630
688.00,0.0630
687.00,0.0626
686.00,0.0619
685.00,0.0610
684.00,0.0601
683.00,0.0592
682.00,0.0585
681.00,0.0580
680.00,0.0578
679.00,0.0577
678.00,0.0577
677.00,0.0579
676.00,0.0582
675.00,0.0588
674.00,0.0595
673.00,0.0604
672.00,0.0615
671.00,0.0625
670.00,0.0636
669.00,0.0651
668.00,0.0671
667.00,0.0689
666.00,0.0700
665.00,0.0707
664.00,0.0715
663.00,0.0727
662.00,0.0740
661.00,0.0755
660.00,0.0770
659.00,0.0786
658.00,0.0802
657.00,0.0818
656.00,0.0833
655.00,0.0847
654.00,0.0860
653.00,0.0872
652.00,0.0882
651.00,0.0890
650.00,0.0895
649.00,0.0897
648.00,0.0895
647.00,0.0890
646.00,0.0882
645.00,0.0871
644.00,0.0858
643.00,0.0842
642.00,0.0825
641.00,0.0807
640.00,0.0789
639.00,0.0772
638.00,0.0756
637.00,0.0741
636.00,0.0727
635.00,0.0713
634.00,0.0701
633.00,0.0690
632.00,0.0681
631.00,0.0673
630.00,0.0668
629.00,0.0665
628.00,0.0663
627.00,0.0663
626.00,0.0663
625.00,0.0664
624.00,0.0663
623.00,0.0662
622.00,0.0660
621.00,0.0657
620.00,0.0653
619.00,0.0647
618.00,0.0641
617.00,0.0635
616.00,0.0629
615.00,0.0623
614.00,0.0620
613.00,0.0617
612.00,0.0617
611.00,0.0620
610.00,0.0624
609.00,0.0629
608.00,0.0635
607.00,0.0642
606.00,0.0648
605.00,0.0654
604.00,0.0659
603.00,0.0664
602.00,0.0669
601.00,0.0673
600.00,0.0677
599.00,0.0679
598.00,0.0679
597.00,0.0676
596.00,0.0671
595.00,0.0665
594.00,0.0660
593.00,0.0657
592.00,0.0656
591.00,0.0659
590.00,0.0667
589.00,0.0683
588.00,0.0707
587.00,0.0741
586.00,0.0782
585.00,0.0827
584.00,0.0868
583.00,0.0901
582.00,0.0925
581.00,0.0938
580.00,0.0943
579.00,0.0941
578.00,0.0934
577.00,0.0925
576.00,0.0915
575.00,0.0905
574.00,0.0895
573.00,0.0886
572.00,0.0878
571.00,0.0873
570.00,0.0868
569.00,0.0865
568.00,0.0862
567.00,0.0858
566.00,0.0853
565.00,0.0845
564.00,0.0835
563.00,0.0823
562.00,0.0810
561.00,0.0799
560.00,0.0789
559.00,0.0781
558.00,0.0775
557.00,0.0769
556.00,0.0761
555.00,0.0749
554.00,0.0736
553.00,0.0722
552.00,0.0712
551.00,0.0706
550.00,0.0702
549.00,0.0698
548.00,0.0690
547.00,0.0679
546.00,0.0667
545.00,0.0654
544.00,0.0642
543.00,0.0633
542.00,0.0625
541.00,0.0620
540.00,0.0617
539.00,0.0620
538.00,0.0628
537.00,0.0641
536.00,0.0657
535.00,0.0675
534.00,0.0692
533.00,0.0707
532.00,0.0718
531.00,0.0722
530.00,0.0720
529.00,0.0711
528.00,0.0698
527.00,0.0680
526.00,0.0661
525.00,0.0641
524.00,0.0623
523.00,0.0607
522.00,0.0594
521.00,0.0582
520.00,0.0572
519.00,0.0564
518.00,0.0559
517.00,0.0555
516.00,0.0550
515.00,0.0547
514.00,0.0546
513.00,0.0548
512.00,0.0551
511.00,0.0556
510.00,0.0562
509.00,0.0569
508.00,0.0574
507.00,0.0576
506.00,0.0574
505.00,0.0569
504.00,0.0562
503.00,0.0554
502.00,0.0546
501.00,0.0539
500.00,0.0534
499.00,0.0531
498.00,0.0531
497.00,0.0530
496.00,0.0529
495.00,0.0528
494.00,0.0527
493.00,0.0528
492.00,0.0529
491.00,0.0533
490.00,0.0538
489.00,0.0544
488.00,0.0547
487.00,0.0549
486.00,0.0550
485.00,0.0550
484.00,0.0548
483.00,0.0545
482.00,0.0544
481.00,0.0543
480.00,0.0543
479.00,0.0543
478.00,0.0543
477.00,0.0542
476.00,0.0540
475.00,0.0539
474.00,0.0539
473.00,0.0539
472.00,0.0536
471.00,0.0531
470.00,0.0528
469.00,0.0525
468.00,0.0522
467.00,0.0519
466.00,0.0516
465.00,0.0515
464.00,0.0516
463.00,0.0519
462.00,0.0523
461.00,0.0523
460.00,0.0518
459.00,0.0512
458.00,0.0508
457.00,0.0505
456.00,0.0502
455.00,0.0500
454.00,0.0499
453.00,0.0500
452.00,0.0500
451.00,0.0500
450.00,0.0500
449.00,0.0499
448.00,0.0496
447.00,0.0492
446.00,0.0490
445.00,0.0489
444.00,0.0489
443.00,0.0488
442.00,0.0487
441.00,0.0484
440.00,0.0482
439.00,0.0480
438.00,0.0480
437.00,0.0482
436.00,0.0483
435.00,0.0483
434.00,0.0481
433.00,0.0477
432.00,0.0473
431.00,0.0472
430.00,0.0473
429.00,0.0475
428.00,0.0476
427.00,0.0477
426.00,0.0476
425.00,0.0476
424.00,0.0477
423.00,0.0480
422.00,0.0484
421.00,0.0485
420.00,0.0482
419.00,0.0480
418.00,0.0486
417.00,0.0496
416.00,0.0509
415.00,0.0523
414.00,0.0540
413.00,0.0556
412.00,0.0566
411.00,0.0568
410.00,0.0564
409.00,0.0558
408.00,0.0550
407.00,0.0544
406.00,0.0540
405.00,0.0536
404.00,0.0530
403.00,0.0523
402.00,0.0516
401.00,0.0503
400.00,0.0486
