Created as New Dataset,Sample 273 By YargerLab Date Saturday, October 18 2025
cm-1,A
4000.00,0.0077
3999.00,0.0076
3998.00,0.0076
3997.00,0.0076
3996.00,0.0076
3995.00,0.0076
3994.00,0.0076
3993.00,0.0076
3992.00,0.0076
3991.00,0.0076
3990.00,0.0076
3989.00,0.0076
3988.00,0.0076
3987.00,0.0076
3986.00,0.0076
3985.00,0.0076
3984.00,0.0076
3983.00,0.0076
3982.00,0.0076
3981.00,0.0077
3980.00,0.0077
3979.00,0.0077
3978.00,0.0077
3977.00,0.0077
3976.00,0.0077
3975.00,0.0076
3974.00,0.0076
3973.00,0.0076
3972.00,0.0076
3971.00,0.0076
3970.00,0.0076
3969.00,0.0076
3968.00,0.0076
3967.00,0.0076
3966.00,0.0077
3965.00,0.0076
3964.00,0.0076
3963.00,0.0076
3962.00,0.0076
3961.00,0.0076
3960.00,0.0076
3959.00,0.0076
3958.00,0.0076
3957.00,0.0076
3956.00,0.0076
3955.00,0.0076
3954.00,0.0076
3953.00,0.0076
3952.00,0.0076
3951.00,0.0076
3950.00,0.0076
3949.00,0.0076
3948.00,0.0076
3947.00,0.0076
3946.00,0.0076
3945.00,0.0076
3944.00,0.0076
3943.00,0.0076
3942.00,0.0076
3941.00,0.0076
3940.00,0.0076
3939.00,0.0076
3938.00,0.0076
3937.00,0.0076
3936.00,0.0076
3935.00,0.0076
3934.00,0.0076
3933.00,0.0076
3932.00,0.0076
3931.00,0.0076
3930.00,0.0076
3929.00,0.0076
3928.00,0.0076
3927.00,0.0076
3926.00,0.0076
3925.00,0.0076
3924.00,0.0076
3923.00,0.0076
3922.00,0.0076
3921.00,0.0076
3920.00,0.0077
3919.00,0.0077
3918.00,0.0077
3917.00,0.0076
3916.00,0.0076
3915.00,0.0076
3914.00,0.0076
3913.00,0.0076
3912.00,0.0076
3911.00,0.0076
3910.00,0.0076
3909.00,0.0076
3908.00,0.0076
3907.00,0.0076
3906.00,0.0077
3905.00,0.0077
3904.00,0.0077
3903.00,0.0077
3902.00,0.0077
3901.00,0.0076
3900.00,0.0076
3899.00,0.0076
3898.00,0.0076
3897.00,0.0076
3896.00,0.0076
3895.00,0.0076
3894.00,0.0076
3893.00,0.0076
3892.00,0.0076
3891.00,0.0076
3890.00,0.0076
3889.00,0.0076
3888.00,0.0076
3887.00,0.0076
3886.00,0.0076
3885.00,0.0076
3884.00,0.0076
3883.00,0.0076
3882.00,0.0076
3881.00,0.0076
3880.00,0.0076
3879.00,0.0076
3878.00,0.0076
3877.00,0.0076
3876.00,0.0075
3875.00,0.0076
3874.00,0.0076
3873.00,0.0076
3872.00,0.0077
3871.00,0.0077
3870.00,0.0077
3869.00,0.0076
3868.00,0.0076
3867.00,0.0076
3866.00,0.0076
3865.00,0.0076
3864.00,0.0076
3863.00,0.0076
3862.00,0.0076
3861.00,0.0076
3860.00,0.0076
3859.00,0.0076
3858.00,0.0076
3857.00,0.0076
3856.00,0.0076
3855.00,0.0075
3854.00,0.0075
3853.00,0.0075
3852.00,0.0075
3851.00,0.0075
3850.00,0.0076
3849.00,0.0076
3848.00,0.0076
3847.00,0.0076
3846.00,0.0076
3845.00,0.0076
3844.00,0.0076
3843.00,0.0076
3842.00,0.0075
3841.00,0.0075
3840.00,0.0075
3839.00,0.0075
3838.00,0.0075
3837.00,0.0075
3836.00,0.0075
3835.00,0.0075
3834.00,0.0075
3833.00,0.0076
3832.00,0.0076
3831.00,0.0076
3830.00,0.0076
3829.00,0.0076
3828.00,0.0076
3827.00,0.0076
3826.00,0.0076
3825.00,0.0076
3824.00,0.0076
3823.00,0.0076
3822.00,0.0076
3821.00,0.0076
3820.00,0.0076
3819.00,0.0076
3818.00,0.0076
3817.00,0.0076
3816.00,0.0076
3815.00,0.0076
3814.00,0.0076
3813.00,0.0076
3812.00,0.0076
3811.00,0.0075
3810.00,0.0075
3809.00,0.0075
3808.00,0.0075
3807.00,0.0075
3806.00,0.0075
3805.00,0.0075
3804.00,0.0075
3803.00,0.0075
3802.00,0.0075
3801.00,0.0075
3800.00,0.0075
3799.00,0.0075
3798.00,0.0075
3797.00,0.0075
3796.00,0.0075
3795.00,0.0075
3794.00,0.0076
3793.00,0.0076
3792.00,0.0076
3791.00,0.0076
3790.00,0.0076
3789.00,0.0076
3788.00,0.0076
3787.00,0.0076
3786.00,0.0076
3785.00,0.0076
3784.00,0.0076
3783.00,0.0076
3782.00,0.0076
3781.00,0.0076
3780.00,0.0076
3779.00,0.0076
3778.00,0.0076
3777.00,0.0076
3776.00,0.0076
3775.00,0.0076
3774.00,0.0076
3773.00,0.0076
3772.00,0.0077
3771.00,0.0077
3770.00,0.0077
3769.00,0.0077
3768.00,0.0077
3767.00,0.0077
3766.00,0.0077
3765.00,0.0076
3764.00,0.0076
3763.00,0.0075
3762.00,0.0075
3761.00,0.0075
3760.00,0.0076
3759.00,0.0076
3758.00,0.0076
3757.00,0.0076
3756.00,0.0076
3755.00,0.0076
3754.00,0.0076
3753.00,0.0075
3752.00,0.0075
3751.00,0.0075
3750.00,0.0075
3749.00,0.0075
3748.00,0.0076
3747.00,0.0076
3746.00,0.0076
3745.00,0.0076
3744.00,0.0076
3743.00,0.0076
3742.00,0.0076
3741.00,0.0076
3740.00,0.0075
3739.00,0.0075
3738.00,0.0075
3737.00,0.0075
3736.00,0.0074
3735.00,0.0074
3734.00,0.0074
3733.00,0.0074
3732.00,0.0074
3731.00,0.0074
3730.00,0.0075
3729.00,0.0075
3728.00,0.0075
3727.00,0.0075
3726.00,0.0075
3725.00,0.0075
3724.00,0.0075
3723.00,0.0075
3722.00,0.0075
3721.00,0.0075
3720.00,0.0075
3719.00,0.0075
3718.00,0.0075
3717.00,0.0075
3716.00,0.0075
3715.00,0.0075
3714.00,0.0074
3713.00,0.0074
3712.00,0.0074
3711.00,0.0074
3710.00,0.0074
3709.00,0.0074
3708.00,0.0074
3707.00,0.0074
3706.00,0.0074
3705.00,0.0074
3704.00,0.0074
3703.00,0.0074
3702.00,0.0074
3701.00,0.0074
3700.00,0.0074
3699.00,0.0074
3698.00,0.0074
3697.00,0.0074
3696.00,0.0074
3695.00,0.0075
3694.00,0.0075
3693.00,0.0075
3692.00,0.0075
3691.00,0.0075
3690.00,0.0075
3689.00,0.0074
3688.00,0.0074
3687.00,0.0074
3686.00,0.0075
3685.00,0.0075
3684.00,0.0075
3683.00,0.0075
3682.00,0.0075
3681.00,0.0075
3680.00,0.0075
3679.00,0.0075
3678.00,0.0076
3677.00,0.0076
3676.00,0.0076
3675.00,0.0076
3674.00,0.0076
3673.00,0.0076
3672.00,0.0075
3671.00,0.0075
3670.00,0.0075
3669.00,0.0075
3668.00,0.0075
3667.00,0.0075
3666.00,0.0075
3665.00,0.0076
3664.00,0.0076
3663.00,0.0076
3662.00,0.0076
3661.00,0.0076
3660.00,0.0076
3659.00,0.0076
3658.00,0.0076
3657.00,0.0076
3656.00,0.0076
3655.00,0.0076
3654.00,0.0076
3653.00,0.0076
3652.00,0.0077
3651.00,0.0077
3650.00,0.0077
3649.00,0.0078
3648.00,0.0078
3647.00,0.0078
3646.00,0.0078
3645.00,0.0078
3644.00,0.0078
3643.00,0.0078
3642.00,0.0078
3641.00,0.0077
3640.00,0.0077
3639.00,0.0077
3638.00,0.0077
3637.00,0.0078
3636.00,0.0078
3635.00,0.0078
3634.00,0.0078
3633.00,0.0078
3632.00,0.0078
3631.00,0.0079
3630.00,0.0079
3629.00,0.0079
3628.00,0.0079
3627.00,0.0079
3626.00,0.0079
3625.00,0.0079
3624.00,0.0079
3623.00,0.0079
3622.00,0.0080
3621.00,0.0080
3620.00,0.0081
3619.00,0.0080
3618.00,0.0080
3617.00,0.0080
3616.00,0.0080
3615.00,0.0080
3614.00,0.0081
3613.00,0.0081
3612.00,0.0081
3611.00,0.0081
3610.00,0.0081
3609.00,0.0081
3608.00,0.0081
3607.00,0.0081
3606.00,0.0081
3605.00,0.0081
3604.00,0.0081
3603.00,0.0081
3602.00,0.0081
3601.00,0.0081
3600.00,0.0081
3599.00,0.0081
3598.00,0.0082
3597.00,0.0082
3596.00,0.0082
3595.00,0.0083
3594.00,0.0083
3593.00,0.0083
3592.00,0.0083
3591.00,0.0083
3590.00,0.0084
3589.00,0.0084
3588.00,0.0084
3587.00,0.0084
3586.00,0.0084
3585.00,0.0084
3584.00,0.0085
3583.00,0.0085
3582.00,0.0085
3581.00,0.0085
3580.00,0.0084
3579.00,0.0085
3578.00,0.0085
3577.00,0.0085
3576.00,0.0086
3575.00,0.0086
3574.00,0.0086
3573.00,0.0086
3572.00,0.0086
3571.00,0.0086
3570.00,0.0086
3569.00,0.0087
3568.00,0.0087
3567.00,0.0087
3566.00,0.0087
3565.00,0.0088
3564.00,0.0088
3563.00,0.0088
3562.00,0.0088
3561.00,0.0089
3560.00,0.0089
3559.00,0.0089
3558.00,0.0089
3557.00,0.0089
3556.00,0.0089
3555.00,0.0089
3554.00,0.0090
3553.00,0.0090
3552.00,0.0090
3551.00,0.0090
3550.00,0.0090
3549.00,0.0091
3548.00,0.0091
3547.00,0.0092
3546.00,0.0092
3545.00,0.0092
3544.00,0.0092
3543.00,0.0092
3542.00,0.0092
3541.00,0.0092
3540.00,0.0093
3539.00,0.0093
3538.00,0.0093
3537.00,0.0093
3536.00,0.0093
3535.00,0.0093
3534.00,0.0094
3533.00,0.0094
3532.00,0.0094
3531.00,0.0094
3530.00,0.0094
3529.00,0.0095
3528.00,0.0095
3527.00,0.0096
3526.00,0.0096
3525.00,0.0096
3524.00,0.0096
3523.00,0.0097
3522.00,0.0097
3521.00,0.0097
3520.00,0.0097
3519.00,0.0097
3518.00,0.0098
3517.00,0.0098
3516.00,0.0098
3515.00,0.0099
3514.00,0.0099
3513.00,0.0099
3512.00,0.0099
3511.00,0.0099
3510.00,0.0099
3509.00,0.0099
3508.00,0.0099
3507.00,0.0100
3506.00,0.0100
3505.00,0.0100
3504.00,0.0101
3503.00,0.0101
3502.00,0.0101
3501.00,0.0102
3500.00,0.0102
3499.00,0.0102
3498.00,0.0102
3497.00,0.0103
3496.00,0.0103
3495.00,0.0103
3494.00,0.0103
3493.00,0.0104
3492.00,0.0104
3491.00,0.0104
3490.00,0.0104
3489.00,0.0104
3488.00,0.0104
3487.00,0.0104
3486.00,0.0104
3485.00,0.0105
3484.00,0.0105
3483.00,0.0105
3482.00,0.0105
3481.00,0.0106
3480.00,0.0106
3479.00,0.0106
3478.00,0.0106
3477.00,0.0107
3476.00,0.0107
3475.00,0.0107
3474.00,0.0107
3473.00,0.0108
3472.00,0.0108
3471.00,0.0109
3470.00,0.0109
3469.00,0.0109
3468.00,0.0109
3467.00,0.0109
3466.00,0.0109
3465.00,0.0110
3464.00,0.0111
3463.00,0.0111
3462.00,0.0111
3461.00,0.0112
3460.00,0.0112
3459.00,0.0112
3458.00,0.0112
3457.00,0.0112
3456.00,0.0112
3455.00,0.0112
3454.00,0.0112
3453.00,0.0112
3452.00,0.0113
3451.00,0.0113
3450.00,0.0113
3449.00,0.0114
3448.00,0.0114
3447.00,0.0114
3446.00,0.0114
3445.00,0.0114
3444.00,0.0115
3443.00,0.0115
3442.00,0.0115
3441.00,0.0116
3440.00,0.0116
3439.00,0.0116
3438.00,0.0116
3437.00,0.0117
3436.00,0.0117
3435.00,0.0117
3434.00,0.0117
3433.00,0.0118
3432.00,0.0118
3431.00,0.0118
3430.00,0.0118
3429.00,0.0118
3428.00,0.0118
3427.00,0.0119
3426.00,0.0119
3425.00,0.0120
3424.00,0.0120
3423.00,0.0120
3422.00,0.0121
3421.00,0.0121
3420.00,0.0121
3419.00,0.0121
3418.00,0.0121
3417.00,0.0121
3416.00,0.0122
3415.00,0.0122
3414.00,0.0123
3413.00,0.0123
3412.00,0.0123
3411.00,0.0124
3410.00,0.0124
3409.00,0.0124
3408.00,0.0125
3407.00,0.0125
3406.00,0.0125
3405.00,0.0126
3404.00,0.0126
3403.00,0.0126
3402.00,0.0126
3401.00,0.0126
3400.00,0.0126
3399.00,0.0127
3398.00,0.0127
3397.00,0.0128
3396.00,0.0128
3395.00,0.0129
3394.00,0.0129
3393.00,0.0129
3392.00,0.0129
3391.00,0.0130
3390.00,0.0131
3389.00,0.0132
3388.00,0.0133
3387.00,0.0133
3386.00,0.0133
3385.00,0.0134
3384.00,0.0134
3383.00,0.0135
3382.00,0.0135
3381.00,0.0136
3380.00,0.0136
3379.00,0.0136
3378.00,0.0137
3377.00,0.0138
3376.00,0.0138
3375.00,0.0139
3374.00,0.0139
3373.00,0.0139
3372.00,0.0139
3371.00,0.0139
3370.00,0.0139
3369.00,0.0139
3368.00,0.0140
3367.00,0.0141
3366.00,0.0142
3365.00,0.0143
3364.00,0.0144
3363.00,0.0145
3362.00,0.0145
3361.00,0.0146
3360.00,0.0146
3359.00,0.0147
3358.00,0.0148
3357.00,0.0148
3356.00,0.0149
3355.00,0.0149
3354.00,0.0149
3353.00,0.0149
3352.00,0.0149
3351.00,0.0149
3350.00,0.0150
3349.00,0.0151
3348.00,0.0152
3347.00,0.0152
3346.00,0.0153
3345.00,0.0153
3344.00,0.0153
3343.00,0.0154
3342.00,0.0154
3341.00,0.0154
3340.00,0.0154
3339.00,0.0155
3338.00,0.0156
3337.00,0.0157
3336.00,0.0158
3335.00,0.0158
3334.00,0.0159
3333.00,0.0160
3332.00,0.0160
3331.00,0.0160
3330.00,0.0161
3329.00,0.0161
3328.00,0.0161
3327.00,0.0161
3326.00,0.0161
3325.00,0.0162
3324.00,0.0163
3323.00,0.0164
3322.00,0.0164
3321.00,0.0165
3320.00,0.0166
3319.00,0.0166
3318.00,0.0167
3317.00,0.0167
3316.00,0.0168
3315.00,0.0168
3314.00,0.0169
3313.00,0.0169
3312.00,0.0169
3311.00,0.0169
3310.00,0.0169
3309.00,0.0168
3308.00,0.0168
3307.00,0.0168
3306.00,0.0169
3305.00,0.0170
3304.00,0.0171
3303.00,0.0173
3302.00,0.0174
3301.00,0.0175
3300.00,0.0175
3299.00,0.0175
3298.00,0.0175
3297.00,0.0175
3296.00,0.0175
3295.00,0.0176
3294.00,0.0176
3293.00,0.0177
3292.00,0.0178
3291.00,0.0178
3290.00,0.0179
3289.00,0.0180
3288.00,0.0180
3287.00,0.0181
3286.00,0.0181
3285.00,0.0181
3284.00,0.0182
3283.00,0.0182
3282.00,0.0183
3281.00,0.0183
3280.00,0.0183
3279.00,0.0183
3278.00,0.0183
3277.00,0.0184
3276.00,0.0184
3275.00,0.0184
3274.00,0.0184
3273.00,0.0184
3272.00,0.0184
3271.00,0.0184
3270.00,0.0185
3269.00,0.0185
3268.00,0.0186
3267.00,0.0186
3266.00,0.0187
3265.00,0.0187
3264.00,0.0188
3263.00,0.0188
3262.00,0.0188
3261.00,0.0189
3260.00,0.0189
3259.00,0.0189
3258.00,0.0189
3257.00,0.0189
3256.00,0.0189
3255.00,0.0190
3254.00,0.0190
3253.00,0.0191
3252.00,0.0191
3251.00,0.0191
3250.00,0.0191
3249.00,0.0191
3248.00,0.0191
3247.00,0.0192
3246.00,0.0192
3245.00,0.0193
3244.00,0.0194
3243.00,0.0194
3242.00,0.0194
3241.00,0.0194
3240.00,0.0195
3239.00,0.0195
3238.00,0.0195
3237.00,0.0194
3236.00,0.0194
3235.00,0.0194
3234.00,0.0194
3233.00,0.0194
3232.00,0.0195
3231.00,0.0196
3230.00,0.0196
3229.00,0.0197
3228.00,0.0197
3227.00,0.0197
3226.00,0.0197
3225.00,0.0197
3224.00,0.0198
3223.00,0.0198
3222.00,0.0198
3221.00,0.0198
3220.00,0.0198
3219.00,0.0198
3218.00,0.0198
3217.00,0.0198
3216.00,0.0198
3215.00,0.0198
3214.00,0.0198
3213.00,0.0198
3212.00,0.0198
3211.00,0.0198
3210.00,0.0198
3209.00,0.0198
3208.00,0.0198
3207.00,0.0198
3206.00,0.0198
3205.00,0.0199
3204.00,0.0199
3203.00,0.0199
3202.00,0.0199
3201.00,0.0199
3200.00,0.0199
3199.00,0.0199
3198.00,0.0199
3197.00,0.0199
3196.00,0.0199
3195.00,0.0199
3194.00,0.0199
3193.00,0.0199
3192.00,0.0199
3191.00,0.0199
3190.00,0.0199
3189.00,0.0199
3188.00,0.0200
3187.00,0.0200
3186.00,0.0200
3185.00,0.0200
3184.00,0.0200
3183.00,0.0200
3182.00,0.0200
3181.00,0.0200
3180.00,0.0200
3179.00,0.0200
3178.00,0.0200
3177.00,0.0200
3176.00,0.0201
3175.00,0.0200
3174.00,0.0200
3173.00,0.0200
3172.00,0.0200
3171.00,0.0200
3170.00,0.0200
3169.00,0.0200
3168.00,0.0200
3167.00,0.0200
3166.00,0.0200
3165.00,0.0199
3164.00,0.0199
3163.00,0.0199
3162.00,0.0199
3161.00,0.0199
3160.00,0.0198
3159.00,0.0198
3158.00,0.0197
3157.00,0.0197
3156.00,0.0196
3155.00,0.0196
3154.00,0.0196
3153.00,0.0196
3152.00,0.0196
3151.00,0.0196
3150.00,0.0196
3149.00,0.0196
3148.00,0.0196
3147.00,0.0196
3146.00,0.0195
3145.00,0.0195
3144.00,0.0195
3143.00,0.0195
3142.00,0.0194
3141.00,0.0193
3140.00,0.0193
3139.00,0.0193
3138.00,0.0192
3137.00,0.0192
3136.00,0.0192
3135.00,0.0192
3134.00,0.0192
3133.00,0.0192
3132.00,0.0192
3131.00,0.0192
3130.00,0.0192
3129.00,0.0192
3128.00,0.0192
3127.00,0.0192
3126.00,0.0192
3125.00,0.0192
3124.00,0.0192
3123.00,0.0191
3122.00,0.0191
3121.00,0.0191
3120.00,0.0190
3119.00,0.0190
3118.00,0.0190
3117.00,0.0190
3116.00,0.0190
3115.00,0.0190
3114.00,0.0190
3113.00,0.0189
3112.00,0.0189
3111.00,0.0188
3110.00,0.0188
3109.00,0.0188
3108.00,0.0187
3107.00,0.0187
3106.00,0.0187
3105.00,0.0186
3104.00,0.0186
3103.00,0.0185
3102.00,0.0185
3101.00,0.0185
3100.00,0.0184
3099.00,0.0184
3098.00,0.0184
3097.00,0.0184
3096.00,0.0184
3095.00,0.0184
3094.00,0.0184
3093.00,0.0184
3092.00,0.0184
3091.00,0.0184
3090.00,0.0184
3089.00,0.0184
3088.00,0.0184
3087.00,0.0184
3086.00,0.0184
3085.00,0.0184
3084.00,0.0184
3083.00,0.0184
3082.00,0.0184
3081.00,0.0185
3080.00,0.0185
3079.00,0.0185
3078.00,0.0185
3077.00,0.0184
3076.00,0.0184
3075.00,0.0184
3074.00,0.0184
3073.00,0.0183
3072.00,0.0183
3071.00,0.0183
3070.00,0.0182
3069.00,0.0181
3068.00,0.0181
3067.00,0.0180
3066.00,0.0180
3065.00,0.0179
3064.00,0.0179
3063.00,0.0179
3062.00,0.0178
3061.00,0.0178
3060.00,0.0177
3059.00,0.0177
3058.00,0.0176
3057.00,0.0176
3056.00,0.0176
3055.00,0.0176
3054.00,0.0175
3053.00,0.0175
3052.00,0.0175
3051.00,0.0174
3050.00,0.0174
3049.00,0.0174
3048.00,0.0174
3047.00,0.0173
3046.00,0.0173
3045.00,0.0173
3044.00,0.0172
3043.00,0.0172
3042.00,0.0172
3041.00,0.0172
3040.00,0.0172
3039.00,0.0172
3038.00,0.0171
3037.00,0.0171
3036.00,0.0171
3035.00,0.0170
3034.00,0.0170
3033.00,0.0170
3032.00,0.0170
3031.00,0.0170
3030.00,0.0169
3029.00,0.0169
3028.00,0.0168
3027.00,0.0167
3026.00,0.0167
3025.00,0.0166
3024.00,0.0166
3023.00,0.0165
3022.00,0.0165
3021.00,0.0164
3020.00,0.0163
3019.00,0.0163
3018.00,0.0162
3017.00,0.0162
3016.00,0.0162
3015.00,0.0162
3014.00,0.0162
3013.00,0.0162
3012.00,0.0162
3011.00,0.0162
3010.00,0.0163
3009.00,0.0163
3008.00,0.0164
3007.00,0.0165
3006.00,0.0166
3005.00,0.0167
3004.00,0.0169
3003.00,0.0170
3002.00,0.0172
3001.00,0.0174
3000.00,0.0176
2999.00,0.0179
2998.00,0.0182
2997.00,0.0185
2996.00,0.0189
2995.00,0.0192
2994.00,0.0196
2993.00,0.0201
2992.00,0.0206
2991.00,0.0210
2990.00,0.0216
2989.00,0.0221
2988.00,0.0226
2987.00,0.0231
2986.00,0.0235
2985.00,0.0239
2984.00,0.0243
2983.00,0.0247
2982.00,0.0250
2981.00,0.0253
2980.00,0.0257
2979.00,0.0260
2978.00,0.0262
2977.00,0.0265
2976.00,0.0267
2975.00,0.0268
2974.00,0.0270
2973.00,0.0272
2972.00,0.0274
2971.00,0.0276
2970.00,0.0279
2969.00,0.0282
2968.00,0.0286
2967.00,0.0289
2966.00,0.0293
2965.00,0.0297
2964.00,0.0301
2963.00,0.0305
2962.00,0.0309
2961.00,0.0313
2960.00,0.0317
2959.00,0.0320
2958.00,0.0323
2957.00,0.0326
2956.00,0.0329
2955.00,0.0330
2954.00,0.0331
2953.00,0.0332
2952.00,0.0331
2951.00,0.0330
2950.00,0.0328
2949.00,0.0327
2948.00,0.0325
2947.00,0.0324
2946.00,0.0323
2945.00,0.0324
2944.00,0.0325
2943.00,0.0328
2942.00,0.0331
2941.00,0.0335
2940.00,0.0339
2939.00,0.0343
2938.00,0.0348
2937.00,0.0353
2936.00,0.0359
2935.00,0.0364
2934.00,0.0370
2933.00,0.0375
2932.00,0.0381
2931.00,0.0385
2930.00,0.0389
2929.00,0.0393
2928.00,0.0396
2927.00,0.0398
2926.00,0.0398
2925.00,0.0399
2924.00,0.0398
2923.00,0.0396
2922.00,0.0393
2921.00,0.0390
2920.00,0.0386
2919.00,0.0381
2918.00,0.0376
2917.00,0.0370
2916.00,0.0364
2915.00,0.0358
2914.00,0.0352
2913.00,0.0346
2912.00,0.0340
2911.00,0.0334
2910.00,0.0328
2909.00,0.0323
2908.00,0.0318
2907.00,0.0313
2906.00,0.0309
2905.00,0.0304
2904.00,0.0301
2903.00,0.0297
2902.00,0.0294
2901.00,0.0291
2900.00,0.0289
2899.00,0.0286
2898.00,0.0284
2897.00,0.0282
2896.00,0.0281
2895.00,0.0280
2894.00,0.0279
2893.00,0.0277
2892.00,0.0276
2891.00,0.0274
2890.00,0.0273
2889.00,0.0271
2888.00,0.0270
2887.00,0.0269
2886.00,0.0268
2885.00,0.0268
2884.00,0.0267
2883.00,0.0267
2882.00,0.0267
2881.00,0.0268
2880.00,0.0269
2879.00,0.0271
2878.00,0.0273
2877.00,0.0275
2876.00,0.0278
2875.00,0.0281
2874.00,0.0284
2873.00,0.0287
2872.00,0.0290
2871.00,0.0292
2870.00,0.0293
2869.00,0.0294
2868.00,0.0294
2867.00,0.0295
2866.00,0.0295
2865.00,0.0296
2864.00,0.0297
2863.00,0.0299
2862.00,0.0302
2861.00,0.0304
2860.00,0.0307
2859.00,0.0309
2858.00,0.0310
2857.00,0.0311
2856.00,0.0310
2855.00,0.0308
2854.00,0.0304
2853.00,0.0300
2852.00,0.0295
2851.00,0.0289
2850.00,0.0282
2849.00,0.0276
2848.00,0.0269
2847.00,0.0262
2846.00,0.0256
2845.00,0.0249
2844.00,0.0243
2843.00,0.0237
2842.00,0.0230
2841.00,0.0224
2840.00,0.0219
2839.00,0.0214
2838.00,0.0210
2837.00,0.0207
2836.00,0.0204
2835.00,0.0201
2834.00,0.0199
2833.00,0.0196
2832.00,0.0194
2831.00,0.0191
2830.00,0.0189
2829.00,0.0187
2828.00,0.0185
2827.00,0.0183
2826.00,0.0182
2825.00,0.0180
2824.00,0.0178
2823.00,0.0176
2822.00,0.0175
2821.00,0.0173
2820.00,0.0171
2819.00,0.0170
2818.00,0.0169
2817.00,0.0167
2816.00,0.0166
2815.00,0.0165
2814.00,0.0164
2813.00,0.0163
2812.00,0.0162
2811.00,0.0161
2810.00,0.0160
2809.00,0.0159
2808.00,0.0158
2807.00,0.0158
2806.00,0.0157
2805.00,0.0156
2804.00,0.0156
2803.00,0.0155
2802.00,0.0154
2801.00,0.0153
2800.00,0.0153
2799.00,0.0152
2798.00,0.0151
2797.00,0.0151
2796.00,0.0150
2795.00,0.0150
2794.00,0.0149
2793.00,0.0149
2792.00,0.0148
2791.00,0.0148
2790.00,0.0148
2789.00,0.0147
2788.00,0.0147
2787.00,0.0147
2786.00,0.0146
2785.00,0.0146
2784.00,0.0145
2783.00,0.0145
2782.00,0.0144
2781.00,0.0144
2780.00,0.0144
2779.00,0.0143
2778.00,0.0143
2777.00,0.0142
2776.00,0.0142
2775.00,0.0141
2774.00,0.0141
2773.00,0.0141
2772.00,0.0140
2771.00,0.0140
2770.00,0.0140
2769.00,0.0140
2768.00,0.0140
2767.00,0.0140
2766.00,0.0139
2765.00,0.0139
2764.00,0.0139
2763.00,0.0139
2762.00,0.0139
2761.00,0.0139
2760.00,0.0139
2759.00,0.0139
2758.00,0.0139
2757.00,0.0139
2756.00,0.0139
2755.00,0.0139
2754.00,0.0139
2753.00,0.0139
2752.00,0.0139
2751.00,0.0139
2750.00,0.0139
2749.00,0.0139
2748.00,0.0140
2747.00,0.0140
2746.00,0.0140
2745.00,0.0140
2744.00,0.0140
2743.00,0.0140
2742.00,0.0140
2741.00,0.0140
2740.00,0.0140
2739.00,0.0140
2738.00,0.0141
2737.00,0.0141
2736.00,0.0141
2735.00,0.0141
2734.00,0.0141
2733.00,0.0141
2732.00,0.0141
2731.00,0.0141
2730.00,0.0141
2729.00,0.0141
2728.00,0.0141
2727.00,0.0140
2726.00,0.0140
2725.00,0.0140
2724.00,0.0140
2723.00,0.0139
2722.00,0.0139
2721.00,0.0139
2720.00,0.0138
2719.00,0.0138
2718.00,0.0138
2717.00,0.0138
2716.00,0.0138
2715.00,0.0137
2714.00,0.0137
2713.00,0.0137
2712.00,0.0136
2711.00,0.0136
2710.00,0.0136
2709.00,0.0136
2708.00,0.0136
2707.00,0.0136
2706.00,0.0136
2705.00,0.0135
2704.00,0.0135
2703.00,0.0135
2702.00,0.0135
2701.00,0.0134
2700.00,0.0134
2699.00,0.0134
2698.00,0.0134
2697.00,0.0133
2696.00,0.0133
2695.00,0.0133
2694.00,0.0132
2693.00,0.0132
2692.00,0.0132
2691.00,0.0132
2690.00,0.0132
2689.00,0.0132
2688.00,0.0132
2687.00,0.0131
2686.00,0.0131
2685.00,0.0131
2684.00,0.0131
2683.00,0.0130
2682.00,0.0130
2681.00,0.0130
2680.00,0.0130
2679.00,0.0130
2678.00,0.0130
2677.00,0.0130
2676.00,0.0130
2675.00,0.0130
2674.00,0.0130
2673.00,0.0130
2672.00,0.0130
2671.00,0.0130
2670.00,0.0129
2669.00,0.0129
2668.00,0.0129
2667.00,0.0130
2666.00,0.0130
2665.00,0.0130
2664.00,0.0130
2663.00,0.0130
2662.00,0.0131
2661.00,0.0131
2660.00,0.0130
2659.00,0.0130
2658.00,0.0130
2657.00,0.0130
2656.00,0.0130
2655.00,0.0130
2654.00,0.0130
2653.00,0.0130
2652.00,0.0130
2651.00,0.0130
2650.00,0.0129
2649.00,0.0129
2648.00,0.0129
2647.00,0.0128
2646.00,0.0128
2645.00,0.0128
2644.00,0.0129
2643.00,0.0129
2642.00,0.0128
2641.00,0.0128
2640.00,0.0128
2639.00,0.0128
2638.00,0.0127
2637.00,0.0127
2636.00,0.0127
2635.00,0.0127
2634.00,0.0126
2633.00,0.0126
2632.00,0.0126
2631.00,0.0125
2630.00,0.0125
2629.00,0.0125
2628.00,0.0125
2627.00,0.0124
2626.00,0.0124
2625.00,0.0124
2624.00,0.0124
2623.00,0.0124
2622.00,0.0125
2621.00,0.0125
2620.00,0.0125
2619.00,0.0125
2618.00,0.0124
2617.00,0.0124
2616.00,0.0124
2615.00,0.0124
2614.00,0.0124
2613.00,0.0124
2612.00,0.0124
2611.00,0.0124
2610.00,0.0123
2609.00,0.0123
2608.00,0.0123
2607.00,0.0123
2606.00,0.0123
2605.00,0.0123
2604.00,0.0122
2603.00,0.0122
2602.00,0.0122
2601.00,0.0122
2600.00,0.0122
2599.00,0.0122
2598.00,0.0121
2597.00,0.0121
2596.00,0.0121
2595.00,0.0121
2594.00,0.0121
2593.00,0.0121
2592.00,0.0121
2591.00,0.0121
2590.00,0.0121
2589.00,0.0120
2588.00,0.0120
2587.00,0.0120
2586.00,0.0120
2585.00,0.0120
2584.00,0.0120
2583.00,0.0120
2582.00,0.0120
2581.00,0.0120
2580.00,0.0120
2579.00,0.0120
2578.00,0.0120
2577.00,0.0120
2576.00,0.0119
2575.00,0.0119
2574.00,0.0119
2573.00,0.0119
2572.00,0.0119
2571.00,0.0119
2570.00,0.0119
2569.00,0.0119
2568.00,0.0119
2567.00,0.0119
2566.00,0.0118
2565.00,0.0118
2564.00,0.0118
2563.00,0.0117
2562.00,0.0117
2561.00,0.0117
2560.00,0.0117
2559.00,0.0117
2558.00,0.0116
2557.00,0.0116
2556.00,0.0116
2555.00,0.0116
2554.00,0.0116
2553.00,0.0116
2552.00,0.0116
2551.00,0.0116
2550.00,0.0115
2549.00,0.0115
2548.00,0.0115
2547.00,0.0115
2546.00,0.0114
2545.00,0.0114
2544.00,0.0114
2543.00,0.0114
2542.00,0.0114
2541.00,0.0114
2540.00,0.0114
2539.00,0.0114
2538.00,0.0114
2537.00,0.0114
2536.00,0.0114
2535.00,0.0113
2534.00,0.0113
2533.00,0.0112
2532.00,0.0112
2531.00,0.0112
2530.00,0.0112
2529.00,0.0112
2528.00,0.0112
2527.00,0.0112
2526.00,0.0111
2525.00,0.0111
2524.00,0.0111
2523.00,0.0110
2522.00,0.0110
2521.00,0.0110
2520.00,0.0110
2519.00,0.0109
2518.00,0.0109
2517.00,0.0108
2516.00,0.0108
2515.00,0.0108
2514.00,0.0108
2513.00,0.0108
2512.00,0.0108
2511.00,0.0107
2510.00,0.0107
2509.00,0.0107
2508.00,0.0107
2507.00,0.0107
2506.00,0.0106
2505.00,0.0106
2504.00,0.0106
2503.00,0.0106
2502.00,0.0106
2501.00,0.0106
2500.00,0.0106
2499.00,0.0106
2498.00,0.0106
2497.00,0.0106
2496.00,0.0106
2495.00,0.0106
2494.00,0.0106
2493.00,0.0105
2492.00,0.0105
2491.00,0.0104
2490.00,0.0104
2489.00,0.0104
2488.00,0.0104
2487.00,0.0104
2486.00,0.0104
2485.00,0.0104
2484.00,0.0104
2483.00,0.0105
2482.00,0.0105
2481.00,0.0105
2480.00,0.0105
2479.00,0.0105
2478.00,0.0105
2477.00,0.0105
2476.00,0.0105
2475.00,0.0105
2474.00,0.0104
2473.00,0.0104
2472.00,0.0104
2471.00,0.0104
2470.00,0.0104
2469.00,0.0104
2468.00,0.0104
2467.00,0.0104
2466.00,0.0104
2465.00,0.0104
2464.00,0.0104
2463.00,0.0104
2462.00,0.0104
2461.00,0.0104
2460.00,0.0104
2459.00,0.0104
2458.00,0.0104
2457.00,0.0104
2456.00,0.0104
2455.00,0.0104
2454.00,0.0104
2453.00,0.0104
2452.00,0.0104
2451.00,0.0104
2450.00,0.0104
2449.00,0.0104
2448.00,0.0104
2447.00,0.0104
2446.00,0.0103
2445.00,0.0103
2444.00,0.0103
2443.00,0.0103
2442.00,0.0103
2441.00,0.0103
2440.00,0.0103
2439.00,0.0103
2438.00,0.0102
2437.00,0.0102
2436.00,0.0102
2435.00,0.0103
2434.00,0.0103
2433.00,0.0103
2432.00,0.0102
2431.00,0.0102
2430.00,0.0102
2429.00,0.0102
2428.00,0.0102
2427.00,0.0102
2426.00,0.0102
2425.00,0.0102
2424.00,0.0102
2423.00,0.0102
2422.00,0.0102
2421.00,0.0102
2420.00,0.0101
2419.00,0.0101
2418.00,0.0101
2417.00,0.0101
2416.00,0.0101
2415.00,0.0101
2414.00,0.0101
2413.00,0.0101
2412.00,0.0101
2411.00,0.0101
2410.00,0.0100
2409.00,0.0100
2408.00,0.0100
2407.00,0.0099
2406.00,0.0099
2405.00,0.0099
2404.00,0.0099
2403.00,0.0099
2402.00,0.0099
2401.00,0.0099
2400.00,0.0099
2399.00,0.0099
2398.00,0.0099
2397.00,0.0099
2396.00,0.0099
2395.00,0.0099
2394.00,0.0099
2393.00,0.0098
2392.00,0.0098
2391.00,0.0098
2390.00,0.0099
2389.00,0.0099
2388.00,0.0098
2387.00,0.0098
2386.00,0.0097
2385.00,0.0097
2384.00,0.0096
2383.00,0.0095
2382.00,0.0094
2381.00,0.0093
2380.00,0.0093
2379.00,0.0093
2378.00,0.0093
2377.00,0.0093
2376.00,0.0094
2375.00,0.0094
2374.00,0.0094
2373.00,0.0094
2372.00,0.0093
2371.00,0.0093
2370.00,0.0092
2369.00,0.0092
2368.00,0.0092
2367.00,0.0093
2366.00,0.0093
2365.00,0.0093
2364.00,0.0093
2363.00,0.0093
2362.00,0.0093
2361.00,0.0093
2360.00,0.0093
2359.00,0.0093
2358.00,0.0093
2357.00,0.0093
2356.00,0.0094
2355.00,0.0095
2354.00,0.0095
2353.00,0.0095
2352.00,0.0095
2351.00,0.0094
2350.00,0.0094
2349.00,0.0094
2348.00,0.0094
2347.00,0.0094
2346.00,0.0094
2345.00,0.0094
2344.00,0.0094
2343.00,0.0094
2342.00,0.0094
2341.00,0.0095
2340.00,0.0095
2339.00,0.0096
2338.00,0.0096
2337.00,0.0096
2336.00,0.0097
2335.00,0.0097
2334.00,0.0097
2333.00,0.0097
2332.00,0.0096
2331.00,0.0096
2330.00,0.0097
2329.00,0.0098
2328.00,0.0101
2327.00,0.0104
2326.00,0.0106
2325.00,0.0107
2324.00,0.0106
2323.00,0.0105
2322.00,0.0103
2321.00,0.0102
2320.00,0.0101
2319.00,0.0100
2318.00,0.0100
2317.00,0.0100
2316.00,0.0100
2315.00,0.0099
2314.00,0.0099
2313.00,0.0098
2312.00,0.0097
2311.00,0.0097
2310.00,0.0097
2309.00,0.0097
2308.00,0.0097
2307.00,0.0097
2306.00,0.0097
2305.00,0.0098
2304.00,0.0098
2303.00,0.0098
2302.00,0.0098
2301.00,0.0098
2300.00,0.0098
2299.00,0.0099
2298.00,0.0099
2297.00,0.0099
2296.00,0.0100
2295.00,0.0101
2294.00,0.0102
2293.00,0.0103
2292.00,0.0104
2291.00,0.0105
2290.00,0.0105
2289.00,0.0106
2288.00,0.0106
2287.00,0.0106
2286.00,0.0105
2285.00,0.0105
2284.00,0.0105
2283.00,0.0105
2282.00,0.0104
2281.00,0.0104
2280.00,0.0104
2279.00,0.0103
2278.00,0.0102
2277.00,0.0102
2276.00,0.0102
2275.00,0.0101
2274.00,0.0101
2273.00,0.0101
2272.00,0.0101
2271.00,0.0101
2270.00,0.0100
2269.00,0.0099
2268.00,0.0099
2267.00,0.0098
2266.00,0.0098
2265.00,0.0098
2264.00,0.0098
2263.00,0.0098
2262.00,0.0099
2261.00,0.0099
2260.00,0.0099
2259.00,0.0099
2258.00,0.0098
2257.00,0.0097
2256.00,0.0097
2255.00,0.0096
2254.00,0.0096
2253.00,0.0096
2252.00,0.0097
2251.00,0.0097
2250.00,0.0098
2249.00,0.0098
2248.00,0.0098
2247.00,0.0098
2246.00,0.0098
2245.00,0.0098
2244.00,0.0098
2243.00,0.0098
2242.00,0.0098
2241.00,0.0098
2240.00,0.0098
2239.00,0.0098
2238.00,0.0098
2237.00,0.0098
2236.00,0.0099
2235.00,0.0099
2234.00,0.0100
2233.00,0.0099
2232.00,0.0099
2231.00,0.0099
2230.00,0.0098
2229.00,0.0098
2228.00,0.0098
2227.00,0.0098
2226.00,0.0097
2225.00,0.0097
2224.00,0.0096
2223.00,0.0096
2222.00,0.0096
2221.00,0.0097
2220.00,0.0097
2219.00,0.0098
2218.00,0.0099
2217.00,0.0099
2216.00,0.0099
2215.00,0.0098
2214.00,0.0097
2213.00,0.0096
2212.00,0.0096
2211.00,0.0097
2210.00,0.0098
2209.00,0.0099
2208.00,0.0098
2207.00,0.0097
2206.00,0.0096
2205.00,0.0095
2204.00,0.0095
2203.00,0.0095
2202.00,0.0095
2201.00,0.0095
2200.00,0.0095
2199.00,0.0096
2198.00,0.0096
2197.00,0.0096
2196.00,0.0097
2195.00,0.0098
2194.00,0.0099
2193.00,0.0099
2192.00,0.0099
2191.00,0.0098
2190.00,0.0098
2189.00,0.0098
2188.00,0.0099
2187.00,0.0101
2186.00,0.0102
2185.00,0.0101
2184.00,0.0099
2183.00,0.0096
2182.00,0.0092
2181.00,0.0091
2180.00,0.0091
2179.00,0.0092
2178.00,0.0092
2177.00,0.0092
2176.00,0.0092
2175.00,0.0093
2174.00,0.0094
2173.00,0.0095
2172.00,0.0097
2171.00,0.0099
2170.00,0.0101
2169.00,0.0103
2168.00,0.0104
2167.00,0.0105
2166.00,0.0104
2165.00,0.0104
2164.00,0.0105
2163.00,0.0104
2162.00,0.0099
2161.00,0.0090
2160.00,0.0080
2159.00,0.0071
2158.00,0.0068
2157.00,0.0069
2156.00,0.0072
2155.00,0.0075
2154.00,0.0077
2153.00,0.0078
2152.00,0.0080
2151.00,0.0080
2150.00,0.0080
2149.00,0.0081
2148.00,0.0081
2147.00,0.0080
2146.00,0.0080
2145.00,0.0080
2144.00,0.0081
2143.00,0.0080
2142.00,0.0079
2141.00,0.0078
2140.00,0.0079
2139.00,0.0079
2138.00,0.0078
2137.00,0.0078
2136.00,0.0077
2135.00,0.0076
2134.00,0.0075
2133.00,0.0075
2132.00,0.0077
2131.00,0.0078
2130.00,0.0079
2129.00,0.0081
2128.00,0.0083
2127.00,0.0085
2126.00,0.0085
2125.00,0.0086
2124.00,0.0085
2123.00,0.0085
2122.00,0.0085
2121.00,0.0086
2120.00,0.0087
2119.00,0.0088
2118.00,0.0088
2117.00,0.0088
2116.00,0.0088
2115.00,0.0089
2114.00,0.0089
2113.00,0.0089
2112.00,0.0089
2111.00,0.0089
2110.00,0.0090
2109.00,0.0090
2108.00,0.0091
2107.00,0.0092
2106.00,0.0092
2105.00,0.0092
2104.00,0.0092
2103.00,0.0093
2102.00,0.0092
2101.00,0.0092
2100.00,0.0091
2099.00,0.0090
2098.00,0.0089
2097.00,0.0087
2096.00,0.0087
2095.00,0.0087
2094.00,0.0087
2093.00,0.0089
2092.00,0.0090
2091.00,0.0091
2090.00,0.0092
2089.00,0.0092
2088.00,0.0093
2087.00,0.0093
2086.00,0.0093
2085.00,0.0093
2084.00,0.0093
2083.00,0.0092
2082.00,0.0091
2081.00,0.0091
2080.00,0.0092
2079.00,0.0093
2078.00,0.0093
2077.00,0.0092
2076.00,0.0092
2075.00,0.0091
2074.00,0.0091
2073.00,0.0091
2072.00,0.0092
2071.00,0.0092
2070.00,0.0092
2069.00,0.0092
2068.00,0.0092
2067.00,0.0091
2066.00,0.0090
2065.00,0.0090
2064.00,0.0091
2063.00,0.0091
2062.00,0.0091
2061.00,0.0090
2060.00,0.0089
2059.00,0.0090
2058.00,0.0090
2057.00,0.0091
2056.00,0.0091
2055.00,0.0092
2054.00,0.0094
2053.00,0.0097
2052.00,0.0100
2051.00,0.0101
2050.00,0.0099
2049.00,0.0098
2048.00,0.0097
2047.00,0.0096
2046.00,0.0095
2045.00,0.0094
2044.00,0.0094
2043.00,0.0093
2042.00,0.0093
2041.00,0.0092
2040.00,0.0092
2039.00,0.0093
2038.00,0.0093
2037.00,0.0093
2036.00,0.0093
2035.00,0.0091
2034.00,0.0088
2033.00,0.0087
2032.00,0.0086
2031.00,0.0085
2030.00,0.0084
2029.00,0.0084
2028.00,0.0084
2027.00,0.0086
2026.00,0.0087
2025.00,0.0089
2024.00,0.0090
2023.00,0.0089
2022.00,0.0087
2021.00,0.0086
2020.00,0.0087
2019.00,0.0087
2018.00,0.0086
2017.00,0.0085
2016.00,0.0086
2015.00,0.0087
2014.00,0.0088
2013.00,0.0090
2012.00,0.0091
2011.00,0.0090
2010.00,0.0088
2009.00,0.0086
2008.00,0.0084
2007.00,0.0082
2006.00,0.0082
2005.00,0.0083
2004.00,0.0085
2003.00,0.0087
2002.00,0.0087
2001.00,0.0087
2000.00,0.0086
1999.00,0.0086
1998.00,0.0086
1997.00,0.0087
1996.00,0.0088
1995.00,0.0089
1994.00,0.0089
1993.00,0.0089
1992.00,0.0091
1991.00,0.0092
1990.00,0.0093
1989.00,0.0094
1988.00,0.0094
1987.00,0.0094
1986.00,0.0093
1985.00,0.0093
1984.00,0.0094
1983.00,0.0095
1982.00,0.0097
1981.00,0.0097
1980.00,0.0096
1979.00,0.0091
1978.00,0.0086
1977.00,0.0082
1976.00,0.0081
1975.00,0.0082
1974.00,0.0081
1973.00,0.0081
1972.00,0.0081
1971.00,0.0080
1970.00,0.0081
1969.00,0.0082
1968.00,0.0083
1967.00,0.0084
1966.00,0.0084
1965.00,0.0084
1964.00,0.0084
1963.00,0.0083
1962.00,0.0081
1961.00,0.0079
1960.00,0.0078
1959.00,0.0078
1958.00,0.0078
1957.00,0.0079
1956.00,0.0080
1955.00,0.0082
1954.00,0.0083
1953.00,0.0083
1952.00,0.0083
1951.00,0.0083
1950.00,0.0082
1949.00,0.0082
1948.00,0.0082
1947.00,0.0082
1946.00,0.0081
1945.00,0.0082
1944.00,0.0083
1943.00,0.0083
1942.00,0.0084
1941.00,0.0084
1940.00,0.0084
1939.00,0.0083
1938.00,0.0082
1937.00,0.0082
1936.00,0.0082
1935.00,0.0082
1934.00,0.0083
1933.00,0.0084
1932.00,0.0084
1931.00,0.0085
1930.00,0.0084
1929.00,0.0084
1928.00,0.0085
1927.00,0.0085
1926.00,0.0085
1925.00,0.0085
1924.00,0.0086
1923.00,0.0087
1922.00,0.0087
1921.00,0.0088
1920.00,0.0088
1919.00,0.0088
1918.00,0.0087
1917.00,0.0087
1916.00,0.0088
1915.00,0.0088
1914.00,0.0088
1913.00,0.0088
1912.00,0.0089
1911.00,0.0089
1910.00,0.0089
1909.00,0.0088
1908.00,0.0088
1907.00,0.0088
1906.00,0.0088
1905.00,0.0089
1904.00,0.0089
1903.00,0.0089
1902.00,0.0089
1901.00,0.0088
1900.00,0.0088
1899.00,0.0088
1898.00,0.0088
1897.00,0.0088
1896.00,0.0089
1895.00,0.0089
1894.00,0.0089
1893.00,0.0089
1892.00,0.0089
1891.00,0.0089
1890.00,0.0089
1889.00,0.0089
1888.00,0.0088
1887.00,0.0088
1886.00,0.0088
1885.00,0.0088
1884.00,0.0088
1883.00,0.0088
1882.00,0.0088
1881.00,0.0087
1880.00,0.0087
1879.00,0.0088
1878.00,0.0088
1877.00,0.0088
1876.00,0.0088
1875.00,0.0088
1874.00,0.0087
1873.00,0.0087
1872.00,0.0086
1871.00,0.0087
1870.00,0.0087
1869.00,0.0087
1868.00,0.0088
1867.00,0.0088
1866.00,0.0088
1865.00,0.0087
1864.00,0.0087
1863.00,0.0087
1862.00,0.0086
1861.00,0.0086
1860.00,0.0086
1859.00,0.0086
1858.00,0.0086
1857.00,0.0087
1856.00,0.0087
1855.00,0.0087
1854.00,0.0087
1853.00,0.0087
1852.00,0.0087
1851.00,0.0087
1850.00,0.0087
1849.00,0.0087
1848.00,0.0087
1847.00,0.0087
1846.00,0.0087
1845.00,0.0087
1844.00,0.0087
1843.00,0.0087
1842.00,0.0087
1841.00,0.0087
1840.00,0.0087
1839.00,0.0088
1838.00,0.0087
1837.00,0.0087
1836.00,0.0086
1835.00,0.0085
1834.00,0.0085
1833.00,0.0085
1832.00,0.0086
1831.00,0.0087
1830.00,0.0087
1829.00,0.0087
1828.00,0.0087
1827.00,0.0087
1826.00,0.0087
1825.00,0.0087
1824.00,0.0086
1823.00,0.0086
1822.00,0.0085
1821.00,0.0084
1820.00,0.0084
1819.00,0.0083
1818.00,0.0083
1817.00,0.0082
1816.00,0.0083
1815.00,0.0083
1814.00,0.0084
1813.00,0.0084
1812.00,0.0085
1811.00,0.0085
1810.00,0.0085
1809.00,0.0085
1808.00,0.0085
1807.00,0.0085
1806.00,0.0085
1805.00,0.0085
1804.00,0.0085
1803.00,0.0086
1802.00,0.0086
1801.00,0.0086
1800.00,0.0086
1799.00,0.0086
1798.00,0.0085
1797.00,0.0086
1796.00,0.0086
1795.00,0.0087
1794.00,0.0087
1793.00,0.0087
1792.00,0.0087
1791.00,0.0087
1790.00,0.0086
1789.00,0.0086
1788.00,0.0086
1787.00,0.0086
1786.00,0.0086
1785.00,0.0086
1784.00,0.0086
1783.00,0.0086
1782.00,0.0086
1781.00,0.0086
1780.00,0.0087
1779.00,0.0087
1778.00,0.0086
1777.00,0.0086
1776.00,0.0087
1775.00,0.0088
1774.00,0.0089
1773.00,0.0089
1772.00,0.0090
1771.00,0.0090
1770.00,0.0089
1769.00,0.0088
1768.00,0.0088
1767.00,0.0088
1766.00,0.0087
1765.00,0.0087
1764.00,0.0087
1763.00,0.0088
1762.00,0.0088
1761.00,0.0088
1760.00,0.0089
1759.00,0.0089
1758.00,0.0089
1757.00,0.0089
1756.00,0.0089
1755.00,0.0089
1754.00,0.0088
1753.00,0.0089
1752.00,0.0090
1751.00,0.0091
1750.00,0.0092
1749.00,0.0092
1748.00,0.0093
1747.00,0.0093
1746.00,0.0092
1745.00,0.0092
1744.00,0.0092
1743.00,0.0093
1742.00,0.0092
1741.00,0.0092
1740.00,0.0092
1739.00,0.0092
1738.00,0.0092
1737.00,0.0093
1736.00,0.0094
1735.00,0.0095
1734.00,0.0096
1733.00,0.0097
1732.00,0.0097
1731.00,0.0098
1730.00,0.0098
1729.00,0.0098
1728.00,0.0099
1727.00,0.0100
1726.00,0.0100
1725.00,0.0101
1724.00,0.0103
1723.00,0.0105
1722.00,0.0105
1721.00,0.0106
1720.00,0.0108
1719.00,0.0111
1718.00,0.0114
1717.00,0.0117
1716.00,0.0120
1715.00,0.0122
1714.00,0.0123
1713.00,0.0125
1712.00,0.0129
1711.00,0.0133
1710.00,0.0138
1709.00,0.0143
1708.00,0.0150
1707.00,0.0158
1706.00,0.0168
1705.00,0.0179
1704.00,0.0190
1703.00,0.0200
1702.00,0.0212
1701.00,0.0232
1700.00,0.0260
1699.00,0.0286
1698.00,0.0309
1697.00,0.0335
1696.00,0.0372
1695.00,0.0411
1694.00,0.0444
1693.00,0.0472
1692.00,0.0501
1691.00,0.0534
1690.00,0.0569
1689.00,0.0603
1688.00,0.0633
1687.00,0.0658
1686.00,0.0681
1685.00,0.0710
1684.00,0.0743
1683.00,0.0767
1682.00,0.0778
1681.00,0.0784
1680.00,0.0789
1679.00,0.0792
1678.00,0.0793
1677.00,0.0792
1676.00,0.0793
1675.00,0.0794
1674.00,0.0796
1673.00,0.0798
1672.00,0.0801
1671.00,0.0807
1670.00,0.0819
1669.00,0.0836
1668.00,0.0853
1667.00,0.0868
1666.00,0.0882
1665.00,0.0896
1664.00,0.0914
1663.00,0.0935
1662.00,0.0957
1661.00,0.0974
1660.00,0.0987
1659.00,0.0997
1658.00,0.1003
1657.00,0.1007
1656.00,0.1008
1655.00,0.1005
1654.00,0.1003
1653.00,0.1001
1652.00,0.0995
1651.00,0.0982
1650.00,0.0965
1649.00,0.0943
1648.00,0.0917
1647.00,0.0886
1646.00,0.0852
1645.00,0.0818
1644.00,0.0786
1643.00,0.0754
1642.00,0.0722
1641.00,0.0690
1640.00,0.0660
1639.00,0.0631
1638.00,0.0605
1637.00,0.0578
1636.00,0.0549
1635.00,0.0523
1634.00,0.0501
1633.00,0.0485
1632.00,0.0473
1631.00,0.0463
1630.00,0.0456
1629.00,0.0453
1628.00,0.0457
1627.00,0.0466
1626.00,0.0478
1625.00,0.0497
1624.00,0.0524
1623.00,0.0556
1622.00,0.0587
1621.00,0.0610
1620.00,0.0626
1619.00,0.0636
1618.00,0.0640
1617.00,0.0636
1616.00,0.0627
1615.00,0.0615
1614.00,0.0603
1613.00,0.0593
1612.00,0.0585
1611.00,0.0579
1610.00,0.0571
1609.00,0.0561
1608.00,0.0545
1607.00,0.0525
1606.00,0.0501
1605.00,0.0473
1604.00,0.0446
1603.00,0.0420
1602.00,0.0395
1601.00,0.0374
1600.00,0.0356
1599.00,0.0342
1598.00,0.0333
1597.00,0.0327
1596.00,0.0325
1595.00,0.0329
1594.00,0.0339
1593.00,0.0354
1592.00,0.0376
1591.00,0.0404
1590.00,0.0436
1589.00,0.0470
1588.00,0.0502
1587.00,0.0529
1586.00,0.0547
1585.00,0.0555
1584.00,0.0552
1583.00,0.0539
1582.00,0.0520
1581.00,0.0496
1580.00,0.0472
1579.00,0.0450
1578.00,0.0429
1577.00,0.0409
1576.00,0.0390
1575.00,0.0374
1574.00,0.0361
1573.00,0.0351
1572.00,0.0341
1571.00,0.0332
1570.00,0.0323
1569.00,0.0314
1568.00,0.0306
1567.00,0.0299
1566.00,0.0292
1565.00,0.0285
1564.00,0.0278
1563.00,0.0273
1562.00,0.0268
1561.00,0.0262
1560.00,0.0257
1559.00,0.0253
1558.00,0.0249
1557.00,0.0244
1556.00,0.0240
1555.00,0.0237
1554.00,0.0234
1553.00,0.0230
1552.00,0.0228
1551.00,0.0225
1550.00,0.0223
1549.00,0.0221
1548.00,0.0219
1547.00,0.0216
1546.00,0.0215
1545.00,0.0214
1544.00,0.0214
1543.00,0.0213
1542.00,0.0212
1541.00,0.0212
1540.00,0.0212
1539.00,0.0211
1538.00,0.0208
1537.00,0.0206
1536.00,0.0204
1535.00,0.0203
1534.00,0.0202
1533.00,0.0203
1532.00,0.0203
1531.00,0.0202
1530.00,0.0203
1529.00,0.0203
1528.00,0.0205
1527.00,0.0207
1526.00,0.0209
1525.00,0.0211
1524.00,0.0213
1523.00,0.0216
1522.00,0.0222
1521.00,0.0228
1520.00,0.0233
1519.00,0.0236
1518.00,0.0240
1517.00,0.0245
1516.00,0.0250
1515.00,0.0252
1514.00,0.0254
1513.00,0.0254
1512.00,0.0255
1511.00,0.0256
1510.00,0.0256
1509.00,0.0257
1508.00,0.0258
1507.00,0.0260
1506.00,0.0260
1505.00,0.0261
1504.00,0.0264
1503.00,0.0270
1502.00,0.0279
1501.00,0.0292
1500.00,0.0309
1499.00,0.0329
1498.00,0.0352
1497.00,0.0374
1496.00,0.0389
1495.00,0.0396
1494.00,0.0396
1493.00,0.0390
1492.00,0.0380
1491.00,0.0368
1490.00,0.0353
1489.00,0.0336
1488.00,0.0318
1487.00,0.0301
1486.00,0.0286
1485.00,0.0272
1484.00,0.0260
1483.00,0.0251
1482.00,0.0243
1481.00,0.0237
1480.00,0.0233
1479.00,0.0230
1478.00,0.0229
1477.00,0.0230
1476.00,0.0233
1475.00,0.0238
1474.00,0.0247
1473.00,0.0261
1472.00,0.0281
1471.00,0.0302
1470.00,0.0324
1469.00,0.0349
1468.00,0.0375
1467.00,0.0403
1466.00,0.0436
1465.00,0.0471
1464.00,0.0504
1463.00,0.0530
1462.00,0.0546
1461.00,0.0556
1460.00,0.0560
1459.00,0.0559
1458.00,0.0550
1457.00,0.0535
1456.00,0.0515
1455.00,0.0497
1454.00,0.0482
1453.00,0.0470
1452.00,0.0462
1451.00,0.0459
1450.00,0.0460
1449.00,0.0469
1448.00,0.0482
1447.00,0.0500
1446.00,0.0518
1445.00,0.0536
1444.00,0.0554
1443.00,0.0571
1442.00,0.0586
1441.00,0.0600
1440.00,0.0611
1439.00,0.0620
1438.00,0.0632
1437.00,0.0647
1436.00,0.0665
1435.00,0.0680
1434.00,0.0692
1433.00,0.0702
1432.00,0.0712
1431.00,0.0723
1430.00,0.0735
1429.00,0.0747
1428.00,0.0758
1427.00,0.0768
1426.00,0.0779
1425.00,0.0792
1424.00,0.0804
1423.00,0.0812
1422.00,0.0814
1421.00,0.0808
1420.00,0.0793
1419.00,0.0768
1418.00,0.0737
1417.00,0.0705
1416.00,0.0674
1415.00,0.0645
1414.00,0.0621
1413.00,0.0602
1412.00,0.0588
1411.00,0.0581
1410.00,0.0580
1409.00,0.0583
1408.00,0.0591
1407.00,0.0601
1406.00,0.0616
1405.00,0.0634
1404.00,0.0650
1403.00,0.0663
1402.00,0.0670
1401.00,0.0672
1400.00,0.0666
1399.00,0.0652
1398.00,0.0630
1397.00,0.0604
1396.00,0.0574
1395.00,0.0541
1394.00,0.0508
1393.00,0.0481
1392.00,0.0458
1391.00,0.0440
1390.00,0.0425
1389.00,0.0415
1388.00,0.0409
1387.00,0.0407
1386.00,0.0410
1385.00,0.0417
1384.00,0.0426
1383.00,0.0439
1382.00,0.0453
1381.00,0.0466
1380.00,0.0476
1379.00,0.0482
1378.00,0.0483
1377.00,0.0480
1376.00,0.0473
1375.00,0.0465
1374.00,0.0455
1373.00,0.0445
1372.00,0.0436
1371.00,0.0428
1370.00,0.0422
1369.00,0.0417
1368.00,0.0415
1367.00,0.0415
1366.00,0.0419
1365.00,0.0428
1364.00,0.0442
1363.00,0.0460
1362.00,0.0479
1361.00,0.0491
1360.00,0.0494
1359.00,0.0487
1358.00,0.0471
1357.00,0.0451
1356.00,0.0428
1355.00,0.0406
1354.00,0.0387
1353.00,0.0373
1352.00,0.0361
1351.00,0.0353
1350.00,0.0347
1349.00,0.0343
1348.00,0.0340
1347.00,0.0338
1346.00,0.0336
1345.00,0.0334
1344.00,0.0333
1343.00,0.0332
1342.00,0.0331
1341.00,0.0332
1340.00,0.0333
1339.00,0.0334
1338.00,0.0335
1337.00,0.0336
1336.00,0.0338
1335.00,0.0340
1334.00,0.0343
1333.00,0.0346
1332.00,0.0349
1331.00,0.0352
1330.00,0.0354
1329.00,0.0357
1328.00,0.0360
1327.00,0.0363
1326.00,0.0368
1325.00,0.0373
1324.00,0.0378
1323.00,0.0384
1322.00,0.0390
1321.00,0.0395
1320.00,0.0399
1319.00,0.0401
1318.00,0.0402
1317.00,0.0400
1316.00,0.0396
1315.00,0.0391
1314.00,0.0386
1313.00,0.0381
1312.00,0.0377
1311.00,0.0375
1310.00,0.0375
1309.00,0.0376
1308.00,0.0380
1307.00,0.0386
1306.00,0.0393
1305.00,0.0402
1304.00,0.0411
1303.00,0.0422
1302.00,0.0434
1301.00,0.0448
1300.00,0.0466
1299.00,0.0489
1298.00,0.0517
1297.00,0.0553
1296.00,0.0593
1295.00,0.0637
1294.00,0.0681
1293.00,0.0724
1292.00,0.0763
1291.00,0.0796
1290.00,0.0824
1289.00,0.0847
1288.00,0.0864
1287.00,0.0876
1286.00,0.0883
1285.00,0.0883
1284.00,0.0876
1283.00,0.0864
1282.00,0.0847
1281.00,0.0827
1280.00,0.0807
1279.00,0.0788
1278.00,0.0772
1277.00,0.0759
1276.00,0.0749
1275.00,0.0742
1274.00,0.0736
1273.00,0.0730
1272.00,0.0721
1271.00,0.0710
1270.00,0.0695
1269.00,0.0676
1268.00,0.0655
1267.00,0.0631
1266.00,0.0606
1265.00,0.0582
1264.00,0.0557
1263.00,0.0534
1262.00,0.0512
1261.00,0.0492
1260.00,0.0473
1259.00,0.0455
1258.00,0.0439
1257.00,0.0424
1256.00,0.0411
1255.00,0.0400
1254.00,0.0390
1253.00,0.0383
1252.00,0.0377
1251.00,0.0373
1250.00,0.0373
1249.00,0.0375
1248.00,0.0381
1247.00,0.0390
1246.00,0.0402
1245.00,0.0418
1244.00,0.0435
1243.00,0.0454
1242.00,0.0472
1241.00,0.0489
1240.00,0.0503
1239.00,0.0514
1238.00,0.0524
1237.00,0.0530
1236.00,0.0535
1235.00,0.0538
1234.00,0.0539
1233.00,0.0538
1232.00,0.0535
1231.00,0.0531
1230.00,0.0526
1229.00,0.0521
1228.00,0.0515
1227.00,0.0510
1226.00,0.0506
1225.00,0.0503
1224.00,0.0502
1223.00,0.0501
1222.00,0.0502
1221.00,0.0504
1220.00,0.0505
1219.00,0.0507
1218.00,0.0507
1217.00,0.0506
1216.00,0.0500
1215.00,0.0492
1214.00,0.0479
1213.00,0.0464
1212.00,0.0447
1211.00,0.0430
1210.00,0.0413
1209.00,0.0398
1208.00,0.0385
1207.00,0.0376
1206.00,0.0369
1205.00,0.0367
1204.00,0.0368
1203.00,0.0373
1202.00,0.0382
1201.00,0.0396
1200.00,0.0413
1199.00,0.0433
1198.00,0.0455
1197.00,0.0478
1196.00,0.0499
1195.00,0.0518
1194.00,0.0531
1193.00,0.0537
1192.00,0.0534
1191.00,0.0522
1190.00,0.0504
1189.00,0.0482
1188.00,0.0458
1187.00,0.0434
1186.00,0.0412
1185.00,0.0392
1184.00,0.0375
1183.00,0.0361
1182.00,0.0350
1181.00,0.0341
1180.00,0.0333
1179.00,0.0328
1178.00,0.0324
1177.00,0.0322
1176.00,0.0321
1175.00,0.0321
1174.00,0.0322
1173.00,0.0323
1172.00,0.0325
1171.00,0.0326
1170.00,0.0327
1169.00,0.0328
1168.00,0.0329
1167.00,0.0331
1166.00,0.0336
1165.00,0.0343
1164.00,0.0354
1163.00,0.0369
1162.00,0.0390
1161.00,0.0414
1160.00,0.0441
1159.00,0.0468
1158.00,0.0492
1157.00,0.0510
1156.00,0.0519
1155.00,0.0519
1154.00,0.0510
1153.00,0.0493
1152.00,0.0472
1151.00,0.0448
1150.00,0.0422
1149.00,0.0397
1148.00,0.0373
1147.00,0.0351
1146.00,0.0333
1145.00,0.0317
1144.00,0.0305
1143.00,0.0296
1142.00,0.0289
1141.00,0.0285
1140.00,0.0283
1139.00,0.0285
1138.00,0.0290
1137.00,0.0301
1136.00,0.0317
1135.00,0.0341
1134.00,0.0373
1133.00,0.0409
1132.00,0.0448
1131.00,0.0484
1130.00,0.0510
1129.00,0.0522
1128.00,0.0517
1127.00,0.0497
1126.00,0.0466
1125.00,0.0431
1124.00,0.0397
1123.00,0.0366
1122.00,0.0342
1121.00,0.0324
1120.00,0.0309
1119.00,0.0299
1118.00,0.0291
1117.00,0.0286
1116.00,0.0283
1115.00,0.0281
1114.00,0.0281
1113.00,0.0282
1112.00,0.0284
1111.00,0.0285
1110.00,0.0287
1109.00,0.0290
1108.00,0.0293
1107.00,0.0298
1106.00,0.0306
1105.00,0.0316
1104.00,0.0328
1103.00,0.0341
1102.00,0.0355
1101.00,0.0366
1100.00,0.0372
1099.00,0.0373
1098.00,0.0369
1097.00,0.0359
1096.00,0.0347
1095.00,0.0334
1094.00,0.0321
1093.00,0.0309
1092.00,0.0298
1091.00,0.0288
1090.00,0.0280
1089.00,0.0273
1088.00,0.0268
1087.00,0.0264
1086.00,0.0262
1085.00,0.0261
1084.00,0.0260
1083.00,0.0261
1082.00,0.0263
1081.00,0.0266
1080.00,0.0270
1079.00,0.0274
1078.00,0.0280
1077.00,0.0287
1076.00,0.0294
1075.00,0.0303
1074.00,0.0312
1073.00,0.0323
1072.00,0.0335
1071.00,0.0350
1070.00,0.0369
1069.00,0.0392
1068.00,0.0418
1067.00,0.0449
1066.00,0.0486
1065.00,0.0526
1064.00,0.0571
1063.00,0.0618
1062.00,0.0667
1061.00,0.0716
1060.00,0.0761
1059.00,0.0800
1058.00,0.0829
1057.00,0.0844
1056.00,0.0843
1055.00,0.0826
1054.00,0.0795
1053.00,0.0752
1052.00,0.0703
1051.00,0.0651
1050.00,0.0602
1049.00,0.0558
1048.00,0.0521
1047.00,0.0490
1046.00,0.0466
1045.00,0.0447
1044.00,0.0433
1043.00,0.0423
1042.00,0.0417
1041.00,0.0413
1040.00,0.0411
1039.00,0.0409
1038.00,0.0409
1037.00,0.0410
1036.00,0.0413
1035.00,0.0418
1034.00,0.0427
1033.00,0.0437
1032.00,0.0449
1031.00,0.0459
1030.00,0.0465
1029.00,0.0464
1028.00,0.0455
1027.00,0.0441
1026.00,0.0424
1025.00,0.0406
1024.00,0.0390
1023.00,0.0377
1022.00,0.0367
1021.00,0.0359
1020.00,0.0352
1019.00,0.0347
1018.00,0.0343
1017.00,0.0339
1016.00,0.0333
1015.00,0.0327
1014.00,0.0321
1013.00,0.0314
1012.00,0.0309
1011.00,0.0305
1010.00,0.0305
1009.00,0.0307
1008.00,0.0312
1007.00,0.0320
1006.00,0.0330
1005.00,0.0341
1004.00,0.0349
1003.00,0.0355
1002.00,0.0358
1001.00,0.0356
1000.00,0.0352
999.00,0.0347
998.00,0.0341
997.00,0.0336
996.00,0.0331
995.00,0.0327
994.00,0.0322
993.00,0.0318
992.00,0.0313
991.00,0.0308
990.00,0.0303
989.00,0.0297
988.00,0.0291
987.00,0.0284
986.00,0.0278
985.00,0.0272
984.00,0.0267
983.00,0.0263
982.00,0.0261
981.00,0.0260
980.00,0.0259
979.00,0.0259
978.00,0.0261
977.00,0.0262
976.00,0.0263
975.00,0.0263
974.00,0.0262
973.00,0.0260
972.00,0.0257
971.00,0.0254
970.00,0.0251
969.00,0.0248
968.00,0.0244
967.00,0.0242
966.00,0.0239
965.00,0.0237
964.00,0.0235
963.00,0.0233
962.00,0.0231
961.00,0.0229
960.00,0.0227
959.00,0.0225
958.00,0.0223
957.00,0.0222
956.00,0.0219
955.00,0.0217
954.00,0.0216
953.00,0.0215
952.00,0.0213
951.00,0.0212
950.00,0.0212
949.00,0.0211
948.00,0.0210
947.00,0.0210
946.00,0.0210
945.00,0.0212
944.00,0.0213
943.00,0.0215
942.00,0.0219
941.00,0.0224
940.00,0.0229
939.00,0.0237
938.00,0.0245
937.00,0.0255
936.00,0.0263
935.00,0.0271
934.00,0.0277
933.00,0.0281
932.00,0.0282
931.00,0.0281
930.00,0.0280
929.00,0.0279
928.00,0.0279
927.00,0.0280
926.00,0.0283
925.00,0.0284
924.00,0.0284
923.00,0.0283
922.00,0.0281
921.00,0.0278
920.00,0.0274
919.00,0.0270
918.00,0.0265
917.00,0.0260
916.00,0.0255
915.00,0.0249
914.00,0.0245
913.00,0.0241
912.00,0.0237
911.00,0.0235
910.00,0.0234
909.00,0.0234
908.00,0.0235
907.00,0.0237
906.00,0.0241
905.00,0.0247
904.00,0.0254
903.00,0.0263
902.00,0.0273
901.00,0.0283
900.00,0.0293
899.00,0.0302
898.00,0.0309
897.00,0.0314
896.00,0.0315
895.00,0.0313
894.00,0.0308
893.00,0.0301
892.00,0.0293
891.00,0.0284
890.00,0.0277
889.00,0.0271
888.00,0.0266
887.00,0.0264
886.00,0.0264
885.00,0.0265
884.00,0.0268
883.00,0.0272
882.00,0.0278
881.00,0.0286
880.00,0.0295
879.00,0.0305
878.00,0.0318
877.00,0.0331
876.00,0.0346
875.00,0.0360
874.00,0.0375
873.00,0.0388
872.00,0.0398
871.00,0.0405
870.00,0.0410
869.00,0.0411
868.00,0.0410
867.00,0.0408
866.00,0.0406
865.00,0.0404
864.00,0.0401
863.00,0.0398
862.00,0.0396
861.00,0.0394
860.00,0.0392
859.00,0.0391
858.00,0.0392
857.00,0.0394
856.00,0.0396
855.00,0.0401
854.00,0.0406
853.00,0.0412
852.00,0.0418
851.00,0.0423
850.00,0.0429
849.00,0.0433
848.00,0.0438
847.00,0.0442
846.00,0.0446
845.00,0.0449
844.00,0.0451
843.00,0.0452
842.00,0.0453
841.00,0.0453
840.00,0.0453
839.00,0.0453
838.00,0.0454
837.00,0.0455
836.00,0.0456
835.00,0.0458
834.00,0.0460
833.00,0.0463
832.00,0.0465
831.00,0.0466
830.00,0.0467
829.00,0.0467
828.00,0.0467
827.00,0.0466
826.00,0.0466
825.00,0.0468
824.00,0.0472
823.00,0.0478
822.00,0.0487
821.00,0.0497
820.00,0.0509
819.00,0.0522
818.00,0.0535
817.00,0.0548
816.00,0.0559
815.00,0.0568
814.00,0.0576
813.00,0.0580
812.00,0.0577
811.00,0.0567
810.00,0.0550
809.00,0.0525
808.00,0.0494
807.00,0.0461
806.00,0.0429
805.00,0.0401
804.00,0.0377
803.00,0.0359
802.00,0.0346
801.00,0.0336
800.00,0.0329
799.00,0.0324
798.00,0.0320
797.00,0.0318
796.00,0.0317
795.00,0.0316
794.00,0.0316
793.00,0.0316
792.00,0.0316
791.00,0.0317
790.00,0.0317
789.00,0.0317
788.00,0.0316
787.00,0.0315
786.00,0.0315
785.00,0.0315
784.00,0.0315
783.00,0.0316
782.00,0.0320
781.00,0.0323
780.00,0.0328
779.00,0.0333
778.00,0.0339
777.00,0.0343
776.00,0.0342
775.00,0.0338
774.00,0.0332
773.00,0.0326
772.00,0.0320
771.00,0.0317
770.00,0.0316
769.00,0.0317
768.00,0.0317
767.00,0.0318
766.00,0.0320
765.00,0.0322
764.00,0.0324
763.00,0.0326
762.00,0.0330
761.00,0.0334
760.00,0.0337
759.00,0.0341
758.00,0.0346
757.00,0.0350
756.00,0.0354
755.00,0.0359
754.00,0.0363
753.00,0.0368
752.00,0.0372
751.00,0.0377
750.00,0.0382
749.00,0.0386
748.00,0.0391
747.00,0.0395
746.00,0.0401
745.00,0.0407
744.00,0.0415
743.00,0.0424
742.00,0.0436
741.00,0.0451
740.00,0.0467
739.00,0.0485
738.00,0.0501
737.00,0.0513
736.00,0.0516
735.00,0.0511
734.00,0.0501
733.00,0.0486
732.00,0.0470
731.00,0.0454
730.00,0.0441
729.00,0.0428
728.00,0.0417
727.00,0.0406
726.00,0.0398
725.00,0.0391
724.00,0.0383
723.00,0.0377
722.00,0.0371
721.00,0.0366
720.00,0.0362
719.00,0.0359
718.00,0.0358
717.00,0.0358
716.00,0.0357
715.00,0.0357
714.00,0.0357
713.00,0.0356
712.00,0.0354
711.00,0.0351
710.00,0.0348
709.00,0.0345
708.00,0.0342
707.00,0.0340
706.00,0.0339
705.00,0.0339
704.00,0.0338
703.00,0.0338
702.00,0.0339
701.00,0.0339
700.00,0.0340
699.00,0.0343
698.00,0.0349
697.00,0.0356
696.00,0.0365
695.00,0.0375
694.00,0.0387
693.00,0.0398
692.00,0.0407
691.00,0.0414
690.00,0.0420
689.00,0.0422
688.00,0.0421
687.00,0.0417
686.00,0.0412
685.00,0.0405
684.00,0.0398
683.00,0.0392
682.00,0.0387
681.00,0.0384
680.00,0.0381
679.00,0.0380
678.00,0.0380
677.00,0.0380
676.00,0.0380
675.00,0.0382
674.00,0.0386
673.00,0.0391
672.00,0.0395
671.00,0.0400
670.00,0.0407
669.00,0.0417
668.00,0.0427
667.00,0.0436
666.00,0.0440
665.00,0.0442
664.00,0.0445
663.00,0.0449
662.00,0.0456
661.00,0.0463
660.00,0.0470
659.00,0.0477
658.00,0.0485
657.00,0.0492
656.00,0.0499
655.00,0.0504
654.00,0.0510
653.00,0.0514
652.00,0.0517
651.00,0.0519
650.00,0.0521
649.00,0.0521
648.00,0.0519
647.00,0.0517
646.00,0.0513
645.00,0.0508
644.00,0.0500
643.00,0.0493
642.00,0.0485
641.00,0.0476
640.00,0.0467
639.00,0.0457
638.00,0.0448
637.00,0.0440
636.00,0.0431
635.00,0.0423
634.00,0.0417
633.00,0.0412
632.00,0.0407
631.00,0.0403
630.00,0.0401
629.00,0.0401
628.00,0.0400
627.00,0.0400
626.00,0.0401
625.00,0.0402
624.00,0.0402
623.00,0.0402
622.00,0.0402
621.00,0.0400
620.00,0.0397
619.00,0.0394
618.00,0.0391
617.00,0.0388
616.00,0.0384
615.00,0.0380
614.00,0.0378
613.00,0.0377
612.00,0.0377
611.00,0.0378
610.00,0.0381
609.00,0.0384
608.00,0.0386
607.00,0.0388
606.00,0.0391
605.00,0.0395
604.00,0.0397
603.00,0.0400
602.00,0.0404
601.00,0.0408
600.00,0.0409
599.00,0.0410
598.00,0.0410
597.00,0.0408
596.00,0.0403
595.00,0.0398
594.00,0.0394
593.00,0.0392
592.00,0.0390
591.00,0.0391
590.00,0.0395
589.00,0.0403
588.00,0.0415
587.00,0.0432
586.00,0.0456
585.00,0.0484
584.00,0.0508
583.00,0.0528
582.00,0.0542
581.00,0.0549
580.00,0.0548
579.00,0.0544
578.00,0.0538
577.00,0.0531
576.00,0.0523
575.00,0.0515
574.00,0.0509
573.00,0.0504
572.00,0.0498
571.00,0.0495
570.00,0.0494
569.00,0.0494
568.00,0.0493
567.00,0.0492
566.00,0.0491
565.00,0.0489
564.00,0.0483
563.00,0.0477
562.00,0.0471
561.00,0.0466
560.00,0.0459
559.00,0.0454
558.00,0.0453
557.00,0.0451
556.00,0.0448
555.00,0.0443
554.00,0.0438
553.00,0.0432
552.00,0.0427
551.00,0.0424
550.00,0.0423
549.00,0.0421
548.00,0.0415
547.00,0.0409
546.00,0.0404
545.00,0.0399
544.00,0.0392
543.00,0.0386
542.00,0.0382
541.00,0.0380
540.00,0.0378
539.00,0.0379
538.00,0.0384
537.00,0.0392
536.00,0.0400
535.00,0.0410
534.00,0.0422
533.00,0.0434
532.00,0.0441
531.00,0.0446
530.00,0.0447
529.00,0.0443
528.00,0.0433
527.00,0.0420
526.00,0.0408
525.00,0.0397
524.00,0.0385
523.00,0.0375
522.00,0.0367
521.00,0.0360
520.00,0.0353
519.00,0.0348
518.00,0.0347
517.00,0.0345
516.00,0.0342
515.00,0.0340
514.00,0.0341
513.00,0.0344
512.00,0.0345
511.00,0.0347
510.00,0.0351
509.00,0.0357
508.00,0.0360
507.00,0.0361
506.00,0.0363
505.00,0.0361
504.00,0.0355
503.00,0.0349
502.00,0.0345
501.00,0.0342
500.00,0.0338
499.00,0.0335
498.00,0.0335
497.00,0.0336
496.00,0.0334
495.00,0.0334
494.00,0.0337
493.00,0.0340
492.00,0.0338
491.00,0.0338
490.00,0.0341
489.00,0.0344
488.00,0.0344
487.00,0.0344
486.00,0.0347
485.00,0.0348
484.00,0.0346
483.00,0.0344
482.00,0.0346
481.00,0.0346
480.00,0.0341
479.00,0.0336
478.00,0.0336
477.00,0.0339
476.00,0.0339
475.00,0.0339
474.00,0.0341
473.00,0.0342
472.00,0.0339
471.00,0.0337
470.00,0.0339
469.00,0.0340
468.00,0.0336
467.00,0.0332
466.00,0.0332
465.00,0.0332
464.00,0.0329
463.00,0.0328
462.00,0.0331
461.00,0.0333
460.00,0.0329
459.00,0.0324
458.00,0.0326
457.00,0.0328
456.00,0.0325
455.00,0.0323
454.00,0.0324
453.00,0.0325
452.00,0.0321
451.00,0.0318
450.00,0.0320
449.00,0.0320
448.00,0.0316
447.00,0.0314
446.00,0.0317
445.00,0.0318
444.00,0.0313
443.00,0.0308
442.00,0.0307
441.00,0.0307
440.00,0.0303
439.00,0.0302
438.00,0.0308
437.00,0.0313
436.00,0.0311
435.00,0.0306
434.00,0.0305
433.00,0.0302
432.00,0.0297
431.00,0.0295
430.00,0.0302
429.00,0.0309
428.00,0.0311
427.00,0.0310
426.00,0.0313
425.00,0.0316
424.00,0.0316
423.00,0.0319
422.00,0.0329
421.00,0.0337
420.00,0.0337
419.00,0.0340
418.00,0.0353
417.00,0.0359
416.00,0.0353
415.00,0.0348
414.00,0.0355
413.00,0.0364
412.00,0.0366
411.00,0.0367
410.00,0.0373
409.00,0.0373
408.00,0.0359
407.00,0.0348
406.00,0.0349
405.00,0.0350
404.00,0.0338
403.00,0.0326
402.00,0.0333
401.00,0.0345
400.00,0.0347
