Created as New Dataset,Sample 400 By YargerLab Date Thursday, December 04 2025
cm-1,A
4000.00,0.0039
3999.00,0.0039
3998.00,0.0039
3997.00,0.0039
3996.00,0.0039
3995.00,0.0039
3994.00,0.0039
3993.00,0.0039
3992.00,0.0038
3991.00,0.0038
3990.00,0.0038
3989.00,0.0038
3988.00,0.0039
3987.00,0.0039
3986.00,0.0039
3985.00,0.0039
3984.00,0.0039
3983.00,0.0038
3982.00,0.0038
3981.00,0.0039
3980.00,0.0039
3979.00,0.0039
3978.00,0.0039
3977.00,0.0039
3976.00,0.0039
3975.00,0.0039
3974.00,0.0039
3973.00,0.0039
3972.00,0.0039
3971.00,0.0039
3970.00,0.0039
3969.00,0.0039
3968.00,0.0039
3967.00,0.0039
3966.00,0.0039
3965.00,0.0039
3964.00,0.0039
3963.00,0.0039
3962.00,0.0039
3961.00,0.0039
3960.00,0.0039
3959.00,0.0039
3958.00,0.0039
3957.00,0.0039
3956.00,0.0039
3955.00,0.0039
3954.00,0.0039
3953.00,0.0039
3952.00,0.0039
3951.00,0.0039
3950.00,0.0039
3949.00,0.0039
3948.00,0.0039
3947.00,0.0039
3946.00,0.0039
3945.00,0.0039
3944.00,0.0039
3943.00,0.0039
3942.00,0.0039
3941.00,0.0039
3940.00,0.0039
3939.00,0.0039
3938.00,0.0039
3937.00,0.0039
3936.00,0.0039
3935.00,0.0039
3934.00,0.0039
3933.00,0.0039
3932.00,0.0039
3931.00,0.0039
3930.00,0.0039
3929.00,0.0039
3928.00,0.0039
3927.00,0.0039
3926.00,0.0039
3925.00,0.0039
3924.00,0.0039
3923.00,0.0039
3922.00,0.0039
3921.00,0.0039
3920.00,0.0039
3919.00,0.0039
3918.00,0.0039
3917.00,0.0039
3916.00,0.0039
3915.00,0.0039
3914.00,0.0039
3913.00,0.0039
3912.00,0.0039
3911.00,0.0039
3910.00,0.0039
3909.00,0.0039
3908.00,0.0039
3907.00,0.0039
3906.00,0.0039
3905.00,0.0039
3904.00,0.0039
3903.00,0.0039
3902.00,0.0039
3901.00,0.0039
3900.00,0.0039
3899.00,0.0040
3898.00,0.0039
3897.00,0.0039
3896.00,0.0039
3895.00,0.0039
3894.00,0.0039
3893.00,0.0039
3892.00,0.0039
3891.00,0.0039
3890.00,0.0039
3889.00,0.0039
3888.00,0.0039
3887.00,0.0039
3886.00,0.0040
3885.00,0.0040
3884.00,0.0039
3883.00,0.0039
3882.00,0.0039
3881.00,0.0038
3880.00,0.0038
3879.00,0.0038
3878.00,0.0038
3877.00,0.0038
3876.00,0.0038
3875.00,0.0038
3874.00,0.0039
3873.00,0.0039
3872.00,0.0039
3871.00,0.0039
3870.00,0.0039
3869.00,0.0039
3868.00,0.0039
3867.00,0.0039
3866.00,0.0039
3865.00,0.0039
3864.00,0.0039
3863.00,0.0039
3862.00,0.0039
3861.00,0.0039
3860.00,0.0039
3859.00,0.0039
3858.00,0.0038
3857.00,0.0038
3856.00,0.0038
3855.00,0.0038
3854.00,0.0038
3853.00,0.0038
3852.00,0.0038
3851.00,0.0038
3850.00,0.0038
3849.00,0.0038
3848.00,0.0038
3847.00,0.0039
3846.00,0.0039
3845.00,0.0039
3844.00,0.0039
3843.00,0.0039
3842.00,0.0039
3841.00,0.0039
3840.00,0.0039
3839.00,0.0039
3838.00,0.0038
3837.00,0.0038
3836.00,0.0038
3835.00,0.0038
3834.00,0.0038
3833.00,0.0038
3832.00,0.0039
3831.00,0.0039
3830.00,0.0039
3829.00,0.0039
3828.00,0.0039
3827.00,0.0039
3826.00,0.0039
3825.00,0.0039
3824.00,0.0039
3823.00,0.0039
3822.00,0.0039
3821.00,0.0039
3820.00,0.0039
3819.00,0.0039
3818.00,0.0038
3817.00,0.0038
3816.00,0.0039
3815.00,0.0039
3814.00,0.0039
3813.00,0.0039
3812.00,0.0039
3811.00,0.0039
3810.00,0.0039
3809.00,0.0039
3808.00,0.0039
3807.00,0.0039
3806.00,0.0039
3805.00,0.0039
3804.00,0.0039
3803.00,0.0039
3802.00,0.0039
3801.00,0.0039
3800.00,0.0039
3799.00,0.0039
3798.00,0.0039
3797.00,0.0039
3796.00,0.0039
3795.00,0.0040
3794.00,0.0040
3793.00,0.0040
3792.00,0.0039
3791.00,0.0039
3790.00,0.0039
3789.00,0.0039
3788.00,0.0039
3787.00,0.0039
3786.00,0.0039
3785.00,0.0039
3784.00,0.0039
3783.00,0.0039
3782.00,0.0039
3781.00,0.0039
3780.00,0.0039
3779.00,0.0039
3778.00,0.0039
3777.00,0.0039
3776.00,0.0039
3775.00,0.0039
3774.00,0.0039
3773.00,0.0039
3772.00,0.0039
3771.00,0.0039
3770.00,0.0040
3769.00,0.0040
3768.00,0.0039
3767.00,0.0039
3766.00,0.0039
3765.00,0.0039
3764.00,0.0039
3763.00,0.0039
3762.00,0.0039
3761.00,0.0039
3760.00,0.0039
3759.00,0.0039
3758.00,0.0039
3757.00,0.0039
3756.00,0.0040
3755.00,0.0040
3754.00,0.0039
3753.00,0.0039
3752.00,0.0039
3751.00,0.0039
3750.00,0.0039
3749.00,0.0039
3748.00,0.0039
3747.00,0.0039
3746.00,0.0038
3745.00,0.0038
3744.00,0.0038
3743.00,0.0038
3742.00,0.0039
3741.00,0.0039
3740.00,0.0039
3739.00,0.0039
3738.00,0.0039
3737.00,0.0039
3736.00,0.0038
3735.00,0.0038
3734.00,0.0038
3733.00,0.0038
3732.00,0.0038
3731.00,0.0038
3730.00,0.0038
3729.00,0.0038
3728.00,0.0038
3727.00,0.0038
3726.00,0.0038
3725.00,0.0038
3724.00,0.0038
3723.00,0.0038
3722.00,0.0038
3721.00,0.0038
3720.00,0.0038
3719.00,0.0038
3718.00,0.0038
3717.00,0.0038
3716.00,0.0038
3715.00,0.0038
3714.00,0.0038
3713.00,0.0038
3712.00,0.0038
3711.00,0.0038
3710.00,0.0038
3709.00,0.0038
3708.00,0.0038
3707.00,0.0038
3706.00,0.0038
3705.00,0.0038
3704.00,0.0038
3703.00,0.0038
3702.00,0.0038
3701.00,0.0038
3700.00,0.0038
3699.00,0.0038
3698.00,0.0038
3697.00,0.0038
3696.00,0.0038
3695.00,0.0037
3694.00,0.0038
3693.00,0.0038
3692.00,0.0038
3691.00,0.0038
3690.00,0.0038
3689.00,0.0038
3688.00,0.0038
3687.00,0.0039
3686.00,0.0039
3685.00,0.0040
3684.00,0.0040
3683.00,0.0040
3682.00,0.0040
3681.00,0.0040
3680.00,0.0040
3679.00,0.0040
3678.00,0.0040
3677.00,0.0040
3676.00,0.0040
3675.00,0.0041
3674.00,0.0041
3673.00,0.0041
3672.00,0.0042
3671.00,0.0042
3670.00,0.0042
3669.00,0.0042
3668.00,0.0043
3667.00,0.0043
3666.00,0.0043
3665.00,0.0043
3664.00,0.0044
3663.00,0.0044
3662.00,0.0044
3661.00,0.0044
3660.00,0.0044
3659.00,0.0044
3658.00,0.0044
3657.00,0.0044
3656.00,0.0045
3655.00,0.0045
3654.00,0.0045
3653.00,0.0045
3652.00,0.0045
3651.00,0.0045
3650.00,0.0045
3649.00,0.0044
3648.00,0.0044
3647.00,0.0044
3646.00,0.0044
3645.00,0.0044
3644.00,0.0045
3643.00,0.0045
3642.00,0.0045
3641.00,0.0045
3640.00,0.0046
3639.00,0.0046
3638.00,0.0046
3637.00,0.0046
3636.00,0.0046
3635.00,0.0046
3634.00,0.0046
3633.00,0.0045
3632.00,0.0045
3631.00,0.0045
3630.00,0.0045
3629.00,0.0045
3628.00,0.0046
3627.00,0.0046
3626.00,0.0046
3625.00,0.0046
3624.00,0.0046
3623.00,0.0047
3622.00,0.0047
3621.00,0.0047
3620.00,0.0047
3619.00,0.0048
3618.00,0.0048
3617.00,0.0048
3616.00,0.0048
3615.00,0.0049
3614.00,0.0049
3613.00,0.0050
3612.00,0.0050
3611.00,0.0050
3610.00,0.0051
3609.00,0.0051
3608.00,0.0051
3607.00,0.0051
3606.00,0.0052
3605.00,0.0052
3604.00,0.0052
3603.00,0.0052
3602.00,0.0052
3601.00,0.0052
3600.00,0.0053
3599.00,0.0053
3598.00,0.0053
3597.00,0.0053
3596.00,0.0053
3595.00,0.0053
3594.00,0.0054
3593.00,0.0054
3592.00,0.0055
3591.00,0.0055
3590.00,0.0055
3589.00,0.0055
3588.00,0.0056
3587.00,0.0056
3586.00,0.0056
3585.00,0.0057
3584.00,0.0057
3583.00,0.0057
3582.00,0.0057
3581.00,0.0057
3580.00,0.0058
3579.00,0.0058
3578.00,0.0059
3577.00,0.0059
3576.00,0.0059
3575.00,0.0059
3574.00,0.0059
3573.00,0.0059
3572.00,0.0060
3571.00,0.0060
3570.00,0.0060
3569.00,0.0061
3568.00,0.0061
3567.00,0.0062
3566.00,0.0062
3565.00,0.0062
3564.00,0.0062
3563.00,0.0062
3562.00,0.0063
3561.00,0.0063
3560.00,0.0063
3559.00,0.0064
3558.00,0.0064
3557.00,0.0064
3556.00,0.0065
3555.00,0.0065
3554.00,0.0065
3553.00,0.0065
3552.00,0.0065
3551.00,0.0066
3550.00,0.0066
3549.00,0.0066
3548.00,0.0067
3547.00,0.0067
3546.00,0.0068
3545.00,0.0068
3544.00,0.0068
3543.00,0.0068
3542.00,0.0069
3541.00,0.0069
3540.00,0.0069
3539.00,0.0069
3538.00,0.0069
3537.00,0.0068
3536.00,0.0069
3535.00,0.0069
3534.00,0.0069
3533.00,0.0070
3532.00,0.0070
3531.00,0.0070
3530.00,0.0070
3529.00,0.0070
3528.00,0.0070
3527.00,0.0070
3526.00,0.0071
3525.00,0.0071
3524.00,0.0071
3523.00,0.0071
3522.00,0.0071
3521.00,0.0071
3520.00,0.0071
3519.00,0.0072
3518.00,0.0072
3517.00,0.0072
3516.00,0.0072
3515.00,0.0072
3514.00,0.0072
3513.00,0.0073
3512.00,0.0073
3511.00,0.0073
3510.00,0.0073
3509.00,0.0073
3508.00,0.0073
3507.00,0.0073
3506.00,0.0073
3505.00,0.0074
3504.00,0.0074
3503.00,0.0074
3502.00,0.0074
3501.00,0.0074
3500.00,0.0074
3499.00,0.0074
3498.00,0.0075
3497.00,0.0075
3496.00,0.0075
3495.00,0.0075
3494.00,0.0075
3493.00,0.0075
3492.00,0.0075
3491.00,0.0075
3490.00,0.0075
3489.00,0.0076
3488.00,0.0076
3487.00,0.0076
3486.00,0.0076
3485.00,0.0076
3484.00,0.0076
3483.00,0.0076
3482.00,0.0077
3481.00,0.0077
3480.00,0.0077
3479.00,0.0077
3478.00,0.0076
3477.00,0.0076
3476.00,0.0077
3475.00,0.0077
3474.00,0.0077
3473.00,0.0077
3472.00,0.0077
3471.00,0.0077
3470.00,0.0077
3469.00,0.0077
3468.00,0.0077
3467.00,0.0077
3466.00,0.0077
3465.00,0.0077
3464.00,0.0077
3463.00,0.0077
3462.00,0.0077
3461.00,0.0077
3460.00,0.0078
3459.00,0.0078
3458.00,0.0078
3457.00,0.0078
3456.00,0.0078
3455.00,0.0078
3454.00,0.0078
3453.00,0.0078
3452.00,0.0078
3451.00,0.0079
3450.00,0.0079
3449.00,0.0079
3448.00,0.0079
3447.00,0.0079
3446.00,0.0079
3445.00,0.0079
3444.00,0.0079
3443.00,0.0078
3442.00,0.0078
3441.00,0.0078
3440.00,0.0078
3439.00,0.0078
3438.00,0.0079
3437.00,0.0079
3436.00,0.0079
3435.00,0.0079
3434.00,0.0078
3433.00,0.0078
3432.00,0.0079
3431.00,0.0079
3430.00,0.0079
3429.00,0.0079
3428.00,0.0079
3427.00,0.0079
3426.00,0.0079
3425.00,0.0079
3424.00,0.0079
3423.00,0.0079
3422.00,0.0079
3421.00,0.0080
3420.00,0.0080
3419.00,0.0080
3418.00,0.0080
3417.00,0.0080
3416.00,0.0080
3415.00,0.0080
3414.00,0.0080
3413.00,0.0080
3412.00,0.0080
3411.00,0.0080
3410.00,0.0080
3409.00,0.0080
3408.00,0.0080
3407.00,0.0081
3406.00,0.0081
3405.00,0.0081
3404.00,0.0080
3403.00,0.0080
3402.00,0.0080
3401.00,0.0080
3400.00,0.0080
3399.00,0.0080
3398.00,0.0081
3397.00,0.0081
3396.00,0.0081
3395.00,0.0081
3394.00,0.0081
3393.00,0.0081
3392.00,0.0081
3391.00,0.0081
3390.00,0.0081
3389.00,0.0082
3388.00,0.0082
3387.00,0.0082
3386.00,0.0082
3385.00,0.0083
3384.00,0.0083
3383.00,0.0083
3382.00,0.0083
3381.00,0.0083
3380.00,0.0083
3379.00,0.0083
3378.00,0.0083
3377.00,0.0083
3376.00,0.0083
3375.00,0.0083
3374.00,0.0083
3373.00,0.0083
3372.00,0.0083
3371.00,0.0082
3370.00,0.0082
3369.00,0.0082
3368.00,0.0082
3367.00,0.0083
3366.00,0.0083
3365.00,0.0084
3364.00,0.0085
3363.00,0.0085
3362.00,0.0085
3361.00,0.0085
3360.00,0.0085
3359.00,0.0086
3358.00,0.0086
3357.00,0.0087
3356.00,0.0087
3355.00,0.0086
3354.00,0.0086
3353.00,0.0086
3352.00,0.0085
3351.00,0.0086
3350.00,0.0087
3349.00,0.0088
3348.00,0.0088
3347.00,0.0089
3346.00,0.0089
3345.00,0.0089
3344.00,0.0089
3343.00,0.0089
3342.00,0.0089
3341.00,0.0089
3340.00,0.0089
3339.00,0.0089
3338.00,0.0090
3337.00,0.0091
3336.00,0.0091
3335.00,0.0092
3334.00,0.0093
3333.00,0.0093
3332.00,0.0094
3331.00,0.0094
3330.00,0.0094
3329.00,0.0093
3328.00,0.0093
3327.00,0.0093
3326.00,0.0093
3325.00,0.0094
3324.00,0.0094
3323.00,0.0095
3322.00,0.0095
3321.00,0.0095
3320.00,0.0096
3319.00,0.0096
3318.00,0.0096
3317.00,0.0096
3316.00,0.0096
3315.00,0.0096
3314.00,0.0096
3313.00,0.0096
3312.00,0.0096
3311.00,0.0095
3310.00,0.0095
3309.00,0.0094
3308.00,0.0094
3307.00,0.0094
3306.00,0.0095
3305.00,0.0096
3304.00,0.0097
3303.00,0.0099
3302.00,0.0100
3301.00,0.0100
3300.00,0.0100
3299.00,0.0100
3298.00,0.0100
3297.00,0.0100
3296.00,0.0100
3295.00,0.0100
3294.00,0.0100
3293.00,0.0101
3292.00,0.0101
3291.00,0.0101
3290.00,0.0102
3289.00,0.0102
3288.00,0.0102
3287.00,0.0102
3286.00,0.0102
3285.00,0.0101
3284.00,0.0101
3283.00,0.0101
3282.00,0.0101
3281.00,0.0101
3280.00,0.0101
3279.00,0.0100
3278.00,0.0100
3277.00,0.0099
3276.00,0.0098
3275.00,0.0098
3274.00,0.0097
3273.00,0.0096
3272.00,0.0096
3271.00,0.0095
3270.00,0.0095
3269.00,0.0095
3268.00,0.0095
3267.00,0.0095
3266.00,0.0095
3265.00,0.0095
3264.00,0.0094
3263.00,0.0093
3262.00,0.0093
3261.00,0.0093
3260.00,0.0092
3259.00,0.0092
3258.00,0.0091
3257.00,0.0091
3256.00,0.0090
3255.00,0.0090
3254.00,0.0089
3253.00,0.0089
3252.00,0.0089
3251.00,0.0089
3250.00,0.0088
3249.00,0.0088
3248.00,0.0087
3247.00,0.0087
3246.00,0.0087
3245.00,0.0087
3244.00,0.0088
3243.00,0.0088
3242.00,0.0088
3241.00,0.0089
3240.00,0.0090
3239.00,0.0090
3238.00,0.0090
3237.00,0.0090
3236.00,0.0090
3235.00,0.0090
3234.00,0.0090
3233.00,0.0091
3232.00,0.0091
3231.00,0.0092
3230.00,0.0092
3229.00,0.0093
3228.00,0.0093
3227.00,0.0094
3226.00,0.0094
3225.00,0.0094
3224.00,0.0094
3223.00,0.0094
3222.00,0.0095
3221.00,0.0095
3220.00,0.0095
3219.00,0.0095
3218.00,0.0095
3217.00,0.0094
3216.00,0.0094
3215.00,0.0094
3214.00,0.0094
3213.00,0.0093
3212.00,0.0093
3211.00,0.0092
3210.00,0.0092
3209.00,0.0091
3208.00,0.0091
3207.00,0.0091
3206.00,0.0090
3205.00,0.0090
3204.00,0.0090
3203.00,0.0089
3202.00,0.0089
3201.00,0.0088
3200.00,0.0087
3199.00,0.0087
3198.00,0.0087
3197.00,0.0086
3196.00,0.0085
3195.00,0.0085
3194.00,0.0084
3193.00,0.0083
3192.00,0.0083
3191.00,0.0082
3190.00,0.0081
3189.00,0.0081
3188.00,0.0080
3187.00,0.0080
3186.00,0.0079
3185.00,0.0079
3184.00,0.0078
3183.00,0.0077
3182.00,0.0077
3181.00,0.0076
3180.00,0.0075
3179.00,0.0075
3178.00,0.0074
3177.00,0.0073
3176.00,0.0073
3175.00,0.0072
3174.00,0.0071
3173.00,0.0071
3172.00,0.0070
3171.00,0.0069
3170.00,0.0068
3169.00,0.0068
3168.00,0.0068
3167.00,0.0067
3166.00,0.0067
3165.00,0.0066
3164.00,0.0066
3163.00,0.0065
3162.00,0.0064
3161.00,0.0064
3160.00,0.0064
3159.00,0.0063
3158.00,0.0063
3157.00,0.0063
3156.00,0.0062
3155.00,0.0062
3154.00,0.0061
3153.00,0.0061
3152.00,0.0061
3151.00,0.0060
3150.00,0.0060
3149.00,0.0059
3148.00,0.0059
3147.00,0.0059
3146.00,0.0058
3145.00,0.0058
3144.00,0.0058
3143.00,0.0057
3142.00,0.0057
3141.00,0.0057
3140.00,0.0057
3139.00,0.0057
3138.00,0.0057
3137.00,0.0057
3136.00,0.0057
3135.00,0.0057
3134.00,0.0056
3133.00,0.0056
3132.00,0.0056
3131.00,0.0056
3130.00,0.0056
3129.00,0.0057
3128.00,0.0057
3127.00,0.0057
3126.00,0.0057
3125.00,0.0057
3124.00,0.0058
3123.00,0.0058
3122.00,0.0059
3121.00,0.0059
3120.00,0.0060
3119.00,0.0061
3118.00,0.0061
3117.00,0.0062
3116.00,0.0063
3115.00,0.0063
3114.00,0.0064
3113.00,0.0065
3112.00,0.0066
3111.00,0.0067
3110.00,0.0068
3109.00,0.0069
3108.00,0.0070
3107.00,0.0071
3106.00,0.0072
3105.00,0.0073
3104.00,0.0074
3103.00,0.0075
3102.00,0.0076
3101.00,0.0076
3100.00,0.0077
3099.00,0.0078
3098.00,0.0078
3097.00,0.0079
3096.00,0.0079
3095.00,0.0079
3094.00,0.0080
3093.00,0.0080
3092.00,0.0080
3091.00,0.0080
3090.00,0.0080
3089.00,0.0079
3088.00,0.0079
3087.00,0.0079
3086.00,0.0079
3085.00,0.0079
3084.00,0.0079
3083.00,0.0079
3082.00,0.0078
3081.00,0.0078
3080.00,0.0078
3079.00,0.0078
3078.00,0.0077
3077.00,0.0077
3076.00,0.0077
3075.00,0.0076
3074.00,0.0076
3073.00,0.0076
3072.00,0.0076
3071.00,0.0075
3070.00,0.0075
3069.00,0.0075
3068.00,0.0074
3067.00,0.0074
3066.00,0.0073
3065.00,0.0073
3064.00,0.0073
3063.00,0.0072
3062.00,0.0072
3061.00,0.0071
3060.00,0.0070
3059.00,0.0070
3058.00,0.0069
3057.00,0.0068
3056.00,0.0067
3055.00,0.0066
3054.00,0.0066
3053.00,0.0065
3052.00,0.0064
3051.00,0.0064
3050.00,0.0064
3049.00,0.0063
3048.00,0.0063
3047.00,0.0062
3046.00,0.0062
3045.00,0.0062
3044.00,0.0061
3043.00,0.0061
3042.00,0.0061
3041.00,0.0061
3040.00,0.0061
3039.00,0.0061
3038.00,0.0062
3037.00,0.0062
3036.00,0.0062
3035.00,0.0062
3034.00,0.0062
3033.00,0.0062
3032.00,0.0062
3031.00,0.0063
3030.00,0.0063
3029.00,0.0063
3028.00,0.0063
3027.00,0.0064
3026.00,0.0064
3025.00,0.0064
3024.00,0.0065
3023.00,0.0065
3022.00,0.0065
3021.00,0.0066
3020.00,0.0067
3019.00,0.0068
3018.00,0.0068
3017.00,0.0069
3016.00,0.0070
3015.00,0.0071
3014.00,0.0072
3013.00,0.0073
3012.00,0.0075
3011.00,0.0077
3010.00,0.0079
3009.00,0.0081
3008.00,0.0083
3007.00,0.0086
3006.00,0.0088
3005.00,0.0091
3004.00,0.0094
3003.00,0.0096
3002.00,0.0099
3001.00,0.0102
3000.00,0.0104
2999.00,0.0107
2998.00,0.0110
2997.00,0.0113
2996.00,0.0115
2995.00,0.0118
2994.00,0.0121
2993.00,0.0123
2992.00,0.0126
2991.00,0.0128
2990.00,0.0131
2989.00,0.0133
2988.00,0.0135
2987.00,0.0138
2986.00,0.0141
2985.00,0.0144
2984.00,0.0147
2983.00,0.0149
2982.00,0.0151
2981.00,0.0153
2980.00,0.0153
2979.00,0.0152
2978.00,0.0151
2977.00,0.0150
2976.00,0.0150
2975.00,0.0150
2974.00,0.0150
2973.00,0.0150
2972.00,0.0151
2971.00,0.0151
2970.00,0.0151
2969.00,0.0150
2968.00,0.0150
2967.00,0.0149
2966.00,0.0150
2965.00,0.0150
2964.00,0.0151
2963.00,0.0152
2962.00,0.0153
2961.00,0.0154
2960.00,0.0156
2959.00,0.0158
2958.00,0.0161
2957.00,0.0163
2956.00,0.0165
2955.00,0.0166
2954.00,0.0168
2953.00,0.0170
2952.00,0.0172
2951.00,0.0173
2950.00,0.0173
2949.00,0.0173
2948.00,0.0173
2947.00,0.0171
2946.00,0.0169
2945.00,0.0166
2944.00,0.0163
2943.00,0.0159
2942.00,0.0156
2941.00,0.0152
2940.00,0.0148
2939.00,0.0144
2938.00,0.0140
2937.00,0.0136
2936.00,0.0133
2935.00,0.0129
2934.00,0.0126
2933.00,0.0124
2932.00,0.0121
2931.00,0.0119
2930.00,0.0116
2929.00,0.0114
2928.00,0.0112
2927.00,0.0110
2926.00,0.0109
2925.00,0.0108
2924.00,0.0107
2923.00,0.0106
2922.00,0.0106
2921.00,0.0106
2920.00,0.0106
2919.00,0.0106
2918.00,0.0107
2917.00,0.0108
2916.00,0.0108
2915.00,0.0109
2914.00,0.0110
2913.00,0.0111
2912.00,0.0112
2911.00,0.0113
2910.00,0.0113
2909.00,0.0114
2908.00,0.0114
2907.00,0.0113
2906.00,0.0113
2905.00,0.0113
2904.00,0.0113
2903.00,0.0114
2902.00,0.0114
2901.00,0.0114
2900.00,0.0115
2899.00,0.0116
2898.00,0.0117
2897.00,0.0117
2896.00,0.0118
2895.00,0.0119
2894.00,0.0120
2893.00,0.0121
2892.00,0.0122
2891.00,0.0123
2890.00,0.0124
2889.00,0.0125
2888.00,0.0125
2887.00,0.0126
2886.00,0.0127
2885.00,0.0127
2884.00,0.0127
2883.00,0.0128
2882.00,0.0128
2881.00,0.0127
2880.00,0.0127
2879.00,0.0126
2878.00,0.0125
2877.00,0.0124
2876.00,0.0123
2875.00,0.0121
2874.00,0.0120
2873.00,0.0119
2872.00,0.0118
2871.00,0.0117
2870.00,0.0115
2869.00,0.0114
2868.00,0.0113
2867.00,0.0111
2866.00,0.0110
2865.00,0.0108
2864.00,0.0106
2863.00,0.0104
2862.00,0.0101
2861.00,0.0098
2860.00,0.0095
2859.00,0.0092
2858.00,0.0089
2857.00,0.0086
2856.00,0.0084
2855.00,0.0081
2854.00,0.0079
2853.00,0.0076
2852.00,0.0075
2851.00,0.0074
2850.00,0.0074
2849.00,0.0074
2848.00,0.0076
2847.00,0.0077
2846.00,0.0079
2845.00,0.0081
2844.00,0.0083
2843.00,0.0084
2842.00,0.0085
2841.00,0.0085
2840.00,0.0085
2839.00,0.0085
2838.00,0.0085
2837.00,0.0085
2836.00,0.0085
2835.00,0.0085
2834.00,0.0084
2833.00,0.0083
2832.00,0.0082
2831.00,0.0081
2830.00,0.0081
2829.00,0.0080
2828.00,0.0079
2827.00,0.0079
2826.00,0.0078
2825.00,0.0077
2824.00,0.0077
2823.00,0.0076
2822.00,0.0075
2821.00,0.0075
2820.00,0.0074
2819.00,0.0073
2818.00,0.0073
2817.00,0.0072
2816.00,0.0072
2815.00,0.0071
2814.00,0.0070
2813.00,0.0070
2812.00,0.0069
2811.00,0.0068
2810.00,0.0068
2809.00,0.0067
2808.00,0.0066
2807.00,0.0066
2806.00,0.0065
2805.00,0.0065
2804.00,0.0064
2803.00,0.0064
2802.00,0.0063
2801.00,0.0063
2800.00,0.0062
2799.00,0.0062
2798.00,0.0061
2797.00,0.0061
2796.00,0.0060
2795.00,0.0060
2794.00,0.0060
2793.00,0.0059
2792.00,0.0059
2791.00,0.0059
2790.00,0.0059
2789.00,0.0059
2788.00,0.0058
2787.00,0.0058
2786.00,0.0057
2785.00,0.0057
2784.00,0.0056
2783.00,0.0056
2782.00,0.0056
2781.00,0.0055
2780.00,0.0055
2779.00,0.0055
2778.00,0.0055
2777.00,0.0054
2776.00,0.0054
2775.00,0.0054
2774.00,0.0054
2773.00,0.0054
2772.00,0.0054
2771.00,0.0054
2770.00,0.0053
2769.00,0.0053
2768.00,0.0053
2767.00,0.0053
2766.00,0.0053
2765.00,0.0052
2764.00,0.0052
2763.00,0.0052
2762.00,0.0052
2761.00,0.0052
2760.00,0.0052
2759.00,0.0052
2758.00,0.0052
2757.00,0.0052
2756.00,0.0052
2755.00,0.0052
2754.00,0.0051
2753.00,0.0051
2752.00,0.0051
2751.00,0.0051
2750.00,0.0051
2749.00,0.0051
2748.00,0.0051
2747.00,0.0051
2746.00,0.0051
2745.00,0.0051
2744.00,0.0051
2743.00,0.0051
2742.00,0.0051
2741.00,0.0051
2740.00,0.0051
2739.00,0.0051
2738.00,0.0051
2737.00,0.0051
2736.00,0.0051
2735.00,0.0051
2734.00,0.0051
2733.00,0.0051
2732.00,0.0051
2731.00,0.0050
2730.00,0.0050
2729.00,0.0050
2728.00,0.0050
2727.00,0.0050
2726.00,0.0051
2725.00,0.0051
2724.00,0.0051
2723.00,0.0051
2722.00,0.0050
2721.00,0.0050
2720.00,0.0050
2719.00,0.0050
2718.00,0.0050
2717.00,0.0051
2716.00,0.0051
2715.00,0.0051
2714.00,0.0051
2713.00,0.0051
2712.00,0.0050
2711.00,0.0050
2710.00,0.0050
2709.00,0.0050
2708.00,0.0050
2707.00,0.0050
2706.00,0.0050
2705.00,0.0050
2704.00,0.0050
2703.00,0.0050
2702.00,0.0050
2701.00,0.0050
2700.00,0.0049
2699.00,0.0049
2698.00,0.0049
2697.00,0.0049
2696.00,0.0049
2695.00,0.0049
2694.00,0.0049
2693.00,0.0049
2692.00,0.0049
2691.00,0.0049
2690.00,0.0049
2689.00,0.0049
2688.00,0.0049
2687.00,0.0049
2686.00,0.0049
2685.00,0.0049
2684.00,0.0049
2683.00,0.0049
2682.00,0.0049
2681.00,0.0049
2680.00,0.0049
2679.00,0.0049
2678.00,0.0049
2677.00,0.0049
2676.00,0.0049
2675.00,0.0049
2674.00,0.0049
2673.00,0.0049
2672.00,0.0049
2671.00,0.0049
2670.00,0.0049
2669.00,0.0049
2668.00,0.0049
2667.00,0.0049
2666.00,0.0050
2665.00,0.0050
2664.00,0.0051
2663.00,0.0051
2662.00,0.0052
2661.00,0.0052
2660.00,0.0052
2659.00,0.0053
2658.00,0.0053
2657.00,0.0053
2656.00,0.0053
2655.00,0.0053
2654.00,0.0053
2653.00,0.0053
2652.00,0.0053
2651.00,0.0053
2650.00,0.0053
2649.00,0.0053
2648.00,0.0053
2647.00,0.0053
2646.00,0.0053
2645.00,0.0053
2644.00,0.0053
2643.00,0.0053
2642.00,0.0053
2641.00,0.0053
2640.00,0.0053
2639.00,0.0053
2638.00,0.0053
2637.00,0.0053
2636.00,0.0053
2635.00,0.0053
2634.00,0.0053
2633.00,0.0053
2632.00,0.0052
2631.00,0.0052
2630.00,0.0052
2629.00,0.0052
2628.00,0.0052
2627.00,0.0053
2626.00,0.0053
2625.00,0.0053
2624.00,0.0053
2623.00,0.0053
2622.00,0.0053
2621.00,0.0053
2620.00,0.0052
2619.00,0.0052
2618.00,0.0052
2617.00,0.0053
2616.00,0.0053
2615.00,0.0053
2614.00,0.0052
2613.00,0.0052
2612.00,0.0052
2611.00,0.0052
2610.00,0.0051
2609.00,0.0051
2608.00,0.0051
2607.00,0.0051
2606.00,0.0051
2605.00,0.0051
2604.00,0.0051
2603.00,0.0051
2602.00,0.0051
2601.00,0.0051
2600.00,0.0051
2599.00,0.0051
2598.00,0.0051
2597.00,0.0051
2596.00,0.0050
2595.00,0.0050
2594.00,0.0050
2593.00,0.0050
2592.00,0.0050
2591.00,0.0050
2590.00,0.0050
2589.00,0.0050
2588.00,0.0051
2587.00,0.0051
2586.00,0.0051
2585.00,0.0051
2584.00,0.0051
2583.00,0.0051
2582.00,0.0050
2581.00,0.0050
2580.00,0.0050
2579.00,0.0050
2578.00,0.0050
2577.00,0.0050
2576.00,0.0050
2575.00,0.0050
2574.00,0.0050
2573.00,0.0050
2572.00,0.0050
2571.00,0.0050
2570.00,0.0050
2569.00,0.0050
2568.00,0.0049
2567.00,0.0049
2566.00,0.0049
2565.00,0.0049
2564.00,0.0049
2563.00,0.0049
2562.00,0.0049
2561.00,0.0049
2560.00,0.0050
2559.00,0.0050
2558.00,0.0050
2557.00,0.0050
2556.00,0.0049
2555.00,0.0050
2554.00,0.0049
2553.00,0.0049
2552.00,0.0049
2551.00,0.0049
2550.00,0.0049
2549.00,0.0048
2548.00,0.0048
2547.00,0.0048
2546.00,0.0049
2545.00,0.0049
2544.00,0.0049
2543.00,0.0048
2542.00,0.0048
2541.00,0.0047
2540.00,0.0048
2539.00,0.0048
2538.00,0.0048
2537.00,0.0048
2536.00,0.0048
2535.00,0.0048
2534.00,0.0048
2533.00,0.0048
2532.00,0.0048
2531.00,0.0048
2530.00,0.0048
2529.00,0.0047
2528.00,0.0047
2527.00,0.0047
2526.00,0.0047
2525.00,0.0047
2524.00,0.0047
2523.00,0.0047
2522.00,0.0047
2521.00,0.0047
2520.00,0.0047
2519.00,0.0047
2518.00,0.0047
2517.00,0.0047
2516.00,0.0047
2515.00,0.0047
2514.00,0.0047
2513.00,0.0046
2512.00,0.0047
2511.00,0.0047
2510.00,0.0047
2509.00,0.0047
2508.00,0.0047
2507.00,0.0047
2506.00,0.0047
2505.00,0.0047
2504.00,0.0047
2503.00,0.0047
2502.00,0.0047
2501.00,0.0047
2500.00,0.0047
2499.00,0.0047
2498.00,0.0047
2497.00,0.0047
2496.00,0.0047
2495.00,0.0047
2494.00,0.0047
2493.00,0.0047
2492.00,0.0048
2491.00,0.0048
2490.00,0.0048
2489.00,0.0047
2488.00,0.0047
2487.00,0.0047
2486.00,0.0047
2485.00,0.0047
2484.00,0.0047
2483.00,0.0047
2482.00,0.0047
2481.00,0.0046
2480.00,0.0046
2479.00,0.0046
2478.00,0.0046
2477.00,0.0046
2476.00,0.0046
2475.00,0.0047
2474.00,0.0047
2473.00,0.0047
2472.00,0.0047
2471.00,0.0047
2470.00,0.0047
2469.00,0.0047
2468.00,0.0047
2467.00,0.0047
2466.00,0.0047
2465.00,0.0047
2464.00,0.0047
2463.00,0.0047
2462.00,0.0047
2461.00,0.0047
2460.00,0.0047
2459.00,0.0047
2458.00,0.0047
2457.00,0.0047
2456.00,0.0047
2455.00,0.0048
2454.00,0.0048
2453.00,0.0048
2452.00,0.0048
2451.00,0.0048
2450.00,0.0048
2449.00,0.0048
2448.00,0.0048
2447.00,0.0048
2446.00,0.0048
2445.00,0.0047
2444.00,0.0047
2443.00,0.0048
2442.00,0.0047
2441.00,0.0047
2440.00,0.0047
2439.00,0.0047
2438.00,0.0047
2437.00,0.0047
2436.00,0.0047
2435.00,0.0047
2434.00,0.0047
2433.00,0.0047
2432.00,0.0047
2431.00,0.0047
2430.00,0.0047
2429.00,0.0047
2428.00,0.0047
2427.00,0.0047
2426.00,0.0047
2425.00,0.0047
2424.00,0.0047
2423.00,0.0048
2422.00,0.0048
2421.00,0.0048
2420.00,0.0047
2419.00,0.0047
2418.00,0.0047
2417.00,0.0046
2416.00,0.0046
2415.00,0.0046
2414.00,0.0047
2413.00,0.0047
2412.00,0.0047
2411.00,0.0046
2410.00,0.0046
2409.00,0.0046
2408.00,0.0045
2407.00,0.0045
2406.00,0.0045
2405.00,0.0045
2404.00,0.0045
2403.00,0.0045
2402.00,0.0045
2401.00,0.0045
2400.00,0.0045
2399.00,0.0045
2398.00,0.0045
2397.00,0.0045
2396.00,0.0045
2395.00,0.0045
2394.00,0.0045
2393.00,0.0045
2392.00,0.0045
2391.00,0.0046
2390.00,0.0046
2389.00,0.0046
2388.00,0.0046
2387.00,0.0045
2386.00,0.0045
2385.00,0.0045
2384.00,0.0044
2383.00,0.0044
2382.00,0.0043
2381.00,0.0043
2380.00,0.0042
2379.00,0.0042
2378.00,0.0042
2377.00,0.0043
2376.00,0.0043
2375.00,0.0043
2374.00,0.0044
2373.00,0.0044
2372.00,0.0044
2371.00,0.0044
2370.00,0.0044
2369.00,0.0044
2368.00,0.0043
2367.00,0.0043
2366.00,0.0043
2365.00,0.0043
2364.00,0.0043
2363.00,0.0044
2362.00,0.0044
2361.00,0.0045
2360.00,0.0045
2359.00,0.0045
2358.00,0.0045
2357.00,0.0045
2356.00,0.0045
2355.00,0.0045
2354.00,0.0046
2353.00,0.0046
2352.00,0.0045
2351.00,0.0045
2350.00,0.0046
2349.00,0.0047
2348.00,0.0048
2347.00,0.0047
2346.00,0.0047
2345.00,0.0046
2344.00,0.0045
2343.00,0.0046
2342.00,0.0047
2341.00,0.0047
2340.00,0.0048
2339.00,0.0049
2338.00,0.0049
2337.00,0.0050
2336.00,0.0050
2335.00,0.0050
2334.00,0.0050
2333.00,0.0050
2332.00,0.0050
2331.00,0.0049
2330.00,0.0050
2329.00,0.0051
2328.00,0.0054
2327.00,0.0057
2326.00,0.0060
2325.00,0.0062
2324.00,0.0061
2323.00,0.0059
2322.00,0.0057
2321.00,0.0056
2320.00,0.0054
2319.00,0.0053
2318.00,0.0053
2317.00,0.0053
2316.00,0.0053
2315.00,0.0053
2314.00,0.0052
2313.00,0.0052
2312.00,0.0051
2311.00,0.0050
2310.00,0.0050
2309.00,0.0049
2308.00,0.0050
2307.00,0.0050
2306.00,0.0050
2305.00,0.0051
2304.00,0.0051
2303.00,0.0050
2302.00,0.0050
2301.00,0.0050
2300.00,0.0050
2299.00,0.0050
2298.00,0.0051
2297.00,0.0051
2296.00,0.0052
2295.00,0.0052
2294.00,0.0053
2293.00,0.0054
2292.00,0.0055
2291.00,0.0056
2290.00,0.0057
2289.00,0.0057
2288.00,0.0057
2287.00,0.0058
2286.00,0.0058
2285.00,0.0058
2284.00,0.0057
2283.00,0.0056
2282.00,0.0055
2281.00,0.0055
2280.00,0.0055
2279.00,0.0055
2278.00,0.0055
2277.00,0.0055
2276.00,0.0055
2275.00,0.0054
2274.00,0.0053
2273.00,0.0053
2272.00,0.0052
2271.00,0.0052
2270.00,0.0052
2269.00,0.0051
2268.00,0.0051
2267.00,0.0051
2266.00,0.0051
2265.00,0.0050
2264.00,0.0049
2263.00,0.0049
2262.00,0.0049
2261.00,0.0050
2260.00,0.0050
2259.00,0.0050
2258.00,0.0049
2257.00,0.0048
2256.00,0.0047
2255.00,0.0047
2254.00,0.0048
2253.00,0.0048
2252.00,0.0049
2251.00,0.0049
2250.00,0.0049
2249.00,0.0049
2248.00,0.0049
2247.00,0.0049
2246.00,0.0048
2245.00,0.0048
2244.00,0.0048
2243.00,0.0048
2242.00,0.0048
2241.00,0.0048
2240.00,0.0048
2239.00,0.0048
2238.00,0.0048
2237.00,0.0048
2236.00,0.0047
2235.00,0.0047
2234.00,0.0046
2233.00,0.0046
2232.00,0.0046
2231.00,0.0046
2230.00,0.0045
2229.00,0.0045
2228.00,0.0046
2227.00,0.0046
2226.00,0.0046
2225.00,0.0046
2224.00,0.0046
2223.00,0.0046
2222.00,0.0047
2221.00,0.0047
2220.00,0.0047
2219.00,0.0046
2218.00,0.0045
2217.00,0.0044
2216.00,0.0044
2215.00,0.0044
2214.00,0.0045
2213.00,0.0045
2212.00,0.0046
2211.00,0.0046
2210.00,0.0046
2209.00,0.0046
2208.00,0.0046
2207.00,0.0046
2206.00,0.0046
2205.00,0.0046
2204.00,0.0047
2203.00,0.0046
2202.00,0.0046
2201.00,0.0046
2200.00,0.0045
2199.00,0.0044
2198.00,0.0044
2197.00,0.0044
2196.00,0.0045
2195.00,0.0046
2194.00,0.0046
2193.00,0.0046
2192.00,0.0045
2191.00,0.0045
2190.00,0.0044
2189.00,0.0044
2188.00,0.0045
2187.00,0.0045
2186.00,0.0045
2185.00,0.0044
2184.00,0.0044
2183.00,0.0044
2182.00,0.0043
2181.00,0.0044
2180.00,0.0045
2179.00,0.0045
2178.00,0.0044
2177.00,0.0043
2176.00,0.0041
2175.00,0.0041
2174.00,0.0042
2173.00,0.0044
2172.00,0.0046
2171.00,0.0049
2170.00,0.0051
2169.00,0.0052
2168.00,0.0053
2167.00,0.0054
2166.00,0.0054
2165.00,0.0055
2164.00,0.0057
2163.00,0.0056
2162.00,0.0052
2161.00,0.0044
2160.00,0.0033
2159.00,0.0024
2158.00,0.0019
2157.00,0.0019
2156.00,0.0021
2155.00,0.0024
2154.00,0.0027
2153.00,0.0029
2152.00,0.0030
2151.00,0.0031
2150.00,0.0031
2149.00,0.0031
2148.00,0.0031
2147.00,0.0031
2146.00,0.0032
2145.00,0.0032
2144.00,0.0031
2143.00,0.0031
2142.00,0.0032
2141.00,0.0032
2140.00,0.0033
2139.00,0.0032
2138.00,0.0031
2137.00,0.0029
2136.00,0.0027
2135.00,0.0026
2134.00,0.0026
2133.00,0.0027
2132.00,0.0030
2131.00,0.0032
2130.00,0.0034
2129.00,0.0035
2128.00,0.0036
2127.00,0.0037
2126.00,0.0037
2125.00,0.0038
2124.00,0.0039
2123.00,0.0040
2122.00,0.0041
2121.00,0.0042
2120.00,0.0043
2119.00,0.0044
2118.00,0.0044
2117.00,0.0044
2116.00,0.0045
2115.00,0.0045
2114.00,0.0046
2113.00,0.0046
2112.00,0.0046
2111.00,0.0046
2110.00,0.0046
2109.00,0.0046
2108.00,0.0046
2107.00,0.0046
2106.00,0.0046
2105.00,0.0045
2104.00,0.0045
2103.00,0.0044
2102.00,0.0045
2101.00,0.0045
2100.00,0.0045
2099.00,0.0045
2098.00,0.0044
2097.00,0.0042
2096.00,0.0041
2095.00,0.0040
2094.00,0.0040
2093.00,0.0040
2092.00,0.0041
2091.00,0.0043
2090.00,0.0044
2089.00,0.0045
2088.00,0.0046
2087.00,0.0046
2086.00,0.0046
2085.00,0.0047
2084.00,0.0047
2083.00,0.0048
2082.00,0.0047
2081.00,0.0046
2080.00,0.0045
2079.00,0.0045
2078.00,0.0044
2077.00,0.0045
2076.00,0.0046
2075.00,0.0046
2074.00,0.0046
2073.00,0.0046
2072.00,0.0046
2071.00,0.0045
2070.00,0.0045
2069.00,0.0045
2068.00,0.0046
2067.00,0.0046
2066.00,0.0046
2065.00,0.0045
2064.00,0.0045
2063.00,0.0044
2062.00,0.0044
2061.00,0.0044
2060.00,0.0044
2059.00,0.0044
2058.00,0.0043
2057.00,0.0043
2056.00,0.0043
2055.00,0.0044
2054.00,0.0048
2053.00,0.0052
2052.00,0.0055
2051.00,0.0055
2050.00,0.0052
2049.00,0.0047
2048.00,0.0044
2047.00,0.0043
2046.00,0.0042
2045.00,0.0041
2044.00,0.0041
2043.00,0.0041
2042.00,0.0041
2041.00,0.0040
2040.00,0.0041
2039.00,0.0041
2038.00,0.0040
2037.00,0.0039
2036.00,0.0038
2035.00,0.0037
2034.00,0.0035
2033.00,0.0034
2032.00,0.0034
2031.00,0.0033
2030.00,0.0032
2029.00,0.0031
2028.00,0.0031
2027.00,0.0031
2026.00,0.0032
2025.00,0.0034
2024.00,0.0035
2023.00,0.0035
2022.00,0.0033
2021.00,0.0032
2020.00,0.0030
2019.00,0.0030
2018.00,0.0029
2017.00,0.0030
2016.00,0.0032
2015.00,0.0033
2014.00,0.0035
2013.00,0.0037
2012.00,0.0038
2011.00,0.0038
2010.00,0.0037
2009.00,0.0034
2008.00,0.0032
2007.00,0.0028
2006.00,0.0026
2005.00,0.0026
2004.00,0.0027
2003.00,0.0029
2002.00,0.0031
2001.00,0.0033
2000.00,0.0035
1999.00,0.0036
1998.00,0.0036
1997.00,0.0036
1996.00,0.0037
1995.00,0.0038
1994.00,0.0040
1993.00,0.0042
1992.00,0.0044
1991.00,0.0045
1990.00,0.0044
1989.00,0.0044
1988.00,0.0044
1987.00,0.0044
1986.00,0.0044
1985.00,0.0045
1984.00,0.0047
1983.00,0.0049
1982.00,0.0051
1981.00,0.0051
1980.00,0.0049
1979.00,0.0043
1978.00,0.0037
1977.00,0.0032
1976.00,0.0031
1975.00,0.0031
1974.00,0.0032
1973.00,0.0032
1972.00,0.0033
1971.00,0.0033
1970.00,0.0031
1969.00,0.0031
1968.00,0.0031
1967.00,0.0032
1966.00,0.0032
1965.00,0.0033
1964.00,0.0034
1963.00,0.0034
1962.00,0.0033
1961.00,0.0032
1960.00,0.0031
1959.00,0.0029
1958.00,0.0029
1957.00,0.0030
1956.00,0.0031
1955.00,0.0032
1954.00,0.0032
1953.00,0.0032
1952.00,0.0033
1951.00,0.0033
1950.00,0.0034
1949.00,0.0034
1948.00,0.0035
1947.00,0.0036
1946.00,0.0035
1945.00,0.0035
1944.00,0.0035
1943.00,0.0035
1942.00,0.0035
1941.00,0.0035
1940.00,0.0034
1939.00,0.0034
1938.00,0.0033
1937.00,0.0033
1936.00,0.0033
1935.00,0.0033
1934.00,0.0033
1933.00,0.0033
1932.00,0.0034
1931.00,0.0034
1930.00,0.0034
1929.00,0.0034
1928.00,0.0034
1927.00,0.0034
1926.00,0.0034
1925.00,0.0034
1924.00,0.0035
1923.00,0.0036
1922.00,0.0037
1921.00,0.0037
1920.00,0.0038
1919.00,0.0039
1918.00,0.0039
1917.00,0.0039
1916.00,0.0039
1915.00,0.0039
1914.00,0.0039
1913.00,0.0039
1912.00,0.0039
1911.00,0.0039
1910.00,0.0039
1909.00,0.0039
1908.00,0.0040
1907.00,0.0040
1906.00,0.0039
1905.00,0.0039
1904.00,0.0039
1903.00,0.0039
1902.00,0.0039
1901.00,0.0039
1900.00,0.0038
1899.00,0.0038
1898.00,0.0038
1897.00,0.0038
1896.00,0.0038
1895.00,0.0038
1894.00,0.0038
1893.00,0.0038
1892.00,0.0039
1891.00,0.0039
1890.00,0.0039
1889.00,0.0039
1888.00,0.0039
1887.00,0.0039
1886.00,0.0038
1885.00,0.0037
1884.00,0.0037
1883.00,0.0037
1882.00,0.0037
1881.00,0.0037
1880.00,0.0037
1879.00,0.0037
1878.00,0.0037
1877.00,0.0037
1876.00,0.0037
1875.00,0.0037
1874.00,0.0037
1873.00,0.0038
1872.00,0.0039
1871.00,0.0040
1870.00,0.0040
1869.00,0.0040
1868.00,0.0040
1867.00,0.0040
1866.00,0.0039
1865.00,0.0038
1864.00,0.0038
1863.00,0.0037
1862.00,0.0037
1861.00,0.0038
1860.00,0.0038
1859.00,0.0038
1858.00,0.0038
1857.00,0.0038
1856.00,0.0038
1855.00,0.0038
1854.00,0.0038
1853.00,0.0037
1852.00,0.0038
1851.00,0.0038
1850.00,0.0038
1849.00,0.0038
1848.00,0.0039
1847.00,0.0040
1846.00,0.0040
1845.00,0.0040
1844.00,0.0040
1843.00,0.0039
1842.00,0.0038
1841.00,0.0038
1840.00,0.0038
1839.00,0.0038
1838.00,0.0037
1837.00,0.0037
1836.00,0.0038
1835.00,0.0038
1834.00,0.0038
1833.00,0.0038
1832.00,0.0039
1831.00,0.0039
1830.00,0.0039
1829.00,0.0039
1828.00,0.0039
1827.00,0.0040
1826.00,0.0040
1825.00,0.0040
1824.00,0.0040
1823.00,0.0039
1822.00,0.0037
1821.00,0.0036
1820.00,0.0035
1819.00,0.0035
1818.00,0.0035
1817.00,0.0034
1816.00,0.0035
1815.00,0.0035
1814.00,0.0036
1813.00,0.0036
1812.00,0.0037
1811.00,0.0037
1810.00,0.0037
1809.00,0.0037
1808.00,0.0037
1807.00,0.0037
1806.00,0.0036
1805.00,0.0036
1804.00,0.0037
1803.00,0.0038
1802.00,0.0039
1801.00,0.0039
1800.00,0.0039
1799.00,0.0038
1798.00,0.0037
1797.00,0.0038
1796.00,0.0039
1795.00,0.0039
1794.00,0.0040
1793.00,0.0040
1792.00,0.0040
1791.00,0.0040
1790.00,0.0039
1789.00,0.0038
1788.00,0.0038
1787.00,0.0038
1786.00,0.0038
1785.00,0.0038
1784.00,0.0038
1783.00,0.0038
1782.00,0.0038
1781.00,0.0038
1780.00,0.0038
1779.00,0.0037
1778.00,0.0037
1777.00,0.0037
1776.00,0.0038
1775.00,0.0039
1774.00,0.0039
1773.00,0.0038
1772.00,0.0038
1771.00,0.0038
1770.00,0.0039
1769.00,0.0040
1768.00,0.0040
1767.00,0.0039
1766.00,0.0038
1765.00,0.0038
1764.00,0.0038
1763.00,0.0038
1762.00,0.0038
1761.00,0.0037
1760.00,0.0037
1759.00,0.0037
1758.00,0.0036
1757.00,0.0035
1756.00,0.0034
1755.00,0.0033
1754.00,0.0032
1753.00,0.0032
1752.00,0.0032
1751.00,0.0031
1750.00,0.0030
1749.00,0.0029
1748.00,0.0027
1747.00,0.0025
1746.00,0.0023
1745.00,0.0022
1744.00,0.0021
1743.00,0.0020
1742.00,0.0019
1741.00,0.0018
1740.00,0.0017
1739.00,0.0017
1738.00,0.0018
1737.00,0.0020
1736.00,0.0022
1735.00,0.0023
1734.00,0.0024
1733.00,0.0027
1732.00,0.0030
1731.00,0.0033
1730.00,0.0035
1729.00,0.0037
1728.00,0.0039
1727.00,0.0041
1726.00,0.0043
1725.00,0.0046
1724.00,0.0051
1723.00,0.0055
1722.00,0.0060
1721.00,0.0066
1720.00,0.0073
1719.00,0.0082
1718.00,0.0091
1717.00,0.0103
1716.00,0.0116
1715.00,0.0130
1714.00,0.0144
1713.00,0.0160
1712.00,0.0178
1711.00,0.0197
1710.00,0.0217
1709.00,0.0239
1708.00,0.0263
1707.00,0.0288
1706.00,0.0313
1705.00,0.0339
1704.00,0.0363
1703.00,0.0383
1702.00,0.0403
1701.00,0.0426
1700.00,0.0452
1699.00,0.0473
1698.00,0.0489
1697.00,0.0504
1696.00,0.0522
1695.00,0.0541
1694.00,0.0558
1693.00,0.0575
1692.00,0.0593
1691.00,0.0613
1690.00,0.0636
1689.00,0.0659
1688.00,0.0680
1687.00,0.0699
1686.00,0.0719
1685.00,0.0746
1684.00,0.0778
1683.00,0.0805
1682.00,0.0823
1681.00,0.0838
1680.00,0.0851
1679.00,0.0863
1678.00,0.0873
1677.00,0.0882
1676.00,0.0892
1675.00,0.0901
1674.00,0.0906
1673.00,0.0908
1672.00,0.0908
1671.00,0.0909
1670.00,0.0911
1669.00,0.0912
1668.00,0.0912
1667.00,0.0911
1666.00,0.0909
1665.00,0.0908
1664.00,0.0908
1663.00,0.0911
1662.00,0.0914
1661.00,0.0916
1660.00,0.0916
1659.00,0.0915
1658.00,0.0914
1657.00,0.0912
1656.00,0.0909
1655.00,0.0905
1654.00,0.0903
1653.00,0.0902
1652.00,0.0898
1651.00,0.0891
1650.00,0.0884
1649.00,0.0875
1648.00,0.0865
1647.00,0.0854
1646.00,0.0839
1645.00,0.0821
1644.00,0.0801
1643.00,0.0780
1642.00,0.0757
1641.00,0.0732
1640.00,0.0706
1639.00,0.0681
1638.00,0.0656
1637.00,0.0631
1636.00,0.0605
1635.00,0.0580
1634.00,0.0559
1633.00,0.0541
1632.00,0.0525
1631.00,0.0511
1630.00,0.0498
1629.00,0.0485
1628.00,0.0474
1627.00,0.0464
1626.00,0.0454
1625.00,0.0444
1624.00,0.0434
1623.00,0.0423
1622.00,0.0412
1621.00,0.0401
1620.00,0.0390
1619.00,0.0378
1618.00,0.0365
1617.00,0.0351
1616.00,0.0338
1615.00,0.0326
1614.00,0.0316
1613.00,0.0306
1612.00,0.0295
1611.00,0.0285
1610.00,0.0276
1609.00,0.0269
1608.00,0.0264
1607.00,0.0260
1606.00,0.0256
1605.00,0.0253
1604.00,0.0249
1603.00,0.0243
1602.00,0.0236
1601.00,0.0226
1600.00,0.0217
1599.00,0.0207
1598.00,0.0199
1597.00,0.0191
1596.00,0.0184
1595.00,0.0178
1594.00,0.0173
1593.00,0.0168
1592.00,0.0163
1591.00,0.0158
1590.00,0.0155
1589.00,0.0151
1588.00,0.0147
1587.00,0.0144
1586.00,0.0142
1585.00,0.0139
1584.00,0.0138
1583.00,0.0137
1582.00,0.0137
1581.00,0.0138
1580.00,0.0140
1579.00,0.0141
1578.00,0.0141
1577.00,0.0139
1576.00,0.0136
1575.00,0.0133
1574.00,0.0131
1573.00,0.0129
1572.00,0.0126
1571.00,0.0123
1570.00,0.0120
1569.00,0.0117
1568.00,0.0114
1567.00,0.0112
1566.00,0.0110
1565.00,0.0108
1564.00,0.0107
1563.00,0.0106
1562.00,0.0106
1561.00,0.0105
1560.00,0.0105
1559.00,0.0104
1558.00,0.0104
1557.00,0.0104
1556.00,0.0103
1555.00,0.0103
1554.00,0.0102
1553.00,0.0102
1552.00,0.0103
1551.00,0.0105
1550.00,0.0107
1549.00,0.0110
1548.00,0.0113
1547.00,0.0117
1546.00,0.0124
1545.00,0.0135
1544.00,0.0146
1543.00,0.0159
1542.00,0.0175
1541.00,0.0196
1540.00,0.0225
1539.00,0.0259
1538.00,0.0292
1537.00,0.0323
1536.00,0.0354
1535.00,0.0389
1534.00,0.0429
1533.00,0.0468
1532.00,0.0499
1531.00,0.0519
1530.00,0.0530
1529.00,0.0533
1528.00,0.0526
1527.00,0.0510
1526.00,0.0485
1525.00,0.0455
1524.00,0.0423
1523.00,0.0391
1522.00,0.0360
1521.00,0.0330
1520.00,0.0309
1519.00,0.0295
1518.00,0.0287
1517.00,0.0282
1516.00,0.0281
1515.00,0.0282
1514.00,0.0286
1513.00,0.0294
1512.00,0.0304
1511.00,0.0317
1510.00,0.0331
1509.00,0.0346
1508.00,0.0363
1507.00,0.0381
1506.00,0.0399
1505.00,0.0412
1504.00,0.0423
1503.00,0.0433
1502.00,0.0444
1501.00,0.0454
1500.00,0.0463
1499.00,0.0472
1498.00,0.0480
1497.00,0.0486
1496.00,0.0490
1495.00,0.0491
1494.00,0.0490
1493.00,0.0488
1492.00,0.0484
1491.00,0.0477
1490.00,0.0468
1489.00,0.0454
1488.00,0.0436
1487.00,0.0415
1486.00,0.0395
1485.00,0.0375
1484.00,0.0357
1483.00,0.0339
1482.00,0.0323
1481.00,0.0309
1480.00,0.0298
1479.00,0.0289
1478.00,0.0282
1477.00,0.0277
1476.00,0.0273
1475.00,0.0271
1474.00,0.0269
1473.00,0.0268
1472.00,0.0270
1471.00,0.0274
1470.00,0.0280
1469.00,0.0289
1468.00,0.0302
1467.00,0.0318
1466.00,0.0339
1465.00,0.0363
1464.00,0.0386
1463.00,0.0405
1462.00,0.0418
1461.00,0.0427
1460.00,0.0432
1459.00,0.0432
1458.00,0.0426
1457.00,0.0413
1456.00,0.0396
1455.00,0.0380
1454.00,0.0367
1453.00,0.0357
1452.00,0.0350
1451.00,0.0346
1450.00,0.0347
1449.00,0.0353
1448.00,0.0363
1447.00,0.0376
1446.00,0.0390
1445.00,0.0406
1444.00,0.0423
1443.00,0.0442
1442.00,0.0462
1441.00,0.0482
1440.00,0.0502
1439.00,0.0522
1438.00,0.0545
1437.00,0.0572
1436.00,0.0598
1435.00,0.0617
1434.00,0.0631
1433.00,0.0642
1432.00,0.0650
1431.00,0.0657
1430.00,0.0661
1429.00,0.0664
1428.00,0.0668
1427.00,0.0673
1426.00,0.0681
1425.00,0.0692
1424.00,0.0703
1423.00,0.0710
1422.00,0.0711
1421.00,0.0706
1420.00,0.0693
1419.00,0.0670
1418.00,0.0638
1417.00,0.0602
1416.00,0.0563
1415.00,0.0523
1414.00,0.0484
1413.00,0.0447
1412.00,0.0414
1411.00,0.0383
1410.00,0.0356
1409.00,0.0332
1408.00,0.0312
1407.00,0.0294
1406.00,0.0279
1405.00,0.0265
1404.00,0.0252
1403.00,0.0241
1402.00,0.0233
1401.00,0.0226
1400.00,0.0220
1399.00,0.0216
1398.00,0.0214
1397.00,0.0212
1396.00,0.0211
1395.00,0.0211
1394.00,0.0211
1393.00,0.0213
1392.00,0.0216
1391.00,0.0221
1390.00,0.0228
1389.00,0.0238
1388.00,0.0250
1387.00,0.0264
1386.00,0.0276
1385.00,0.0287
1384.00,0.0296
1383.00,0.0304
1382.00,0.0308
1381.00,0.0310
1380.00,0.0308
1379.00,0.0304
1378.00,0.0300
1377.00,0.0295
1376.00,0.0291
1375.00,0.0288
1374.00,0.0287
1373.00,0.0285
1372.00,0.0284
1371.00,0.0284
1370.00,0.0286
1369.00,0.0289
1368.00,0.0292
1367.00,0.0297
1366.00,0.0303
1365.00,0.0312
1364.00,0.0322
1363.00,0.0333
1362.00,0.0345
1361.00,0.0354
1360.00,0.0363
1359.00,0.0370
1358.00,0.0377
1357.00,0.0383
1356.00,0.0387
1355.00,0.0389
1354.00,0.0389
1353.00,0.0386
1352.00,0.0380
1351.00,0.0373
1350.00,0.0363
1349.00,0.0352
1348.00,0.0339
1347.00,0.0325
1346.00,0.0312
1345.00,0.0299
1344.00,0.0288
1343.00,0.0279
1342.00,0.0273
1341.00,0.0269
1340.00,0.0266
1339.00,0.0264
1338.00,0.0261
1337.00,0.0258
1336.00,0.0256
1335.00,0.0254
1334.00,0.0253
1333.00,0.0253
1332.00,0.0254
1331.00,0.0256
1330.00,0.0259
1329.00,0.0263
1328.00,0.0268
1327.00,0.0274
1326.00,0.0280
1325.00,0.0287
1324.00,0.0295
1323.00,0.0303
1322.00,0.0312
1321.00,0.0322
1320.00,0.0332
1319.00,0.0343
1318.00,0.0355
1317.00,0.0368
1316.00,0.0381
1315.00,0.0396
1314.00,0.0411
1313.00,0.0427
1312.00,0.0443
1311.00,0.0456
1310.00,0.0466
1309.00,0.0471
1308.00,0.0471
1307.00,0.0464
1306.00,0.0454
1305.00,0.0442
1304.00,0.0430
1303.00,0.0420
1302.00,0.0414
1301.00,0.0411
1300.00,0.0412
1299.00,0.0418
1298.00,0.0429
1297.00,0.0446
1296.00,0.0468
1295.00,0.0496
1294.00,0.0529
1293.00,0.0564
1292.00,0.0601
1291.00,0.0637
1290.00,0.0672
1289.00,0.0703
1288.00,0.0730
1287.00,0.0753
1286.00,0.0770
1285.00,0.0782
1284.00,0.0790
1283.00,0.0795
1282.00,0.0797
1281.00,0.0798
1280.00,0.0798
1279.00,0.0797
1278.00,0.0797
1277.00,0.0797
1276.00,0.0798
1275.00,0.0798
1274.00,0.0798
1273.00,0.0797
1272.00,0.0794
1271.00,0.0787
1270.00,0.0776
1269.00,0.0762
1268.00,0.0744
1267.00,0.0722
1266.00,0.0698
1265.00,0.0672
1264.00,0.0644
1263.00,0.0615
1262.00,0.0587
1261.00,0.0559
1260.00,0.0532
1259.00,0.0506
1258.00,0.0482
1257.00,0.0460
1256.00,0.0439
1255.00,0.0421
1254.00,0.0405
1253.00,0.0391
1252.00,0.0380
1251.00,0.0371
1250.00,0.0365
1249.00,0.0362
1248.00,0.0362
1247.00,0.0365
1246.00,0.0370
1245.00,0.0377
1244.00,0.0386
1243.00,0.0395
1242.00,0.0404
1241.00,0.0412
1240.00,0.0417
1239.00,0.0420
1238.00,0.0421
1237.00,0.0420
1236.00,0.0418
1235.00,0.0416
1234.00,0.0416
1233.00,0.0418
1232.00,0.0423
1231.00,0.0430
1230.00,0.0440
1229.00,0.0452
1228.00,0.0466
1227.00,0.0481
1226.00,0.0498
1225.00,0.0515
1224.00,0.0534
1223.00,0.0552
1222.00,0.0572
1221.00,0.0592
1220.00,0.0613
1219.00,0.0634
1218.00,0.0656
1217.00,0.0678
1216.00,0.0699
1215.00,0.0719
1214.00,0.0738
1213.00,0.0753
1212.00,0.0765
1211.00,0.0772
1210.00,0.0772
1209.00,0.0767
1208.00,0.0755
1207.00,0.0737
1206.00,0.0715
1205.00,0.0689
1204.00,0.0661
1203.00,0.0632
1202.00,0.0604
1201.00,0.0577
1200.00,0.0553
1199.00,0.0533
1198.00,0.0517
1197.00,0.0505
1196.00,0.0498
1195.00,0.0496
1194.00,0.0497
1193.00,0.0501
1192.00,0.0507
1191.00,0.0513
1190.00,0.0518
1189.00,0.0522
1188.00,0.0524
1187.00,0.0524
1186.00,0.0521
1185.00,0.0515
1184.00,0.0506
1183.00,0.0495
1182.00,0.0483
1181.00,0.0470
1180.00,0.0456
1179.00,0.0442
1178.00,0.0429
1177.00,0.0415
1176.00,0.0403
1175.00,0.0393
1174.00,0.0384
1173.00,0.0376
1172.00,0.0370
1171.00,0.0365
1170.00,0.0361
1169.00,0.0358
1168.00,0.0356
1167.00,0.0354
1166.00,0.0352
1165.00,0.0349
1164.00,0.0346
1163.00,0.0342
1162.00,0.0336
1161.00,0.0329
1160.00,0.0321
1159.00,0.0312
1158.00,0.0304
1157.00,0.0296
1156.00,0.0291
1155.00,0.0289
1154.00,0.0289
1153.00,0.0293
1152.00,0.0301
1151.00,0.0311
1150.00,0.0323
1149.00,0.0336
1148.00,0.0348
1147.00,0.0357
1146.00,0.0360
1145.00,0.0357
1144.00,0.0348
1143.00,0.0335
1142.00,0.0321
1141.00,0.0310
1140.00,0.0304
1139.00,0.0302
1138.00,0.0306
1137.00,0.0315
1136.00,0.0325
1135.00,0.0334
1134.00,0.0340
1133.00,0.0342
1132.00,0.0340
1131.00,0.0335
1130.00,0.0328
1129.00,0.0324
1128.00,0.0324
1127.00,0.0329
1126.00,0.0341
1125.00,0.0359
1124.00,0.0383
1123.00,0.0411
1122.00,0.0443
1121.00,0.0475
1120.00,0.0507
1119.00,0.0537
1118.00,0.0560
1117.00,0.0577
1116.00,0.0585
1115.00,0.0584
1114.00,0.0576
1113.00,0.0561
1112.00,0.0543
1111.00,0.0524
1110.00,0.0506
1109.00,0.0493
1108.00,0.0486
1107.00,0.0485
1106.00,0.0491
1105.00,0.0502
1104.00,0.0517
1103.00,0.0536
1102.00,0.0555
1101.00,0.0573
1100.00,0.0589
1099.00,0.0600
1098.00,0.0607
1097.00,0.0608
1096.00,0.0603
1095.00,0.0593
1094.00,0.0577
1093.00,0.0557
1092.00,0.0534
1091.00,0.0510
1090.00,0.0484
1089.00,0.0459
1088.00,0.0435
1087.00,0.0412
1086.00,0.0392
1085.00,0.0374
1084.00,0.0358
1083.00,0.0345
1082.00,0.0334
1081.00,0.0325
1080.00,0.0317
1079.00,0.0312
1078.00,0.0307
1077.00,0.0303
1076.00,0.0300
1075.00,0.0298
1074.00,0.0295
1073.00,0.0292
1072.00,0.0289
1071.00,0.0285
1070.00,0.0281
1069.00,0.0278
1068.00,0.0274
1067.00,0.0271
1066.00,0.0270
1065.00,0.0269
1064.00,0.0271
1063.00,0.0274
1062.00,0.0278
1061.00,0.0285
1060.00,0.0292
1059.00,0.0300
1058.00,0.0308
1057.00,0.0316
1056.00,0.0323
1055.00,0.0329
1054.00,0.0333
1053.00,0.0335
1052.00,0.0336
1051.00,0.0335
1050.00,0.0333
1049.00,0.0331
1048.00,0.0329
1047.00,0.0326
1046.00,0.0324
1045.00,0.0322
1044.00,0.0321
1043.00,0.0321
1042.00,0.0323
1041.00,0.0326
1040.00,0.0330
1039.00,0.0334
1038.00,0.0339
1037.00,0.0344
1036.00,0.0349
1035.00,0.0353
1034.00,0.0357
1033.00,0.0362
1032.00,0.0366
1031.00,0.0372
1030.00,0.0378
1029.00,0.0386
1028.00,0.0396
1027.00,0.0406
1026.00,0.0419
1025.00,0.0432
1024.00,0.0446
1023.00,0.0460
1022.00,0.0472
1021.00,0.0481
1020.00,0.0486
1019.00,0.0486
1018.00,0.0481
1017.00,0.0471
1016.00,0.0455
1015.00,0.0437
1014.00,0.0416
1013.00,0.0394
1012.00,0.0373
1011.00,0.0354
1010.00,0.0336
1009.00,0.0321
1008.00,0.0310
1007.00,0.0301
1006.00,0.0294
1005.00,0.0291
1004.00,0.0288
1003.00,0.0286
1002.00,0.0284
1001.00,0.0281
1000.00,0.0277
999.00,0.0272
998.00,0.0267
997.00,0.0262
996.00,0.0256
995.00,0.0251
994.00,0.0246
993.00,0.0242
992.00,0.0237
991.00,0.0233
990.00,0.0230
989.00,0.0227
988.00,0.0225
987.00,0.0222
986.00,0.0220
985.00,0.0218
984.00,0.0216
983.00,0.0214
982.00,0.0212
981.00,0.0210
980.00,0.0209
979.00,0.0207
978.00,0.0205
977.00,0.0203
976.00,0.0202
975.00,0.0200
974.00,0.0199
973.00,0.0199
972.00,0.0198
971.00,0.0198
970.00,0.0199
969.00,0.0200
968.00,0.0200
967.00,0.0201
966.00,0.0201
965.00,0.0202
964.00,0.0202
963.00,0.0203
962.00,0.0203
961.00,0.0202
960.00,0.0202
959.00,0.0201
958.00,0.0200
957.00,0.0199
956.00,0.0199
955.00,0.0198
954.00,0.0198
953.00,0.0197
952.00,0.0196
951.00,0.0196
950.00,0.0196
949.00,0.0196
948.00,0.0196
947.00,0.0196
946.00,0.0196
945.00,0.0196
944.00,0.0195
943.00,0.0195
942.00,0.0194
941.00,0.0193
940.00,0.0193
939.00,0.0194
938.00,0.0195
937.00,0.0196
936.00,0.0198
935.00,0.0200
934.00,0.0201
933.00,0.0201
932.00,0.0200
931.00,0.0197
930.00,0.0193
929.00,0.0189
928.00,0.0186
927.00,0.0184
926.00,0.0181
925.00,0.0180
924.00,0.0178
923.00,0.0176
922.00,0.0174
921.00,0.0172
920.00,0.0171
919.00,0.0169
918.00,0.0168
917.00,0.0167
916.00,0.0166
915.00,0.0165
914.00,0.0164
913.00,0.0163
912.00,0.0162
911.00,0.0162
910.00,0.0161
909.00,0.0161
908.00,0.0161
907.00,0.0162
906.00,0.0163
905.00,0.0164
904.00,0.0165
903.00,0.0167
902.00,0.0168
901.00,0.0170
900.00,0.0172
899.00,0.0174
898.00,0.0176
897.00,0.0178
896.00,0.0179
895.00,0.0179
894.00,0.0178
893.00,0.0177
892.00,0.0176
891.00,0.0175
890.00,0.0173
889.00,0.0171
888.00,0.0169
887.00,0.0168
886.00,0.0166
885.00,0.0165
884.00,0.0164
883.00,0.0163
882.00,0.0163
881.00,0.0163
880.00,0.0162
879.00,0.0162
878.00,0.0162
877.00,0.0162
876.00,0.0161
875.00,0.0161
874.00,0.0161
873.00,0.0161
872.00,0.0162
871.00,0.0162
870.00,0.0163
869.00,0.0164
868.00,0.0165
867.00,0.0166
866.00,0.0169
865.00,0.0173
864.00,0.0180
863.00,0.0192
862.00,0.0209
861.00,0.0230
860.00,0.0253
859.00,0.0272
858.00,0.0281
857.00,0.0280
856.00,0.0270
855.00,0.0257
854.00,0.0245
853.00,0.0238
852.00,0.0235
851.00,0.0236
850.00,0.0238
849.00,0.0241
848.00,0.0245
847.00,0.0249
846.00,0.0254
845.00,0.0259
844.00,0.0264
843.00,0.0270
842.00,0.0276
841.00,0.0282
840.00,0.0288
839.00,0.0295
838.00,0.0302
837.00,0.0312
836.00,0.0325
835.00,0.0340
834.00,0.0357
833.00,0.0375
832.00,0.0389
831.00,0.0396
830.00,0.0395
829.00,0.0385
828.00,0.0369
827.00,0.0350
826.00,0.0331
825.00,0.0313
824.00,0.0296
823.00,0.0281
822.00,0.0269
821.00,0.0258
820.00,0.0249
819.00,0.0242
818.00,0.0235
817.00,0.0230
816.00,0.0225
815.00,0.0221
814.00,0.0218
813.00,0.0215
812.00,0.0214
811.00,0.0213
810.00,0.0213
809.00,0.0215
808.00,0.0218
807.00,0.0222
806.00,0.0227
805.00,0.0231
804.00,0.0235
803.00,0.0238
802.00,0.0240
801.00,0.0242
800.00,0.0242
799.00,0.0243
798.00,0.0244
797.00,0.0246
796.00,0.0251
795.00,0.0257
794.00,0.0264
793.00,0.0273
792.00,0.0282
791.00,0.0292
790.00,0.0303
789.00,0.0314
788.00,0.0325
787.00,0.0335
786.00,0.0343
785.00,0.0349
784.00,0.0352
783.00,0.0351
782.00,0.0347
781.00,0.0342
780.00,0.0335
779.00,0.0328
778.00,0.0321
777.00,0.0315
776.00,0.0309
775.00,0.0305
774.00,0.0301
773.00,0.0297
772.00,0.0292
771.00,0.0289
770.00,0.0286
769.00,0.0284
768.00,0.0283
767.00,0.0284
766.00,0.0286
765.00,0.0292
764.00,0.0300
763.00,0.0310
762.00,0.0321
761.00,0.0334
760.00,0.0346
759.00,0.0357
758.00,0.0367
757.00,0.0375
756.00,0.0382
755.00,0.0387
754.00,0.0390
753.00,0.0393
752.00,0.0394
751.00,0.0394
750.00,0.0393
749.00,0.0391
748.00,0.0389
747.00,0.0385
746.00,0.0381
745.00,0.0376
744.00,0.0370
743.00,0.0365
742.00,0.0359
741.00,0.0354
740.00,0.0349
739.00,0.0345
738.00,0.0341
737.00,0.0339
736.00,0.0336
735.00,0.0334
734.00,0.0332
733.00,0.0329
732.00,0.0327
731.00,0.0324
730.00,0.0320
729.00,0.0316
728.00,0.0310
727.00,0.0305
726.00,0.0301
725.00,0.0298
724.00,0.0298
723.00,0.0300
722.00,0.0306
721.00,0.0316
720.00,0.0331
719.00,0.0350
718.00,0.0372
717.00,0.0396
716.00,0.0419
715.00,0.0438
714.00,0.0452
713.00,0.0458
712.00,0.0454
711.00,0.0442
710.00,0.0424
709.00,0.0403
708.00,0.0380
707.00,0.0360
706.00,0.0341
705.00,0.0326
704.00,0.0315
703.00,0.0305
702.00,0.0299
701.00,0.0294
700.00,0.0291
699.00,0.0289
698.00,0.0288
697.00,0.0287
696.00,0.0287
695.00,0.0287
694.00,0.0289
693.00,0.0292
692.00,0.0296
691.00,0.0301
690.00,0.0308
689.00,0.0315
688.00,0.0323
687.00,0.0330
686.00,0.0338
685.00,0.0346
684.00,0.0352
683.00,0.0357
682.00,0.0361
681.00,0.0364
680.00,0.0366
679.00,0.0367
678.00,0.0368
677.00,0.0368
676.00,0.0368
675.00,0.0367
674.00,0.0366
673.00,0.0365
672.00,0.0364
671.00,0.0363
670.00,0.0364
669.00,0.0366
668.00,0.0372
667.00,0.0376
666.00,0.0377
665.00,0.0376
664.00,0.0377
663.00,0.0380
662.00,0.0384
661.00,0.0389
660.00,0.0395
659.00,0.0401
658.00,0.0408
657.00,0.0414
656.00,0.0420
655.00,0.0427
654.00,0.0433
653.00,0.0439
652.00,0.0444
651.00,0.0448
650.00,0.0451
649.00,0.0453
648.00,0.0454
647.00,0.0454
646.00,0.0452
645.00,0.0449
644.00,0.0444
643.00,0.0439
642.00,0.0434
641.00,0.0429
640.00,0.0425
639.00,0.0422
638.00,0.0420
637.00,0.0419
636.00,0.0418
635.00,0.0419
634.00,0.0419
633.00,0.0418
632.00,0.0415
631.00,0.0411
630.00,0.0407
629.00,0.0402
628.00,0.0398
627.00,0.0394
626.00,0.0390
625.00,0.0386
624.00,0.0382
623.00,0.0378
622.00,0.0374
621.00,0.0370
620.00,0.0367
619.00,0.0363
618.00,0.0360
617.00,0.0358
616.00,0.0356
615.00,0.0355
614.00,0.0355
613.00,0.0355
612.00,0.0354
611.00,0.0354
610.00,0.0353
609.00,0.0352
608.00,0.0352
607.00,0.0352
606.00,0.0352
605.00,0.0353
604.00,0.0354
603.00,0.0355
602.00,0.0357
601.00,0.0358
600.00,0.0361
599.00,0.0364
598.00,0.0367
597.00,0.0371
596.00,0.0375
595.00,0.0379
594.00,0.0384
593.00,0.0389
592.00,0.0395
591.00,0.0402
590.00,0.0408
589.00,0.0415
588.00,0.0422
587.00,0.0428
586.00,0.0435
585.00,0.0442
584.00,0.0448
583.00,0.0454
582.00,0.0458
581.00,0.0463
580.00,0.0467
579.00,0.0472
578.00,0.0476
577.00,0.0481
576.00,0.0486
575.00,0.0491
574.00,0.0494
573.00,0.0497
572.00,0.0499
571.00,0.0499
570.00,0.0498
569.00,0.0496
568.00,0.0493
567.00,0.0491
566.00,0.0488
565.00,0.0484
564.00,0.0479
563.00,0.0473
562.00,0.0467
561.00,0.0460
560.00,0.0454
559.00,0.0448
558.00,0.0442
557.00,0.0437
556.00,0.0432
555.00,0.0426
554.00,0.0420
553.00,0.0415
552.00,0.0411
551.00,0.0407
550.00,0.0404
549.00,0.0401
548.00,0.0397
547.00,0.0394
546.00,0.0390
545.00,0.0386
544.00,0.0382
543.00,0.0379
542.00,0.0376
541.00,0.0374
540.00,0.0373
539.00,0.0371
538.00,0.0369
537.00,0.0368
536.00,0.0366
535.00,0.0364
534.00,0.0362
533.00,0.0361
532.00,0.0360
531.00,0.0360
530.00,0.0360
529.00,0.0359
528.00,0.0357
527.00,0.0356
526.00,0.0356
525.00,0.0357
524.00,0.0358
523.00,0.0358
522.00,0.0358
521.00,0.0357
520.00,0.0356
519.00,0.0355
518.00,0.0354
517.00,0.0354
516.00,0.0352
515.00,0.0352
514.00,0.0352
513.00,0.0353
512.00,0.0354
511.00,0.0354
510.00,0.0356
509.00,0.0358
508.00,0.0361
507.00,0.0362
506.00,0.0362
505.00,0.0362
504.00,0.0362
503.00,0.0361
502.00,0.0360
501.00,0.0357
500.00,0.0356
499.00,0.0355
498.00,0.0355
497.00,0.0354
496.00,0.0353
495.00,0.0353
494.00,0.0355
493.00,0.0358
492.00,0.0359
491.00,0.0358
490.00,0.0357
489.00,0.0358
488.00,0.0360
487.00,0.0362
486.00,0.0365
485.00,0.0367
484.00,0.0367
483.00,0.0366
482.00,0.0365
481.00,0.0365
480.00,0.0366
479.00,0.0369
478.00,0.0372
477.00,0.0374
476.00,0.0377
475.00,0.0383
474.00,0.0390
473.00,0.0396
472.00,0.0399
471.00,0.0398
470.00,0.0395
469.00,0.0392
468.00,0.0391
467.00,0.0391
466.00,0.0390
465.00,0.0388
464.00,0.0386
463.00,0.0387
462.00,0.0390
461.00,0.0391
460.00,0.0389
459.00,0.0386
458.00,0.0383
457.00,0.0381
456.00,0.0379
455.00,0.0378
454.00,0.0376
453.00,0.0373
452.00,0.0370
451.00,0.0366
450.00,0.0364
449.00,0.0363
448.00,0.0364
447.00,0.0367
446.00,0.0370
445.00,0.0369
444.00,0.0365
443.00,0.0359
442.00,0.0354
441.00,0.0352
440.00,0.0351
439.00,0.0351
438.00,0.0352
437.00,0.0353
436.00,0.0355
435.00,0.0358
434.00,0.0360
433.00,0.0361
432.00,0.0361
431.00,0.0360
430.00,0.0355
429.00,0.0350
428.00,0.0347
427.00,0.0348
426.00,0.0352
425.00,0.0355
424.00,0.0355
423.00,0.0352
422.00,0.0351
421.00,0.0353
420.00,0.0358
419.00,0.0360
418.00,0.0354
417.00,0.0344
416.00,0.0339
415.00,0.0340
414.00,0.0346
413.00,0.0354
412.00,0.0361
411.00,0.0369
410.00,0.0377
409.00,0.0382
408.00,0.0379
407.00,0.0372
406.00,0.0367
405.00,0.0369
404.00,0.0379
403.00,0.0393
402.00,0.0405
401.00,0.0409
400.00,0.0408
