Created as New Dataset,Sample 399 By YargerLab Date Thursday, December 04 2025
cm-1,A
4000.00,0.0131
3999.00,0.0130
3998.00,0.0130
3997.00,0.0130
3996.00,0.0130
3995.00,0.0130
3994.00,0.0130
3993.00,0.0129
3992.00,0.0129
3991.00,0.0129
3990.00,0.0129
3989.00,0.0130
3988.00,0.0130
3987.00,0.0130
3986.00,0.0130
3985.00,0.0130
3984.00,0.0130
3983.00,0.0130
3982.00,0.0130
3981.00,0.0130
3980.00,0.0130
3979.00,0.0130
3978.00,0.0130
3977.00,0.0130
3976.00,0.0130
3975.00,0.0129
3974.00,0.0129
3973.00,0.0129
3972.00,0.0129
3971.00,0.0129
3970.00,0.0129
3969.00,0.0129
3968.00,0.0130
3967.00,0.0130
3966.00,0.0130
3965.00,0.0130
3964.00,0.0130
3963.00,0.0130
3962.00,0.0130
3961.00,0.0130
3960.00,0.0130
3959.00,0.0130
3958.00,0.0129
3957.00,0.0129
3956.00,0.0129
3955.00,0.0129
3954.00,0.0129
3953.00,0.0130
3952.00,0.0130
3951.00,0.0130
3950.00,0.0130
3949.00,0.0130
3948.00,0.0130
3947.00,0.0130
3946.00,0.0130
3945.00,0.0131
3944.00,0.0131
3943.00,0.0131
3942.00,0.0131
3941.00,0.0130
3940.00,0.0130
3939.00,0.0130
3938.00,0.0130
3937.00,0.0130
3936.00,0.0131
3935.00,0.0131
3934.00,0.0130
3933.00,0.0130
3932.00,0.0130
3931.00,0.0130
3930.00,0.0130
3929.00,0.0129
3928.00,0.0129
3927.00,0.0129
3926.00,0.0130
3925.00,0.0130
3924.00,0.0130
3923.00,0.0130
3922.00,0.0130
3921.00,0.0129
3920.00,0.0129
3919.00,0.0129
3918.00,0.0129
3917.00,0.0129
3916.00,0.0129
3915.00,0.0129
3914.00,0.0129
3913.00,0.0129
3912.00,0.0129
3911.00,0.0129
3910.00,0.0129
3909.00,0.0128
3908.00,0.0128
3907.00,0.0128
3906.00,0.0128
3905.00,0.0128
3904.00,0.0128
3903.00,0.0128
3902.00,0.0128
3901.00,0.0128
3900.00,0.0128
3899.00,0.0129
3898.00,0.0128
3897.00,0.0128
3896.00,0.0128
3895.00,0.0128
3894.00,0.0128
3893.00,0.0127
3892.00,0.0127
3891.00,0.0127
3890.00,0.0127
3889.00,0.0127
3888.00,0.0127
3887.00,0.0127
3886.00,0.0127
3885.00,0.0127
3884.00,0.0127
3883.00,0.0126
3882.00,0.0126
3881.00,0.0126
3880.00,0.0126
3879.00,0.0126
3878.00,0.0126
3877.00,0.0126
3876.00,0.0126
3875.00,0.0126
3874.00,0.0126
3873.00,0.0126
3872.00,0.0126
3871.00,0.0126
3870.00,0.0126
3869.00,0.0126
3868.00,0.0126
3867.00,0.0126
3866.00,0.0126
3865.00,0.0127
3864.00,0.0126
3863.00,0.0126
3862.00,0.0126
3861.00,0.0126
3860.00,0.0126
3859.00,0.0126
3858.00,0.0126
3857.00,0.0126
3856.00,0.0126
3855.00,0.0126
3854.00,0.0126
3853.00,0.0126
3852.00,0.0126
3851.00,0.0126
3850.00,0.0125
3849.00,0.0125
3848.00,0.0125
3847.00,0.0125
3846.00,0.0125
3845.00,0.0125
3844.00,0.0125
3843.00,0.0125
3842.00,0.0125
3841.00,0.0125
3840.00,0.0125
3839.00,0.0124
3838.00,0.0124
3837.00,0.0125
3836.00,0.0125
3835.00,0.0125
3834.00,0.0125
3833.00,0.0125
3832.00,0.0125
3831.00,0.0125
3830.00,0.0126
3829.00,0.0125
3828.00,0.0125
3827.00,0.0125
3826.00,0.0125
3825.00,0.0125
3824.00,0.0125
3823.00,0.0125
3822.00,0.0124
3821.00,0.0124
3820.00,0.0125
3819.00,0.0125
3818.00,0.0125
3817.00,0.0125
3816.00,0.0125
3815.00,0.0125
3814.00,0.0124
3813.00,0.0124
3812.00,0.0124
3811.00,0.0124
3810.00,0.0124
3809.00,0.0124
3808.00,0.0124
3807.00,0.0124
3806.00,0.0124
3805.00,0.0124
3804.00,0.0124
3803.00,0.0124
3802.00,0.0124
3801.00,0.0125
3800.00,0.0125
3799.00,0.0125
3798.00,0.0124
3797.00,0.0124
3796.00,0.0124
3795.00,0.0124
3794.00,0.0124
3793.00,0.0124
3792.00,0.0124
3791.00,0.0124
3790.00,0.0124
3789.00,0.0124
3788.00,0.0124
3787.00,0.0124
3786.00,0.0124
3785.00,0.0124
3784.00,0.0124
3783.00,0.0124
3782.00,0.0124
3781.00,0.0124
3780.00,0.0123
3779.00,0.0124
3778.00,0.0124
3777.00,0.0124
3776.00,0.0124
3775.00,0.0124
3774.00,0.0124
3773.00,0.0124
3772.00,0.0124
3771.00,0.0124
3770.00,0.0124
3769.00,0.0124
3768.00,0.0124
3767.00,0.0124
3766.00,0.0124
3765.00,0.0124
3764.00,0.0124
3763.00,0.0124
3762.00,0.0124
3761.00,0.0124
3760.00,0.0124
3759.00,0.0124
3758.00,0.0124
3757.00,0.0124
3756.00,0.0124
3755.00,0.0124
3754.00,0.0124
3753.00,0.0123
3752.00,0.0123
3751.00,0.0123
3750.00,0.0124
3749.00,0.0124
3748.00,0.0123
3747.00,0.0123
3746.00,0.0123
3745.00,0.0123
3744.00,0.0123
3743.00,0.0123
3742.00,0.0122
3741.00,0.0122
3740.00,0.0122
3739.00,0.0122
3738.00,0.0122
3737.00,0.0122
3736.00,0.0121
3735.00,0.0121
3734.00,0.0122
3733.00,0.0122
3732.00,0.0122
3731.00,0.0122
3730.00,0.0122
3729.00,0.0122
3728.00,0.0122
3727.00,0.0122
3726.00,0.0122
3725.00,0.0122
3724.00,0.0122
3723.00,0.0122
3722.00,0.0122
3721.00,0.0122
3720.00,0.0121
3719.00,0.0121
3718.00,0.0121
3717.00,0.0121
3716.00,0.0121
3715.00,0.0121
3714.00,0.0121
3713.00,0.0121
3712.00,0.0120
3711.00,0.0120
3710.00,0.0120
3709.00,0.0120
3708.00,0.0120
3707.00,0.0120
3706.00,0.0120
3705.00,0.0120
3704.00,0.0120
3703.00,0.0120
3702.00,0.0120
3701.00,0.0120
3700.00,0.0120
3699.00,0.0120
3698.00,0.0120
3697.00,0.0120
3696.00,0.0120
3695.00,0.0119
3694.00,0.0119
3693.00,0.0119
3692.00,0.0119
3691.00,0.0119
3690.00,0.0119
3689.00,0.0119
3688.00,0.0119
3687.00,0.0119
3686.00,0.0119
3685.00,0.0119
3684.00,0.0119
3683.00,0.0119
3682.00,0.0119
3681.00,0.0119
3680.00,0.0119
3679.00,0.0118
3678.00,0.0118
3677.00,0.0118
3676.00,0.0118
3675.00,0.0118
3674.00,0.0118
3673.00,0.0118
3672.00,0.0118
3671.00,0.0118
3670.00,0.0118
3669.00,0.0118
3668.00,0.0118
3667.00,0.0118
3666.00,0.0118
3665.00,0.0118
3664.00,0.0119
3663.00,0.0119
3662.00,0.0119
3661.00,0.0119
3660.00,0.0119
3659.00,0.0119
3658.00,0.0118
3657.00,0.0118
3656.00,0.0118
3655.00,0.0118
3654.00,0.0118
3653.00,0.0118
3652.00,0.0117
3651.00,0.0117
3650.00,0.0117
3649.00,0.0117
3648.00,0.0117
3647.00,0.0116
3646.00,0.0116
3645.00,0.0116
3644.00,0.0117
3643.00,0.0117
3642.00,0.0117
3641.00,0.0117
3640.00,0.0117
3639.00,0.0117
3638.00,0.0116
3637.00,0.0116
3636.00,0.0116
3635.00,0.0116
3634.00,0.0116
3633.00,0.0116
3632.00,0.0116
3631.00,0.0116
3630.00,0.0116
3629.00,0.0115
3628.00,0.0115
3627.00,0.0115
3626.00,0.0115
3625.00,0.0115
3624.00,0.0115
3623.00,0.0115
3622.00,0.0115
3621.00,0.0115
3620.00,0.0115
3619.00,0.0115
3618.00,0.0115
3617.00,0.0115
3616.00,0.0115
3615.00,0.0115
3614.00,0.0115
3613.00,0.0115
3612.00,0.0115
3611.00,0.0115
3610.00,0.0115
3609.00,0.0115
3608.00,0.0115
3607.00,0.0115
3606.00,0.0114
3605.00,0.0114
3604.00,0.0114
3603.00,0.0114
3602.00,0.0114
3601.00,0.0114
3600.00,0.0114
3599.00,0.0114
3598.00,0.0113
3597.00,0.0113
3596.00,0.0113
3595.00,0.0113
3594.00,0.0113
3593.00,0.0113
3592.00,0.0114
3591.00,0.0113
3590.00,0.0113
3589.00,0.0113
3588.00,0.0113
3587.00,0.0112
3586.00,0.0112
3585.00,0.0112
3584.00,0.0112
3583.00,0.0112
3582.00,0.0113
3581.00,0.0112
3580.00,0.0112
3579.00,0.0112
3578.00,0.0112
3577.00,0.0112
3576.00,0.0112
3575.00,0.0112
3574.00,0.0112
3573.00,0.0111
3572.00,0.0111
3571.00,0.0111
3570.00,0.0111
3569.00,0.0111
3568.00,0.0111
3567.00,0.0111
3566.00,0.0111
3565.00,0.0111
3564.00,0.0111
3563.00,0.0111
3562.00,0.0112
3561.00,0.0112
3560.00,0.0112
3559.00,0.0112
3558.00,0.0112
3557.00,0.0112
3556.00,0.0111
3555.00,0.0111
3554.00,0.0111
3553.00,0.0111
3552.00,0.0111
3551.00,0.0111
3550.00,0.0111
3549.00,0.0111
3548.00,0.0111
3547.00,0.0111
3546.00,0.0111
3545.00,0.0111
3544.00,0.0111
3543.00,0.0111
3542.00,0.0111
3541.00,0.0111
3540.00,0.0111
3539.00,0.0111
3538.00,0.0111
3537.00,0.0111
3536.00,0.0110
3535.00,0.0110
3534.00,0.0110
3533.00,0.0110
3532.00,0.0110
3531.00,0.0110
3530.00,0.0110
3529.00,0.0110
3528.00,0.0110
3527.00,0.0110
3526.00,0.0110
3525.00,0.0110
3524.00,0.0110
3523.00,0.0110
3522.00,0.0110
3521.00,0.0110
3520.00,0.0109
3519.00,0.0109
3518.00,0.0109
3517.00,0.0109
3516.00,0.0109
3515.00,0.0109
3514.00,0.0109
3513.00,0.0109
3512.00,0.0109
3511.00,0.0109
3510.00,0.0109
3509.00,0.0109
3508.00,0.0109
3507.00,0.0109
3506.00,0.0108
3505.00,0.0108
3504.00,0.0108
3503.00,0.0108
3502.00,0.0108
3501.00,0.0108
3500.00,0.0108
3499.00,0.0108
3498.00,0.0108
3497.00,0.0108
3496.00,0.0108
3495.00,0.0108
3494.00,0.0107
3493.00,0.0107
3492.00,0.0107
3491.00,0.0107
3490.00,0.0107
3489.00,0.0107
3488.00,0.0107
3487.00,0.0107
3486.00,0.0107
3485.00,0.0107
3484.00,0.0107
3483.00,0.0107
3482.00,0.0106
3481.00,0.0106
3480.00,0.0106
3479.00,0.0106
3478.00,0.0106
3477.00,0.0106
3476.00,0.0106
3475.00,0.0106
3474.00,0.0106
3473.00,0.0106
3472.00,0.0105
3471.00,0.0105
3470.00,0.0105
3469.00,0.0105
3468.00,0.0105
3467.00,0.0105
3466.00,0.0105
3465.00,0.0104
3464.00,0.0104
3463.00,0.0104
3462.00,0.0104
3461.00,0.0104
3460.00,0.0104
3459.00,0.0104
3458.00,0.0104
3457.00,0.0104
3456.00,0.0104
3455.00,0.0104
3454.00,0.0104
3453.00,0.0104
3452.00,0.0104
3451.00,0.0104
3450.00,0.0104
3449.00,0.0104
3448.00,0.0104
3447.00,0.0104
3446.00,0.0104
3445.00,0.0105
3444.00,0.0105
3443.00,0.0105
3442.00,0.0105
3441.00,0.0105
3440.00,0.0105
3439.00,0.0105
3438.00,0.0105
3437.00,0.0105
3436.00,0.0105
3435.00,0.0105
3434.00,0.0105
3433.00,0.0105
3432.00,0.0105
3431.00,0.0105
3430.00,0.0106
3429.00,0.0106
3428.00,0.0107
3427.00,0.0107
3426.00,0.0107
3425.00,0.0108
3424.00,0.0108
3423.00,0.0108
3422.00,0.0108
3421.00,0.0109
3420.00,0.0109
3419.00,0.0110
3418.00,0.0110
3417.00,0.0111
3416.00,0.0111
3415.00,0.0112
3414.00,0.0112
3413.00,0.0112
3412.00,0.0112
3411.00,0.0113
3410.00,0.0113
3409.00,0.0114
3408.00,0.0115
3407.00,0.0115
3406.00,0.0116
3405.00,0.0116
3404.00,0.0117
3403.00,0.0117
3402.00,0.0118
3401.00,0.0119
3400.00,0.0120
3399.00,0.0121
3398.00,0.0122
3397.00,0.0123
3396.00,0.0125
3395.00,0.0126
3394.00,0.0127
3393.00,0.0128
3392.00,0.0130
3391.00,0.0132
3390.00,0.0134
3389.00,0.0136
3388.00,0.0138
3387.00,0.0141
3386.00,0.0143
3385.00,0.0146
3384.00,0.0148
3383.00,0.0150
3382.00,0.0152
3381.00,0.0155
3380.00,0.0157
3379.00,0.0160
3378.00,0.0162
3377.00,0.0165
3376.00,0.0168
3375.00,0.0171
3374.00,0.0174
3373.00,0.0176
3372.00,0.0178
3371.00,0.0180
3370.00,0.0183
3369.00,0.0186
3368.00,0.0191
3367.00,0.0197
3366.00,0.0202
3365.00,0.0209
3364.00,0.0215
3363.00,0.0221
3362.00,0.0228
3361.00,0.0235
3360.00,0.0242
3359.00,0.0251
3358.00,0.0260
3357.00,0.0270
3356.00,0.0280
3355.00,0.0291
3354.00,0.0301
3353.00,0.0312
3352.00,0.0323
3351.00,0.0337
3350.00,0.0352
3349.00,0.0369
3348.00,0.0387
3347.00,0.0407
3346.00,0.0427
3345.00,0.0450
3344.00,0.0475
3343.00,0.0503
3342.00,0.0533
3341.00,0.0564
3340.00,0.0598
3339.00,0.0632
3338.00,0.0667
3337.00,0.0702
3336.00,0.0735
3335.00,0.0765
3334.00,0.0790
3333.00,0.0811
3332.00,0.0828
3331.00,0.0839
3330.00,0.0846
3329.00,0.0849
3328.00,0.0850
3327.00,0.0849
3326.00,0.0847
3325.00,0.0844
3324.00,0.0839
3323.00,0.0832
3322.00,0.0823
3321.00,0.0812
3320.00,0.0798
3319.00,0.0781
3318.00,0.0762
3317.00,0.0741
3316.00,0.0718
3315.00,0.0695
3314.00,0.0671
3313.00,0.0648
3312.00,0.0625
3311.00,0.0604
3310.00,0.0583
3309.00,0.0563
3308.00,0.0545
3307.00,0.0529
3306.00,0.0514
3305.00,0.0500
3304.00,0.0488
3303.00,0.0476
3302.00,0.0466
3301.00,0.0457
3300.00,0.0448
3299.00,0.0439
3298.00,0.0432
3297.00,0.0424
3296.00,0.0418
3295.00,0.0412
3294.00,0.0406
3293.00,0.0400
3292.00,0.0395
3291.00,0.0389
3290.00,0.0384
3289.00,0.0378
3288.00,0.0372
3287.00,0.0365
3286.00,0.0359
3285.00,0.0352
3284.00,0.0346
3283.00,0.0340
3282.00,0.0334
3281.00,0.0329
3280.00,0.0325
3279.00,0.0321
3278.00,0.0317
3277.00,0.0315
3276.00,0.0312
3275.00,0.0310
3274.00,0.0309
3273.00,0.0308
3272.00,0.0307
3271.00,0.0307
3270.00,0.0307
3269.00,0.0308
3268.00,0.0308
3267.00,0.0308
3266.00,0.0308
3265.00,0.0308
3264.00,0.0308
3263.00,0.0307
3262.00,0.0306
3261.00,0.0305
3260.00,0.0303
3259.00,0.0302
3258.00,0.0300
3257.00,0.0298
3256.00,0.0297
3255.00,0.0295
3254.00,0.0295
3253.00,0.0294
3252.00,0.0293
3251.00,0.0292
3250.00,0.0291
3249.00,0.0291
3248.00,0.0290
3247.00,0.0290
3246.00,0.0290
3245.00,0.0290
3244.00,0.0291
3243.00,0.0291
3242.00,0.0291
3241.00,0.0290
3240.00,0.0290
3239.00,0.0289
3238.00,0.0287
3237.00,0.0285
3236.00,0.0282
3235.00,0.0278
3234.00,0.0275
3233.00,0.0271
3232.00,0.0268
3231.00,0.0264
3230.00,0.0260
3229.00,0.0256
3228.00,0.0252
3227.00,0.0248
3226.00,0.0243
3225.00,0.0239
3224.00,0.0235
3223.00,0.0232
3222.00,0.0228
3221.00,0.0225
3220.00,0.0221
3219.00,0.0218
3218.00,0.0215
3217.00,0.0212
3216.00,0.0209
3215.00,0.0207
3214.00,0.0205
3213.00,0.0203
3212.00,0.0200
3211.00,0.0198
3210.00,0.0196
3209.00,0.0195
3208.00,0.0193
3207.00,0.0192
3206.00,0.0190
3205.00,0.0189
3204.00,0.0187
3203.00,0.0186
3202.00,0.0184
3201.00,0.0182
3200.00,0.0181
3199.00,0.0180
3198.00,0.0178
3197.00,0.0177
3196.00,0.0176
3195.00,0.0175
3194.00,0.0174
3193.00,0.0173
3192.00,0.0172
3191.00,0.0172
3190.00,0.0171
3189.00,0.0170
3188.00,0.0170
3187.00,0.0169
3186.00,0.0169
3185.00,0.0169
3184.00,0.0169
3183.00,0.0169
3182.00,0.0169
3181.00,0.0169
3180.00,0.0169
3179.00,0.0168
3178.00,0.0168
3177.00,0.0168
3176.00,0.0167
3175.00,0.0167
3174.00,0.0166
3173.00,0.0166
3172.00,0.0165
3171.00,0.0165
3170.00,0.0164
3169.00,0.0164
3168.00,0.0164
3167.00,0.0164
3166.00,0.0163
3165.00,0.0163
3164.00,0.0163
3163.00,0.0163
3162.00,0.0162
3161.00,0.0162
3160.00,0.0162
3159.00,0.0162
3158.00,0.0162
3157.00,0.0162
3156.00,0.0162
3155.00,0.0162
3154.00,0.0163
3153.00,0.0163
3152.00,0.0164
3151.00,0.0164
3150.00,0.0165
3149.00,0.0165
3148.00,0.0166
3147.00,0.0166
3146.00,0.0166
3145.00,0.0166
3144.00,0.0166
3143.00,0.0166
3142.00,0.0166
3141.00,0.0167
3140.00,0.0168
3139.00,0.0169
3138.00,0.0169
3137.00,0.0170
3136.00,0.0171
3135.00,0.0172
3134.00,0.0173
3133.00,0.0174
3132.00,0.0175
3131.00,0.0176
3130.00,0.0177
3129.00,0.0178
3128.00,0.0179
3127.00,0.0180
3126.00,0.0181
3125.00,0.0183
3124.00,0.0184
3123.00,0.0186
3122.00,0.0188
3121.00,0.0190
3120.00,0.0192
3119.00,0.0194
3118.00,0.0197
3117.00,0.0199
3116.00,0.0202
3115.00,0.0206
3114.00,0.0209
3113.00,0.0212
3112.00,0.0216
3111.00,0.0220
3110.00,0.0223
3109.00,0.0227
3108.00,0.0230
3107.00,0.0233
3106.00,0.0236
3105.00,0.0238
3104.00,0.0240
3103.00,0.0241
3102.00,0.0241
3101.00,0.0240
3100.00,0.0239
3099.00,0.0237
3098.00,0.0234
3097.00,0.0231
3096.00,0.0228
3095.00,0.0225
3094.00,0.0222
3093.00,0.0219
3092.00,0.0217
3091.00,0.0215
3090.00,0.0213
3089.00,0.0213
3088.00,0.0213
3087.00,0.0214
3086.00,0.0215
3085.00,0.0217
3084.00,0.0218
3083.00,0.0218
3082.00,0.0218
3081.00,0.0218
3080.00,0.0217
3079.00,0.0216
3078.00,0.0214
3077.00,0.0212
3076.00,0.0209
3075.00,0.0204
3074.00,0.0199
3073.00,0.0194
3072.00,0.0190
3071.00,0.0186
3070.00,0.0184
3069.00,0.0182
3068.00,0.0183
3067.00,0.0184
3066.00,0.0185
3065.00,0.0187
3064.00,0.0188
3063.00,0.0189
3062.00,0.0188
3061.00,0.0187
3060.00,0.0185
3059.00,0.0183
3058.00,0.0180
3057.00,0.0178
3056.00,0.0176
3055.00,0.0175
3054.00,0.0174
3053.00,0.0173
3052.00,0.0172
3051.00,0.0172
3050.00,0.0173
3049.00,0.0173
3048.00,0.0173
3047.00,0.0173
3046.00,0.0172
3045.00,0.0172
3044.00,0.0172
3043.00,0.0173
3042.00,0.0175
3041.00,0.0177
3040.00,0.0179
3039.00,0.0181
3038.00,0.0183
3037.00,0.0184
3036.00,0.0186
3035.00,0.0187
3034.00,0.0189
3033.00,0.0191
3032.00,0.0193
3031.00,0.0194
3030.00,0.0196
3029.00,0.0198
3028.00,0.0199
3027.00,0.0199
3026.00,0.0199
3025.00,0.0198
3024.00,0.0197
3023.00,0.0195
3022.00,0.0194
3021.00,0.0192
3020.00,0.0191
3019.00,0.0190
3018.00,0.0190
3017.00,0.0189
3016.00,0.0190
3015.00,0.0190
3014.00,0.0192
3013.00,0.0195
3012.00,0.0198
3011.00,0.0202
3010.00,0.0207
3009.00,0.0213
3008.00,0.0220
3007.00,0.0227
3006.00,0.0235
3005.00,0.0243
3004.00,0.0251
3003.00,0.0260
3002.00,0.0267
3001.00,0.0274
3000.00,0.0280
2999.00,0.0284
2998.00,0.0287
2997.00,0.0287
2996.00,0.0284
2995.00,0.0279
2994.00,0.0272
2993.00,0.0263
2992.00,0.0255
2991.00,0.0247
2990.00,0.0240
2989.00,0.0235
2988.00,0.0230
2987.00,0.0227
2986.00,0.0224
2985.00,0.0222
2984.00,0.0220
2983.00,0.0218
2982.00,0.0217
2981.00,0.0216
2980.00,0.0215
2979.00,0.0214
2978.00,0.0213
2977.00,0.0213
2976.00,0.0212
2975.00,0.0212
2974.00,0.0212
2973.00,0.0213
2972.00,0.0215
2971.00,0.0216
2970.00,0.0219
2969.00,0.0222
2968.00,0.0226
2967.00,0.0231
2966.00,0.0238
2965.00,0.0247
2964.00,0.0258
2963.00,0.0272
2962.00,0.0288
2961.00,0.0306
2960.00,0.0326
2959.00,0.0345
2958.00,0.0364
2957.00,0.0380
2956.00,0.0392
2955.00,0.0399
2954.00,0.0400
2953.00,0.0397
2952.00,0.0388
2951.00,0.0375
2950.00,0.0359
2949.00,0.0341
2948.00,0.0323
2947.00,0.0306
2946.00,0.0291
2945.00,0.0278
2944.00,0.0266
2943.00,0.0257
2942.00,0.0250
2941.00,0.0244
2940.00,0.0239
2939.00,0.0235
2938.00,0.0232
2937.00,0.0230
2936.00,0.0228
2935.00,0.0226
2934.00,0.0225
2933.00,0.0223
2932.00,0.0220
2931.00,0.0218
2930.00,0.0215
2929.00,0.0211
2928.00,0.0208
2927.00,0.0204
2926.00,0.0200
2925.00,0.0196
2924.00,0.0193
2923.00,0.0189
2922.00,0.0186
2921.00,0.0184
2920.00,0.0182
2919.00,0.0180
2918.00,0.0179
2917.00,0.0179
2916.00,0.0179
2915.00,0.0180
2914.00,0.0180
2913.00,0.0181
2912.00,0.0182
2911.00,0.0183
2910.00,0.0183
2909.00,0.0182
2908.00,0.0182
2907.00,0.0181
2906.00,0.0180
2905.00,0.0180
2904.00,0.0179
2903.00,0.0179
2902.00,0.0178
2901.00,0.0178
2900.00,0.0177
2899.00,0.0176
2898.00,0.0175
2897.00,0.0173
2896.00,0.0173
2895.00,0.0172
2894.00,0.0172
2893.00,0.0172
2892.00,0.0172
2891.00,0.0172
2890.00,0.0173
2889.00,0.0173
2888.00,0.0174
2887.00,0.0175
2886.00,0.0177
2885.00,0.0177
2884.00,0.0178
2883.00,0.0179
2882.00,0.0180
2881.00,0.0180
2880.00,0.0181
2879.00,0.0182
2878.00,0.0182
2877.00,0.0183
2876.00,0.0184
2875.00,0.0185
2874.00,0.0186
2873.00,0.0188
2872.00,0.0189
2871.00,0.0190
2870.00,0.0191
2869.00,0.0190
2868.00,0.0189
2867.00,0.0186
2866.00,0.0184
2865.00,0.0181
2864.00,0.0179
2863.00,0.0176
2862.00,0.0173
2861.00,0.0170
2860.00,0.0167
2859.00,0.0165
2858.00,0.0163
2857.00,0.0161
2856.00,0.0160
2855.00,0.0158
2854.00,0.0158
2853.00,0.0158
2852.00,0.0159
2851.00,0.0161
2850.00,0.0164
2849.00,0.0168
2848.00,0.0174
2847.00,0.0180
2846.00,0.0186
2845.00,0.0191
2844.00,0.0195
2843.00,0.0197
2842.00,0.0197
2841.00,0.0195
2840.00,0.0191
2839.00,0.0186
2838.00,0.0182
2837.00,0.0178
2836.00,0.0175
2835.00,0.0172
2834.00,0.0170
2833.00,0.0168
2832.00,0.0166
2831.00,0.0165
2830.00,0.0164
2829.00,0.0163
2828.00,0.0162
2827.00,0.0161
2826.00,0.0161
2825.00,0.0161
2824.00,0.0161
2823.00,0.0161
2822.00,0.0161
2821.00,0.0161
2820.00,0.0161
2819.00,0.0162
2818.00,0.0162
2817.00,0.0162
2816.00,0.0163
2815.00,0.0163
2814.00,0.0163
2813.00,0.0164
2812.00,0.0164
2811.00,0.0164
2810.00,0.0164
2809.00,0.0164
2808.00,0.0164
2807.00,0.0164
2806.00,0.0164
2805.00,0.0163
2804.00,0.0163
2803.00,0.0162
2802.00,0.0161
2801.00,0.0160
2800.00,0.0159
2799.00,0.0158
2798.00,0.0157
2797.00,0.0156
2796.00,0.0155
2795.00,0.0153
2794.00,0.0152
2793.00,0.0151
2792.00,0.0150
2791.00,0.0149
2790.00,0.0147
2789.00,0.0146
2788.00,0.0145
2787.00,0.0144
2786.00,0.0143
2785.00,0.0142
2784.00,0.0141
2783.00,0.0141
2782.00,0.0140
2781.00,0.0140
2780.00,0.0139
2779.00,0.0139
2778.00,0.0138
2777.00,0.0138
2776.00,0.0138
2775.00,0.0137
2774.00,0.0137
2773.00,0.0138
2772.00,0.0138
2771.00,0.0138
2770.00,0.0138
2769.00,0.0138
2768.00,0.0138
2767.00,0.0137
2766.00,0.0137
2765.00,0.0137
2764.00,0.0136
2763.00,0.0136
2762.00,0.0136
2761.00,0.0136
2760.00,0.0136
2759.00,0.0136
2758.00,0.0135
2757.00,0.0135
2756.00,0.0135
2755.00,0.0135
2754.00,0.0135
2753.00,0.0134
2752.00,0.0134
2751.00,0.0134
2750.00,0.0134
2749.00,0.0134
2748.00,0.0134
2747.00,0.0134
2746.00,0.0134
2745.00,0.0134
2744.00,0.0134
2743.00,0.0134
2742.00,0.0133
2741.00,0.0133
2740.00,0.0133
2739.00,0.0133
2738.00,0.0132
2737.00,0.0132
2736.00,0.0132
2735.00,0.0132
2734.00,0.0132
2733.00,0.0132
2732.00,0.0132
2731.00,0.0132
2730.00,0.0132
2729.00,0.0132
2728.00,0.0132
2727.00,0.0132
2726.00,0.0133
2725.00,0.0133
2724.00,0.0133
2723.00,0.0133
2722.00,0.0133
2721.00,0.0133
2720.00,0.0133
2719.00,0.0133
2718.00,0.0133
2717.00,0.0133
2716.00,0.0133
2715.00,0.0133
2714.00,0.0133
2713.00,0.0133
2712.00,0.0132
2711.00,0.0132
2710.00,0.0132
2709.00,0.0131
2708.00,0.0131
2707.00,0.0131
2706.00,0.0131
2705.00,0.0131
2704.00,0.0131
2703.00,0.0131
2702.00,0.0131
2701.00,0.0131
2700.00,0.0131
2699.00,0.0131
2698.00,0.0131
2697.00,0.0131
2696.00,0.0131
2695.00,0.0131
2694.00,0.0131
2693.00,0.0131
2692.00,0.0131
2691.00,0.0131
2690.00,0.0130
2689.00,0.0130
2688.00,0.0130
2687.00,0.0130
2686.00,0.0130
2685.00,0.0129
2684.00,0.0129
2683.00,0.0129
2682.00,0.0129
2681.00,0.0130
2680.00,0.0130
2679.00,0.0130
2678.00,0.0130
2677.00,0.0130
2676.00,0.0130
2675.00,0.0130
2674.00,0.0130
2673.00,0.0130
2672.00,0.0130
2671.00,0.0130
2670.00,0.0130
2669.00,0.0130
2668.00,0.0130
2667.00,0.0130
2666.00,0.0130
2665.00,0.0130
2664.00,0.0130
2663.00,0.0130
2662.00,0.0130
2661.00,0.0130
2660.00,0.0130
2659.00,0.0130
2658.00,0.0131
2657.00,0.0131
2656.00,0.0131
2655.00,0.0131
2654.00,0.0131
2653.00,0.0131
2652.00,0.0131
2651.00,0.0131
2650.00,0.0131
2649.00,0.0131
2648.00,0.0131
2647.00,0.0131
2646.00,0.0131
2645.00,0.0132
2644.00,0.0132
2643.00,0.0132
2642.00,0.0132
2641.00,0.0132
2640.00,0.0132
2639.00,0.0131
2638.00,0.0130
2637.00,0.0130
2636.00,0.0130
2635.00,0.0129
2634.00,0.0129
2633.00,0.0129
2632.00,0.0129
2631.00,0.0129
2630.00,0.0129
2629.00,0.0129
2628.00,0.0130
2627.00,0.0130
2626.00,0.0130
2625.00,0.0131
2624.00,0.0131
2623.00,0.0132
2622.00,0.0132
2621.00,0.0132
2620.00,0.0132
2619.00,0.0132
2618.00,0.0132
2617.00,0.0132
2616.00,0.0132
2615.00,0.0132
2614.00,0.0132
2613.00,0.0131
2612.00,0.0131
2611.00,0.0130
2610.00,0.0130
2609.00,0.0129
2608.00,0.0129
2607.00,0.0128
2606.00,0.0128
2605.00,0.0128
2604.00,0.0128
2603.00,0.0127
2602.00,0.0127
2601.00,0.0126
2600.00,0.0126
2599.00,0.0126
2598.00,0.0125
2597.00,0.0125
2596.00,0.0124
2595.00,0.0124
2594.00,0.0123
2593.00,0.0123
2592.00,0.0122
2591.00,0.0122
2590.00,0.0122
2589.00,0.0122
2588.00,0.0122
2587.00,0.0123
2586.00,0.0123
2585.00,0.0122
2584.00,0.0122
2583.00,0.0122
2582.00,0.0122
2581.00,0.0121
2580.00,0.0120
2579.00,0.0120
2578.00,0.0119
2577.00,0.0119
2576.00,0.0119
2575.00,0.0118
2574.00,0.0118
2573.00,0.0118
2572.00,0.0118
2571.00,0.0117
2570.00,0.0117
2569.00,0.0117
2568.00,0.0117
2567.00,0.0117
2566.00,0.0117
2565.00,0.0117
2564.00,0.0117
2563.00,0.0116
2562.00,0.0116
2561.00,0.0117
2560.00,0.0117
2559.00,0.0117
2558.00,0.0117
2557.00,0.0117
2556.00,0.0117
2555.00,0.0117
2554.00,0.0117
2553.00,0.0117
2552.00,0.0117
2551.00,0.0118
2550.00,0.0118
2549.00,0.0118
2548.00,0.0118
2547.00,0.0118
2546.00,0.0118
2545.00,0.0118
2544.00,0.0118
2543.00,0.0118
2542.00,0.0118
2541.00,0.0118
2540.00,0.0119
2539.00,0.0119
2538.00,0.0120
2537.00,0.0120
2536.00,0.0120
2535.00,0.0119
2534.00,0.0119
2533.00,0.0119
2532.00,0.0119
2531.00,0.0119
2530.00,0.0118
2529.00,0.0118
2528.00,0.0118
2527.00,0.0117
2526.00,0.0117
2525.00,0.0116
2524.00,0.0116
2523.00,0.0116
2522.00,0.0116
2521.00,0.0116
2520.00,0.0115
2519.00,0.0115
2518.00,0.0115
2517.00,0.0115
2516.00,0.0115
2515.00,0.0114
2514.00,0.0114
2513.00,0.0114
2512.00,0.0114
2511.00,0.0114
2510.00,0.0114
2509.00,0.0114
2508.00,0.0113
2507.00,0.0113
2506.00,0.0113
2505.00,0.0113
2504.00,0.0113
2503.00,0.0113
2502.00,0.0113
2501.00,0.0113
2500.00,0.0112
2499.00,0.0112
2498.00,0.0112
2497.00,0.0113
2496.00,0.0113
2495.00,0.0113
2494.00,0.0114
2493.00,0.0115
2492.00,0.0115
2491.00,0.0115
2490.00,0.0116
2489.00,0.0116
2488.00,0.0116
2487.00,0.0116
2486.00,0.0116
2485.00,0.0116
2484.00,0.0116
2483.00,0.0115
2482.00,0.0114
2481.00,0.0114
2480.00,0.0113
2479.00,0.0113
2478.00,0.0112
2477.00,0.0112
2476.00,0.0113
2475.00,0.0113
2474.00,0.0113
2473.00,0.0113
2472.00,0.0113
2471.00,0.0113
2470.00,0.0113
2469.00,0.0113
2468.00,0.0113
2467.00,0.0113
2466.00,0.0113
2465.00,0.0113
2464.00,0.0113
2463.00,0.0114
2462.00,0.0114
2461.00,0.0114
2460.00,0.0115
2459.00,0.0116
2458.00,0.0116
2457.00,0.0117
2456.00,0.0117
2455.00,0.0118
2454.00,0.0118
2453.00,0.0119
2452.00,0.0119
2451.00,0.0119
2450.00,0.0118
2449.00,0.0118
2448.00,0.0117
2447.00,0.0116
2446.00,0.0115
2445.00,0.0115
2444.00,0.0115
2443.00,0.0114
2442.00,0.0114
2441.00,0.0114
2440.00,0.0114
2439.00,0.0113
2438.00,0.0113
2437.00,0.0112
2436.00,0.0112
2435.00,0.0111
2434.00,0.0111
2433.00,0.0111
2432.00,0.0111
2431.00,0.0110
2430.00,0.0110
2429.00,0.0110
2428.00,0.0111
2427.00,0.0111
2426.00,0.0111
2425.00,0.0111
2424.00,0.0111
2423.00,0.0111
2422.00,0.0111
2421.00,0.0111
2420.00,0.0111
2419.00,0.0111
2418.00,0.0111
2417.00,0.0110
2416.00,0.0110
2415.00,0.0110
2414.00,0.0110
2413.00,0.0110
2412.00,0.0110
2411.00,0.0109
2410.00,0.0108
2409.00,0.0108
2408.00,0.0107
2407.00,0.0107
2406.00,0.0107
2405.00,0.0107
2404.00,0.0107
2403.00,0.0107
2402.00,0.0107
2401.00,0.0107
2400.00,0.0107
2399.00,0.0107
2398.00,0.0107
2397.00,0.0107
2396.00,0.0107
2395.00,0.0106
2394.00,0.0106
2393.00,0.0106
2392.00,0.0106
2391.00,0.0106
2390.00,0.0106
2389.00,0.0106
2388.00,0.0106
2387.00,0.0106
2386.00,0.0106
2385.00,0.0106
2384.00,0.0105
2383.00,0.0105
2382.00,0.0105
2381.00,0.0105
2380.00,0.0105
2379.00,0.0105
2378.00,0.0105
2377.00,0.0105
2376.00,0.0105
2375.00,0.0105
2374.00,0.0104
2373.00,0.0104
2372.00,0.0104
2371.00,0.0103
2370.00,0.0103
2369.00,0.0104
2368.00,0.0104
2367.00,0.0104
2366.00,0.0104
2365.00,0.0104
2364.00,0.0104
2363.00,0.0105
2362.00,0.0105
2361.00,0.0106
2360.00,0.0106
2359.00,0.0106
2358.00,0.0106
2357.00,0.0106
2356.00,0.0107
2355.00,0.0107
2354.00,0.0107
2353.00,0.0106
2352.00,0.0106
2351.00,0.0106
2350.00,0.0106
2349.00,0.0107
2348.00,0.0107
2347.00,0.0107
2346.00,0.0107
2345.00,0.0107
2344.00,0.0107
2343.00,0.0106
2342.00,0.0106
2341.00,0.0107
2340.00,0.0108
2339.00,0.0108
2338.00,0.0109
2337.00,0.0109
2336.00,0.0109
2335.00,0.0109
2334.00,0.0109
2333.00,0.0108
2332.00,0.0108
2331.00,0.0108
2330.00,0.0108
2329.00,0.0109
2328.00,0.0112
2327.00,0.0115
2326.00,0.0118
2325.00,0.0119
2324.00,0.0118
2323.00,0.0116
2322.00,0.0114
2321.00,0.0112
2320.00,0.0110
2319.00,0.0108
2318.00,0.0107
2317.00,0.0107
2316.00,0.0107
2315.00,0.0106
2314.00,0.0105
2313.00,0.0104
2312.00,0.0103
2311.00,0.0102
2310.00,0.0101
2309.00,0.0100
2308.00,0.0101
2307.00,0.0101
2306.00,0.0101
2305.00,0.0102
2304.00,0.0102
2303.00,0.0102
2302.00,0.0102
2301.00,0.0102
2300.00,0.0102
2299.00,0.0102
2298.00,0.0103
2297.00,0.0103
2296.00,0.0104
2295.00,0.0106
2294.00,0.0107
2293.00,0.0108
2292.00,0.0110
2291.00,0.0111
2290.00,0.0112
2289.00,0.0112
2288.00,0.0113
2287.00,0.0113
2286.00,0.0113
2285.00,0.0112
2284.00,0.0111
2283.00,0.0110
2282.00,0.0109
2281.00,0.0109
2280.00,0.0108
2279.00,0.0107
2278.00,0.0107
2277.00,0.0107
2276.00,0.0107
2275.00,0.0107
2274.00,0.0106
2273.00,0.0106
2272.00,0.0106
2271.00,0.0106
2270.00,0.0106
2269.00,0.0105
2268.00,0.0104
2267.00,0.0103
2266.00,0.0102
2265.00,0.0101
2264.00,0.0100
2263.00,0.0100
2262.00,0.0100
2261.00,0.0100
2260.00,0.0100
2259.00,0.0099
2258.00,0.0098
2257.00,0.0096
2256.00,0.0095
2255.00,0.0094
2254.00,0.0094
2253.00,0.0094
2252.00,0.0094
2251.00,0.0094
2250.00,0.0094
2249.00,0.0094
2248.00,0.0094
2247.00,0.0093
2246.00,0.0092
2245.00,0.0092
2244.00,0.0092
2243.00,0.0092
2242.00,0.0092
2241.00,0.0092
2240.00,0.0092
2239.00,0.0092
2238.00,0.0091
2237.00,0.0091
2236.00,0.0091
2235.00,0.0090
2234.00,0.0089
2233.00,0.0088
2232.00,0.0088
2231.00,0.0088
2230.00,0.0087
2229.00,0.0088
2228.00,0.0088
2227.00,0.0088
2226.00,0.0088
2225.00,0.0088
2224.00,0.0089
2223.00,0.0089
2222.00,0.0089
2221.00,0.0090
2220.00,0.0090
2219.00,0.0089
2218.00,0.0088
2217.00,0.0087
2216.00,0.0087
2215.00,0.0088
2214.00,0.0088
2213.00,0.0088
2212.00,0.0089
2211.00,0.0089
2210.00,0.0089
2209.00,0.0089
2208.00,0.0088
2207.00,0.0088
2206.00,0.0087
2205.00,0.0087
2204.00,0.0087
2203.00,0.0087
2202.00,0.0086
2201.00,0.0087
2200.00,0.0086
2199.00,0.0086
2198.00,0.0085
2197.00,0.0085
2196.00,0.0085
2195.00,0.0085
2194.00,0.0085
2193.00,0.0085
2192.00,0.0086
2191.00,0.0086
2190.00,0.0086
2189.00,0.0087
2188.00,0.0087
2187.00,0.0086
2186.00,0.0085
2185.00,0.0084
2184.00,0.0083
2183.00,0.0082
2182.00,0.0081
2181.00,0.0082
2180.00,0.0083
2179.00,0.0084
2178.00,0.0084
2177.00,0.0083
2176.00,0.0083
2175.00,0.0083
2174.00,0.0083
2173.00,0.0085
2172.00,0.0088
2171.00,0.0091
2170.00,0.0094
2169.00,0.0097
2168.00,0.0098
2167.00,0.0099
2166.00,0.0098
2165.00,0.0099
2164.00,0.0100
2163.00,0.0097
2162.00,0.0090
2161.00,0.0077
2160.00,0.0064
2159.00,0.0055
2158.00,0.0051
2157.00,0.0054
2156.00,0.0059
2155.00,0.0063
2154.00,0.0066
2153.00,0.0069
2152.00,0.0071
2151.00,0.0071
2150.00,0.0071
2149.00,0.0071
2148.00,0.0071
2147.00,0.0071
2146.00,0.0070
2145.00,0.0070
2144.00,0.0071
2143.00,0.0071
2142.00,0.0071
2141.00,0.0071
2140.00,0.0071
2139.00,0.0070
2138.00,0.0068
2137.00,0.0065
2136.00,0.0063
2135.00,0.0062
2134.00,0.0062
2133.00,0.0064
2132.00,0.0067
2131.00,0.0070
2130.00,0.0071
2129.00,0.0073
2128.00,0.0074
2127.00,0.0075
2126.00,0.0075
2125.00,0.0077
2124.00,0.0078
2123.00,0.0079
2122.00,0.0080
2121.00,0.0080
2120.00,0.0081
2119.00,0.0082
2118.00,0.0082
2117.00,0.0082
2116.00,0.0083
2115.00,0.0084
2114.00,0.0084
2113.00,0.0084
2112.00,0.0084
2111.00,0.0084
2110.00,0.0083
2109.00,0.0083
2108.00,0.0084
2107.00,0.0084
2106.00,0.0084
2105.00,0.0085
2104.00,0.0085
2103.00,0.0085
2102.00,0.0085
2101.00,0.0085
2100.00,0.0085
2099.00,0.0084
2098.00,0.0083
2097.00,0.0081
2096.00,0.0080
2095.00,0.0079
2094.00,0.0079
2093.00,0.0080
2092.00,0.0082
2091.00,0.0084
2090.00,0.0085
2089.00,0.0086
2088.00,0.0088
2087.00,0.0088
2086.00,0.0088
2085.00,0.0088
2084.00,0.0088
2083.00,0.0088
2082.00,0.0087
2081.00,0.0086
2080.00,0.0086
2079.00,0.0086
2078.00,0.0086
2077.00,0.0087
2076.00,0.0087
2075.00,0.0087
2074.00,0.0087
2073.00,0.0086
2072.00,0.0086
2071.00,0.0085
2070.00,0.0085
2069.00,0.0085
2068.00,0.0086
2067.00,0.0087
2066.00,0.0087
2065.00,0.0087
2064.00,0.0086
2063.00,0.0085
2062.00,0.0083
2061.00,0.0083
2060.00,0.0083
2059.00,0.0083
2058.00,0.0082
2057.00,0.0082
2056.00,0.0081
2055.00,0.0082
2054.00,0.0084
2053.00,0.0088
2052.00,0.0090
2051.00,0.0088
2050.00,0.0082
2049.00,0.0075
2048.00,0.0071
2047.00,0.0068
2046.00,0.0066
2045.00,0.0066
2044.00,0.0067
2043.00,0.0067
2042.00,0.0066
2041.00,0.0065
2040.00,0.0065
2039.00,0.0065
2038.00,0.0063
2037.00,0.0062
2036.00,0.0062
2035.00,0.0061
2034.00,0.0059
2033.00,0.0060
2032.00,0.0061
2031.00,0.0062
2030.00,0.0062
2029.00,0.0062
2028.00,0.0063
2027.00,0.0064
2026.00,0.0065
2025.00,0.0066
2024.00,0.0068
2023.00,0.0068
2022.00,0.0066
2021.00,0.0066
2020.00,0.0067
2019.00,0.0068
2018.00,0.0068
2017.00,0.0068
2016.00,0.0069
2015.00,0.0069
2014.00,0.0069
2013.00,0.0070
2012.00,0.0072
2011.00,0.0072
2010.00,0.0070
2009.00,0.0068
2008.00,0.0068
2007.00,0.0068
2006.00,0.0070
2005.00,0.0074
2004.00,0.0079
2003.00,0.0083
2002.00,0.0085
2001.00,0.0086
2000.00,0.0086
1999.00,0.0086
1998.00,0.0084
1997.00,0.0082
1996.00,0.0081
1995.00,0.0080
1994.00,0.0080
1993.00,0.0081
1992.00,0.0082
1991.00,0.0082
1990.00,0.0080
1989.00,0.0079
1988.00,0.0080
1987.00,0.0080
1986.00,0.0080
1985.00,0.0081
1984.00,0.0084
1983.00,0.0086
1982.00,0.0087
1981.00,0.0086
1980.00,0.0083
1979.00,0.0076
1978.00,0.0069
1977.00,0.0065
1976.00,0.0064
1975.00,0.0064
1974.00,0.0065
1973.00,0.0067
1972.00,0.0069
1971.00,0.0071
1970.00,0.0071
1969.00,0.0071
1968.00,0.0072
1967.00,0.0072
1966.00,0.0072
1965.00,0.0073
1964.00,0.0075
1963.00,0.0075
1962.00,0.0072
1961.00,0.0070
1960.00,0.0068
1959.00,0.0066
1958.00,0.0066
1957.00,0.0068
1956.00,0.0070
1955.00,0.0070
1954.00,0.0069
1953.00,0.0068
1952.00,0.0069
1951.00,0.0069
1950.00,0.0069
1949.00,0.0070
1948.00,0.0071
1947.00,0.0072
1946.00,0.0071
1945.00,0.0071
1944.00,0.0071
1943.00,0.0071
1942.00,0.0071
1941.00,0.0071
1940.00,0.0072
1939.00,0.0073
1938.00,0.0074
1937.00,0.0075
1936.00,0.0076
1935.00,0.0076
1934.00,0.0077
1933.00,0.0078
1932.00,0.0080
1931.00,0.0082
1930.00,0.0082
1929.00,0.0083
1928.00,0.0083
1927.00,0.0083
1926.00,0.0082
1925.00,0.0082
1924.00,0.0082
1923.00,0.0082
1922.00,0.0082
1921.00,0.0082
1920.00,0.0082
1919.00,0.0082
1918.00,0.0080
1917.00,0.0079
1916.00,0.0078
1915.00,0.0077
1914.00,0.0076
1913.00,0.0076
1912.00,0.0076
1911.00,0.0077
1910.00,0.0076
1909.00,0.0076
1908.00,0.0076
1907.00,0.0075
1906.00,0.0074
1905.00,0.0073
1904.00,0.0073
1903.00,0.0073
1902.00,0.0072
1901.00,0.0072
1900.00,0.0071
1899.00,0.0071
1898.00,0.0070
1897.00,0.0071
1896.00,0.0071
1895.00,0.0072
1894.00,0.0072
1893.00,0.0073
1892.00,0.0074
1891.00,0.0074
1890.00,0.0073
1889.00,0.0073
1888.00,0.0074
1887.00,0.0074
1886.00,0.0073
1885.00,0.0072
1884.00,0.0072
1883.00,0.0071
1882.00,0.0070
1881.00,0.0069
1880.00,0.0069
1879.00,0.0069
1878.00,0.0069
1877.00,0.0068
1876.00,0.0067
1875.00,0.0067
1874.00,0.0067
1873.00,0.0068
1872.00,0.0070
1871.00,0.0071
1870.00,0.0071
1869.00,0.0070
1868.00,0.0070
1867.00,0.0069
1866.00,0.0068
1865.00,0.0068
1864.00,0.0068
1863.00,0.0068
1862.00,0.0068
1861.00,0.0069
1860.00,0.0069
1859.00,0.0069
1858.00,0.0069
1857.00,0.0070
1856.00,0.0071
1855.00,0.0073
1854.00,0.0074
1853.00,0.0076
1852.00,0.0079
1851.00,0.0081
1850.00,0.0082
1849.00,0.0082
1848.00,0.0083
1847.00,0.0082
1846.00,0.0080
1845.00,0.0078
1844.00,0.0076
1843.00,0.0073
1842.00,0.0071
1841.00,0.0069
1840.00,0.0069
1839.00,0.0069
1838.00,0.0068
1837.00,0.0068
1836.00,0.0068
1835.00,0.0068
1834.00,0.0069
1833.00,0.0070
1832.00,0.0071
1831.00,0.0071
1830.00,0.0070
1829.00,0.0070
1828.00,0.0071
1827.00,0.0072
1826.00,0.0071
1825.00,0.0070
1824.00,0.0069
1823.00,0.0068
1822.00,0.0066
1821.00,0.0065
1820.00,0.0065
1819.00,0.0065
1818.00,0.0063
1817.00,0.0063
1816.00,0.0063
1815.00,0.0065
1814.00,0.0066
1813.00,0.0067
1812.00,0.0068
1811.00,0.0068
1810.00,0.0068
1809.00,0.0068
1808.00,0.0068
1807.00,0.0069
1806.00,0.0069
1805.00,0.0071
1804.00,0.0074
1803.00,0.0075
1802.00,0.0076
1801.00,0.0075
1800.00,0.0075
1799.00,0.0075
1798.00,0.0076
1797.00,0.0077
1796.00,0.0079
1795.00,0.0080
1794.00,0.0081
1793.00,0.0080
1792.00,0.0080
1791.00,0.0078
1790.00,0.0076
1789.00,0.0075
1788.00,0.0076
1787.00,0.0076
1786.00,0.0076
1785.00,0.0076
1784.00,0.0077
1783.00,0.0077
1782.00,0.0076
1781.00,0.0076
1780.00,0.0077
1779.00,0.0077
1778.00,0.0078
1777.00,0.0079
1776.00,0.0081
1775.00,0.0082
1774.00,0.0082
1773.00,0.0082
1772.00,0.0084
1771.00,0.0085
1770.00,0.0085
1769.00,0.0085
1768.00,0.0084
1767.00,0.0084
1766.00,0.0084
1765.00,0.0085
1764.00,0.0086
1763.00,0.0088
1762.00,0.0088
1761.00,0.0088
1760.00,0.0090
1759.00,0.0091
1758.00,0.0091
1757.00,0.0091
1756.00,0.0091
1755.00,0.0092
1754.00,0.0092
1753.00,0.0093
1752.00,0.0094
1751.00,0.0095
1750.00,0.0093
1749.00,0.0091
1748.00,0.0091
1747.00,0.0090
1746.00,0.0089
1745.00,0.0088
1744.00,0.0089
1743.00,0.0089
1742.00,0.0087
1741.00,0.0086
1740.00,0.0086
1739.00,0.0088
1738.00,0.0090
1737.00,0.0092
1736.00,0.0094
1735.00,0.0096
1734.00,0.0098
1733.00,0.0101
1732.00,0.0104
1731.00,0.0106
1730.00,0.0106
1729.00,0.0108
1728.00,0.0110
1727.00,0.0113
1726.00,0.0115
1725.00,0.0118
1724.00,0.0123
1723.00,0.0129
1722.00,0.0136
1721.00,0.0143
1720.00,0.0153
1719.00,0.0163
1718.00,0.0175
1717.00,0.0191
1716.00,0.0209
1715.00,0.0227
1714.00,0.0243
1713.00,0.0262
1712.00,0.0283
1711.00,0.0306
1710.00,0.0329
1709.00,0.0353
1708.00,0.0379
1707.00,0.0405
1706.00,0.0431
1705.00,0.0459
1704.00,0.0486
1703.00,0.0509
1702.00,0.0531
1701.00,0.0563
1700.00,0.0609
1699.00,0.0654
1698.00,0.0697
1697.00,0.0762
1696.00,0.0871
1695.00,0.1019
1694.00,0.1185
1693.00,0.1364
1692.00,0.1566
1691.00,0.1788
1690.00,0.2004
1689.00,0.2176
1688.00,0.2281
1687.00,0.2324
1686.00,0.2325
1685.00,0.2324
1684.00,0.2361
1683.00,0.2442
1682.00,0.2549
1681.00,0.2681
1680.00,0.2831
1679.00,0.2970
1678.00,0.3061
1677.00,0.3076
1676.00,0.3003
1675.00,0.2846
1674.00,0.2644
1673.00,0.2434
1672.00,0.2224
1671.00,0.2012
1670.00,0.1803
1669.00,0.1616
1668.00,0.1465
1667.00,0.1347
1666.00,0.1252
1665.00,0.1171
1664.00,0.1097
1663.00,0.1030
1662.00,0.0975
1661.00,0.0930
1660.00,0.0893
1659.00,0.0864
1658.00,0.0845
1657.00,0.0835
1656.00,0.0831
1655.00,0.0841
1654.00,0.0887
1653.00,0.0983
1652.00,0.1092
1651.00,0.1178
1650.00,0.1244
1649.00,0.1300
1648.00,0.1347
1647.00,0.1371
1646.00,0.1360
1645.00,0.1315
1644.00,0.1246
1643.00,0.1165
1642.00,0.1081
1641.00,0.1002
1640.00,0.0933
1639.00,0.0876
1638.00,0.0833
1637.00,0.0804
1636.00,0.0793
1635.00,0.0802
1634.00,0.0825
1633.00,0.0857
1632.00,0.0895
1631.00,0.0938
1630.00,0.0983
1629.00,0.1025
1628.00,0.1059
1627.00,0.1081
1626.00,0.1091
1625.00,0.1093
1624.00,0.1093
1623.00,0.1093
1622.00,0.1093
1621.00,0.1090
1620.00,0.1082
1619.00,0.1068
1618.00,0.1049
1617.00,0.1024
1616.00,0.0992
1615.00,0.0956
1614.00,0.0916
1613.00,0.0873
1612.00,0.0829
1611.00,0.0790
1610.00,0.0760
1609.00,0.0743
1608.00,0.0742
1607.00,0.0759
1606.00,0.0790
1605.00,0.0820
1604.00,0.0834
1603.00,0.0820
1602.00,0.0776
1601.00,0.0713
1600.00,0.0644
1599.00,0.0581
1598.00,0.0529
1597.00,0.0488
1596.00,0.0455
1595.00,0.0427
1594.00,0.0405
1593.00,0.0386
1592.00,0.0367
1591.00,0.0350
1590.00,0.0334
1589.00,0.0320
1588.00,0.0307
1587.00,0.0295
1586.00,0.0286
1585.00,0.0279
1584.00,0.0273
1583.00,0.0269
1582.00,0.0269
1581.00,0.0275
1580.00,0.0283
1579.00,0.0295
1578.00,0.0313
1577.00,0.0339
1576.00,0.0369
1575.00,0.0389
1574.00,0.0391
1573.00,0.0379
1572.00,0.0357
1571.00,0.0331
1570.00,0.0306
1569.00,0.0286
1568.00,0.0271
1567.00,0.0259
1566.00,0.0250
1565.00,0.0244
1564.00,0.0240
1563.00,0.0239
1562.00,0.0239
1561.00,0.0241
1560.00,0.0239
1559.00,0.0238
1558.00,0.0238
1557.00,0.0238
1556.00,0.0237
1555.00,0.0235
1554.00,0.0236
1553.00,0.0240
1552.00,0.0245
1551.00,0.0249
1550.00,0.0256
1549.00,0.0265
1548.00,0.0275
1547.00,0.0286
1546.00,0.0301
1545.00,0.0318
1544.00,0.0336
1543.00,0.0354
1542.00,0.0376
1541.00,0.0410
1540.00,0.0462
1539.00,0.0531
1538.00,0.0610
1537.00,0.0695
1536.00,0.0795
1535.00,0.0935
1534.00,0.1132
1533.00,0.1375
1532.00,0.1623
1531.00,0.1855
1530.00,0.2072
1529.00,0.2269
1528.00,0.2426
1527.00,0.2519
1526.00,0.2536
1525.00,0.2482
1524.00,0.2378
1523.00,0.2236
1522.00,0.2062
1521.00,0.1875
1520.00,0.1708
1519.00,0.1572
1518.00,0.1452
1517.00,0.1340
1516.00,0.1240
1515.00,0.1159
1514.00,0.1091
1513.00,0.1032
1512.00,0.0985
1511.00,0.0954
1510.00,0.0938
1509.00,0.0937
1508.00,0.0957
1507.00,0.1015
1506.00,0.1106
1505.00,0.1207
1504.00,0.1306
1503.00,0.1411
1502.00,0.1528
1501.00,0.1658
1500.00,0.1793
1499.00,0.1928
1498.00,0.2054
1497.00,0.2162
1496.00,0.2243
1495.00,0.2293
1494.00,0.2314
1493.00,0.2309
1492.00,0.2284
1491.00,0.2244
1490.00,0.2192
1489.00,0.2127
1488.00,0.2051
1487.00,0.1970
1486.00,0.1888
1485.00,0.1806
1484.00,0.1724
1483.00,0.1644
1482.00,0.1570
1481.00,0.1502
1480.00,0.1442
1479.00,0.1389
1478.00,0.1342
1477.00,0.1295
1476.00,0.1248
1475.00,0.1200
1474.00,0.1153
1473.00,0.1108
1472.00,0.1067
1471.00,0.1035
1470.00,0.1012
1469.00,0.0995
1468.00,0.0983
1467.00,0.0974
1466.00,0.0965
1465.00,0.0956
1464.00,0.0944
1463.00,0.0929
1462.00,0.0914
1461.00,0.0900
1460.00,0.0887
1459.00,0.0876
1458.00,0.0865
1457.00,0.0855
1456.00,0.0846
1455.00,0.0836
1454.00,0.0827
1453.00,0.0821
1452.00,0.0820
1451.00,0.0826
1450.00,0.0839
1449.00,0.0863
1448.00,0.0899
1447.00,0.0946
1446.00,0.1000
1445.00,0.1054
1444.00,0.1100
1443.00,0.1134
1442.00,0.1161
1441.00,0.1191
1440.00,0.1234
1439.00,0.1300
1438.00,0.1404
1437.00,0.1554
1436.00,0.1732
1435.00,0.1902
1434.00,0.2050
1433.00,0.2172
1432.00,0.2249
1431.00,0.2254
1430.00,0.2176
1429.00,0.2039
1428.00,0.1876
1427.00,0.1713
1426.00,0.1562
1425.00,0.1426
1424.00,0.1305
1423.00,0.1203
1422.00,0.1118
1421.00,0.1043
1420.00,0.0973
1419.00,0.0906
1418.00,0.0846
1417.00,0.0795
1416.00,0.0749
1415.00,0.0708
1414.00,0.0671
1413.00,0.0638
1412.00,0.0607
1411.00,0.0579
1410.00,0.0555
1409.00,0.0533
1408.00,0.0513
1407.00,0.0495
1406.00,0.0480
1405.00,0.0464
1404.00,0.0451
1403.00,0.0440
1402.00,0.0432
1401.00,0.0426
1400.00,0.0421
1399.00,0.0417
1398.00,0.0416
1397.00,0.0415
1396.00,0.0417
1395.00,0.0422
1394.00,0.0431
1393.00,0.0444
1392.00,0.0462
1391.00,0.0484
1390.00,0.0510
1389.00,0.0538
1388.00,0.0565
1387.00,0.0590
1386.00,0.0611
1385.00,0.0630
1384.00,0.0652
1383.00,0.0681
1382.00,0.0716
1381.00,0.0749
1380.00,0.0771
1379.00,0.0775
1378.00,0.0757
1377.00,0.0719
1376.00,0.0669
1375.00,0.0616
1374.00,0.0566
1373.00,0.0524
1372.00,0.0492
1371.00,0.0469
1370.00,0.0454
1369.00,0.0445
1368.00,0.0443
1367.00,0.0448
1366.00,0.0460
1365.00,0.0479
1364.00,0.0506
1363.00,0.0540
1362.00,0.0580
1361.00,0.0624
1360.00,0.0673
1359.00,0.0729
1358.00,0.0793
1357.00,0.0870
1356.00,0.0965
1355.00,0.1087
1354.00,0.1244
1353.00,0.1440
1352.00,0.1669
1351.00,0.1911
1350.00,0.2130
1349.00,0.2282
1348.00,0.2342
1347.00,0.2312
1346.00,0.2225
1345.00,0.2123
1344.00,0.2039
1343.00,0.1985
1342.00,0.1952
1341.00,0.1925
1340.00,0.1886
1339.00,0.1824
1338.00,0.1737
1337.00,0.1631
1336.00,0.1513
1335.00,0.1393
1334.00,0.1277
1333.00,0.1171
1332.00,0.1078
1331.00,0.1005
1330.00,0.0951
1329.00,0.0915
1328.00,0.0897
1327.00,0.0896
1326.00,0.0915
1325.00,0.0958
1324.00,0.1027
1323.00,0.1121
1322.00,0.1230
1321.00,0.1338
1320.00,0.1436
1319.00,0.1516
1318.00,0.1583
1317.00,0.1645
1316.00,0.1713
1315.00,0.1791
1314.00,0.1875
1313.00,0.1957
1312.00,0.2030
1311.00,0.2089
1310.00,0.2129
1309.00,0.2141
1308.00,0.2120
1307.00,0.2066
1306.00,0.1985
1305.00,0.1890
1304.00,0.1789
1303.00,0.1690
1302.00,0.1596
1301.00,0.1510
1300.00,0.1432
1299.00,0.1363
1298.00,0.1304
1297.00,0.1257
1296.00,0.1222
1295.00,0.1202
1294.00,0.1195
1293.00,0.1200
1292.00,0.1210
1291.00,0.1216
1290.00,0.1210
1289.00,0.1190
1288.00,0.1158
1287.00,0.1121
1286.00,0.1085
1285.00,0.1052
1284.00,0.1023
1283.00,0.0999
1282.00,0.0979
1281.00,0.0964
1280.00,0.0953
1279.00,0.0946
1278.00,0.0944
1277.00,0.0945
1276.00,0.0949
1275.00,0.0957
1274.00,0.0969
1273.00,0.0984
1272.00,0.0999
1271.00,0.1012
1270.00,0.1016
1269.00,0.1005
1268.00,0.0976
1267.00,0.0932
1266.00,0.0880
1265.00,0.0824
1264.00,0.0770
1263.00,0.0722
1262.00,0.0682
1261.00,0.0648
1260.00,0.0620
1259.00,0.0599
1258.00,0.0583
1257.00,0.0573
1256.00,0.0566
1255.00,0.0564
1254.00,0.0565
1253.00,0.0570
1252.00,0.0576
1251.00,0.0584
1250.00,0.0594
1249.00,0.0605
1248.00,0.0618
1247.00,0.0635
1246.00,0.0656
1245.00,0.0684
1244.00,0.0720
1243.00,0.0769
1242.00,0.0834
1241.00,0.0917
1240.00,0.1015
1239.00,0.1121
1238.00,0.1228
1237.00,0.1334
1236.00,0.1450
1235.00,0.1591
1234.00,0.1770
1233.00,0.1991
1232.00,0.2249
1231.00,0.2539
1230.00,0.2854
1229.00,0.3184
1228.00,0.3516
1227.00,0.3828
1226.00,0.4093
1225.00,0.4285
1224.00,0.4389
1223.00,0.4401
1222.00,0.4335
1221.00,0.4214
1220.00,0.4059
1219.00,0.3886
1218.00,0.3709
1217.00,0.3532
1216.00,0.3360
1215.00,0.3192
1214.00,0.3026
1213.00,0.2862
1212.00,0.2701
1211.00,0.2544
1210.00,0.2392
1209.00,0.2247
1208.00,0.2111
1207.00,0.1985
1206.00,0.1868
1205.00,0.1760
1204.00,0.1663
1203.00,0.1576
1202.00,0.1502
1201.00,0.1442
1200.00,0.1401
1199.00,0.1385
1198.00,0.1399
1197.00,0.1451
1196.00,0.1548
1195.00,0.1693
1194.00,0.1883
1193.00,0.2102
1192.00,0.2324
1191.00,0.2515
1190.00,0.2640
1189.00,0.2678
1188.00,0.2625
1187.00,0.2503
1186.00,0.2341
1185.00,0.2169
1184.00,0.2005
1183.00,0.1855
1182.00,0.1720
1181.00,0.1594
1180.00,0.1478
1179.00,0.1371
1178.00,0.1278
1177.00,0.1200
1176.00,0.1135
1175.00,0.1084
1174.00,0.1046
1173.00,0.1020
1172.00,0.1006
1171.00,0.1009
1170.00,0.1033
1169.00,0.1081
1168.00,0.1157
1167.00,0.1254
1166.00,0.1359
1165.00,0.1443
1164.00,0.1480
1163.00,0.1455
1162.00,0.1375
1161.00,0.1264
1160.00,0.1152
1159.00,0.1063
1158.00,0.1015
1157.00,0.1018
1156.00,0.1079
1155.00,0.1197
1154.00,0.1352
1153.00,0.1499
1152.00,0.1588
1151.00,0.1588
1150.00,0.1506
1149.00,0.1381
1148.00,0.1248
1147.00,0.1129
1146.00,0.1029
1145.00,0.0946
1144.00,0.0879
1143.00,0.0826
1142.00,0.0789
1141.00,0.0769
1140.00,0.0764
1139.00,0.0772
1138.00,0.0788
1137.00,0.0807
1136.00,0.0825
1135.00,0.0840
1134.00,0.0855
1133.00,0.0875
1132.00,0.0906
1131.00,0.0956
1130.00,0.1032
1129.00,0.1144
1128.00,0.1301
1127.00,0.1510
1126.00,0.1775
1125.00,0.2090
1124.00,0.2439
1123.00,0.2795
1122.00,0.3118
1121.00,0.3370
1120.00,0.3522
1119.00,0.3563
1118.00,0.3505
1117.00,0.3372
1116.00,0.3191
1115.00,0.2987
1114.00,0.2780
1113.00,0.2586
1112.00,0.2415
1111.00,0.2277
1110.00,0.2180
1109.00,0.2127
1108.00,0.2125
1107.00,0.2176
1106.00,0.2278
1105.00,0.2423
1104.00,0.2593
1103.00,0.2760
1102.00,0.2891
1101.00,0.2960
1100.00,0.2954
1099.00,0.2878
1098.00,0.2751
1097.00,0.2596
1096.00,0.2429
1095.00,0.2265
1094.00,0.2108
1093.00,0.1961
1092.00,0.1825
1091.00,0.1699
1090.00,0.1585
1089.00,0.1481
1088.00,0.1388
1087.00,0.1305
1086.00,0.1233
1085.00,0.1170
1084.00,0.1115
1083.00,0.1068
1082.00,0.1027
1081.00,0.0992
1080.00,0.0961
1079.00,0.0934
1078.00,0.0912
1077.00,0.0893
1076.00,0.0880
1075.00,0.0875
1074.00,0.0877
1073.00,0.0885
1072.00,0.0893
1071.00,0.0896
1070.00,0.0888
1069.00,0.0868
1068.00,0.0840
1067.00,0.0813
1066.00,0.0792
1065.00,0.0783
1064.00,0.0787
1063.00,0.0809
1062.00,0.0851
1061.00,0.0916
1060.00,0.1005
1059.00,0.1119
1058.00,0.1246
1057.00,0.1370
1056.00,0.1471
1055.00,0.1532
1054.00,0.1547
1053.00,0.1523
1052.00,0.1476
1051.00,0.1422
1050.00,0.1368
1049.00,0.1313
1048.00,0.1254
1047.00,0.1191
1046.00,0.1130
1045.00,0.1078
1044.00,0.1038
1043.00,0.1012
1042.00,0.0997
1041.00,0.0992
1040.00,0.0994
1039.00,0.1001
1038.00,0.1013
1037.00,0.1027
1036.00,0.1043
1035.00,0.1061
1034.00,0.1082
1033.00,0.1110
1032.00,0.1146
1031.00,0.1196
1030.00,0.1265
1029.00,0.1355
1028.00,0.1468
1027.00,0.1605
1026.00,0.1762
1025.00,0.1928
1024.00,0.2087
1023.00,0.2220
1022.00,0.2310
1021.00,0.2346
1020.00,0.2324
1019.00,0.2255
1018.00,0.2150
1017.00,0.2024
1016.00,0.1890
1015.00,0.1757
1014.00,0.1630
1013.00,0.1514
1012.00,0.1409
1011.00,0.1316
1010.00,0.1234
1009.00,0.1162
1008.00,0.1098
1007.00,0.1043
1006.00,0.0998
1005.00,0.0962
1004.00,0.0936
1003.00,0.0916
1002.00,0.0896
1001.00,0.0871
1000.00,0.0841
999.00,0.0808
998.00,0.0777
997.00,0.0749
996.00,0.0725
995.00,0.0703
994.00,0.0684
993.00,0.0666
992.00,0.0650
991.00,0.0636
990.00,0.0623
989.00,0.0611
988.00,0.0600
987.00,0.0589
986.00,0.0580
985.00,0.0572
984.00,0.0564
983.00,0.0556
982.00,0.0550
981.00,0.0543
980.00,0.0537
979.00,0.0531
978.00,0.0526
977.00,0.0520
976.00,0.0516
975.00,0.0513
974.00,0.0513
973.00,0.0518
972.00,0.0527
971.00,0.0540
970.00,0.0552
969.00,0.0557
968.00,0.0555
967.00,0.0550
966.00,0.0550
965.00,0.0561
964.00,0.0584
963.00,0.0607
962.00,0.0617
961.00,0.0611
960.00,0.0596
959.00,0.0587
958.00,0.0597
957.00,0.0623
956.00,0.0655
955.00,0.0680
954.00,0.0688
953.00,0.0675
952.00,0.0646
951.00,0.0611
950.00,0.0578
949.00,0.0548
948.00,0.0523
947.00,0.0502
946.00,0.0486
945.00,0.0472
944.00,0.0460
943.00,0.0449
942.00,0.0439
941.00,0.0431
940.00,0.0423
939.00,0.0416
938.00,0.0411
937.00,0.0405
936.00,0.0399
935.00,0.0393
934.00,0.0388
933.00,0.0384
932.00,0.0379
931.00,0.0375
930.00,0.0371
929.00,0.0367
928.00,0.0364
927.00,0.0360
926.00,0.0357
925.00,0.0355
924.00,0.0352
923.00,0.0350
922.00,0.0347
921.00,0.0345
920.00,0.0342
919.00,0.0339
918.00,0.0337
917.00,0.0334
916.00,0.0331
915.00,0.0328
914.00,0.0326
913.00,0.0323
912.00,0.0321
911.00,0.0318
910.00,0.0316
909.00,0.0314
908.00,0.0311
907.00,0.0308
906.00,0.0306
905.00,0.0304
904.00,0.0301
903.00,0.0299
902.00,0.0297
901.00,0.0295
900.00,0.0292
899.00,0.0290
898.00,0.0289
897.00,0.0288
896.00,0.0286
895.00,0.0284
894.00,0.0282
893.00,0.0281
892.00,0.0279
891.00,0.0277
890.00,0.0276
889.00,0.0276
888.00,0.0278
887.00,0.0283
886.00,0.0292
885.00,0.0304
884.00,0.0312
883.00,0.0313
882.00,0.0304
881.00,0.0292
880.00,0.0279
879.00,0.0268
878.00,0.0261
877.00,0.0258
876.00,0.0255
875.00,0.0253
874.00,0.0251
873.00,0.0249
872.00,0.0248
871.00,0.0247
870.00,0.0246
869.00,0.0247
868.00,0.0249
867.00,0.0252
866.00,0.0260
865.00,0.0274
864.00,0.0303
863.00,0.0364
862.00,0.0484
861.00,0.0678
860.00,0.0911
859.00,0.1088
858.00,0.1117
857.00,0.0990
856.00,0.0793
855.00,0.0614
854.00,0.0490
853.00,0.0413
852.00,0.0366
851.00,0.0336
850.00,0.0318
849.00,0.0306
848.00,0.0297
847.00,0.0292
846.00,0.0290
845.00,0.0290
844.00,0.0291
843.00,0.0298
842.00,0.0311
841.00,0.0335
840.00,0.0377
839.00,0.0450
838.00,0.0562
837.00,0.0711
836.00,0.0879
835.00,0.1043
834.00,0.1191
833.00,0.1330
832.00,0.1476
831.00,0.1625
830.00,0.1745
829.00,0.1794
828.00,0.1751
827.00,0.1631
826.00,0.1469
825.00,0.1297
824.00,0.1139
823.00,0.1003
822.00,0.0889
821.00,0.0791
820.00,0.0705
819.00,0.0632
818.00,0.0569
817.00,0.0515
816.00,0.0470
815.00,0.0435
814.00,0.0411
813.00,0.0395
812.00,0.0391
811.00,0.0398
810.00,0.0417
809.00,0.0442
808.00,0.0468
807.00,0.0486
806.00,0.0486
805.00,0.0465
804.00,0.0434
803.00,0.0407
802.00,0.0396
801.00,0.0406
800.00,0.0449
799.00,0.0546
798.00,0.0728
797.00,0.1015
796.00,0.1395
795.00,0.1788
794.00,0.2063
793.00,0.2116
792.00,0.1968
791.00,0.1727
790.00,0.1489
789.00,0.1286
788.00,0.1112
787.00,0.0963
786.00,0.0838
785.00,0.0740
784.00,0.0665
783.00,0.0610
782.00,0.0570
781.00,0.0539
780.00,0.0514
779.00,0.0496
778.00,0.0486
777.00,0.0487
776.00,0.0503
775.00,0.0538
774.00,0.0585
773.00,0.0623
772.00,0.0633
771.00,0.0614
770.00,0.0586
769.00,0.0579
768.00,0.0620
767.00,0.0732
766.00,0.0921
765.00,0.1166
764.00,0.1410
763.00,0.1574
762.00,0.1601
761.00,0.1501
760.00,0.1333
759.00,0.1158
758.00,0.1011
757.00,0.0899
756.00,0.0818
755.00,0.0761
754.00,0.0727
753.00,0.0714
752.00,0.0728
751.00,0.0779
750.00,0.0881
749.00,0.1044
748.00,0.1272
747.00,0.1541
746.00,0.1792
745.00,0.1948
744.00,0.1959
743.00,0.1838
742.00,0.1644
741.00,0.1431
740.00,0.1234
739.00,0.1065
738.00,0.0924
737.00,0.0809
736.00,0.0716
735.00,0.0644
734.00,0.0587
733.00,0.0543
732.00,0.0508
731.00,0.0481
730.00,0.0460
729.00,0.0444
728.00,0.0430
727.00,0.0421
726.00,0.0415
725.00,0.0411
724.00,0.0411
723.00,0.0417
722.00,0.0430
721.00,0.0453
720.00,0.0493
719.00,0.0558
718.00,0.0665
717.00,0.0836
716.00,0.1091
715.00,0.1427
714.00,0.1792
713.00,0.2083
712.00,0.2198
711.00,0.2111
710.00,0.1884
709.00,0.1610
708.00,0.1356
707.00,0.1152
706.00,0.1000
705.00,0.0891
704.00,0.0812
703.00,0.0756
702.00,0.0717
701.00,0.0691
700.00,0.0676
699.00,0.0671
698.00,0.0678
697.00,0.0696
696.00,0.0725
695.00,0.0769
694.00,0.0831
693.00,0.0913
692.00,0.1014
691.00,0.1133
690.00,0.1265
689.00,0.1395
688.00,0.1503
687.00,0.1564
686.00,0.1562
685.00,0.1495
684.00,0.1380
683.00,0.1252
682.00,0.1136
681.00,0.1047
680.00,0.0994
679.00,0.0977
678.00,0.0996
677.00,0.1045
676.00,0.1111
675.00,0.1175
674.00,0.1213
673.00,0.1206
672.00,0.1159
671.00,0.1093
670.00,0.1027
669.00,0.0975
668.00,0.0946
667.00,0.0939
666.00,0.0944
665.00,0.0952
664.00,0.0959
663.00,0.0961
662.00,0.0956
661.00,0.0939
660.00,0.0912
659.00,0.0879
658.00,0.0842
657.00,0.0803
656.00,0.0763
655.00,0.0725
654.00,0.0690
653.00,0.0657
652.00,0.0625
651.00,0.0595
650.00,0.0569
649.00,0.0545
648.00,0.0523
647.00,0.0502
646.00,0.0484
645.00,0.0466
644.00,0.0448
643.00,0.0432
642.00,0.0418
641.00,0.0406
640.00,0.0394
639.00,0.0383
638.00,0.0377
637.00,0.0372
636.00,0.0368
635.00,0.0368
634.00,0.0374
633.00,0.0385
632.00,0.0404
631.00,0.0437
630.00,0.0490
629.00,0.0570
628.00,0.0679
627.00,0.0817
626.00,0.0971
625.00,0.1112
624.00,0.1212
623.00,0.1254
622.00,0.1236
621.00,0.1172
620.00,0.1085
619.00,0.0991
618.00,0.0905
617.00,0.0831
616.00,0.0771
615.00,0.0727
614.00,0.0701
613.00,0.0692
612.00,0.0697
611.00,0.0719
610.00,0.0749
609.00,0.0775
608.00,0.0783
607.00,0.0766
606.00,0.0729
605.00,0.0680
604.00,0.0628
603.00,0.0583
602.00,0.0547
601.00,0.0518
600.00,0.0495
599.00,0.0479
598.00,0.0471
597.00,0.0469
596.00,0.0475
595.00,0.0494
594.00,0.0533
593.00,0.0587
592.00,0.0645
591.00,0.0691
590.00,0.0709
589.00,0.0702
588.00,0.0689
587.00,0.0694
586.00,0.0723
585.00,0.0757
584.00,0.0769
583.00,0.0745
582.00,0.0694
581.00,0.0631
580.00,0.0573
579.00,0.0528
578.00,0.0498
577.00,0.0476
576.00,0.0459
575.00,0.0448
574.00,0.0445
573.00,0.0446
572.00,0.0453
571.00,0.0465
570.00,0.0485
569.00,0.0507
568.00,0.0528
567.00,0.0552
566.00,0.0577
565.00,0.0598
564.00,0.0608
563.00,0.0602
562.00,0.0582
561.00,0.0549
560.00,0.0510
559.00,0.0473
558.00,0.0445
557.00,0.0423
556.00,0.0404
555.00,0.0389
554.00,0.0379
553.00,0.0369
552.00,0.0359
551.00,0.0352
550.00,0.0349
549.00,0.0345
548.00,0.0339
547.00,0.0333
546.00,0.0330
545.00,0.0326
544.00,0.0321
543.00,0.0317
542.00,0.0315
541.00,0.0312
540.00,0.0308
539.00,0.0305
538.00,0.0304
537.00,0.0304
536.00,0.0300
535.00,0.0297
534.00,0.0294
533.00,0.0289
532.00,0.0282
531.00,0.0278
530.00,0.0278
529.00,0.0279
528.00,0.0278
527.00,0.0277
526.00,0.0277
525.00,0.0277
524.00,0.0273
523.00,0.0271
522.00,0.0271
521.00,0.0271
520.00,0.0270
519.00,0.0270
518.00,0.0275
517.00,0.0281
516.00,0.0290
515.00,0.0306
514.00,0.0327
513.00,0.0346
512.00,0.0351
511.00,0.0343
510.00,0.0328
509.00,0.0311
508.00,0.0293
507.00,0.0280
506.00,0.0274
505.00,0.0270
504.00,0.0266
503.00,0.0263
502.00,0.0260
501.00,0.0256
500.00,0.0251
499.00,0.0249
498.00,0.0250
497.00,0.0250
496.00,0.0247
495.00,0.0247
494.00,0.0250
493.00,0.0253
492.00,0.0251
491.00,0.0249
490.00,0.0250
489.00,0.0251
488.00,0.0251
487.00,0.0254
486.00,0.0260
485.00,0.0265
484.00,0.0267
483.00,0.0270
482.00,0.0277
481.00,0.0287
480.00,0.0295
479.00,0.0309
478.00,0.0330
477.00,0.0354
476.00,0.0381
475.00,0.0418
474.00,0.0470
473.00,0.0530
472.00,0.0590
471.00,0.0651
470.00,0.0709
469.00,0.0755
468.00,0.0781
467.00,0.0786
466.00,0.0773
465.00,0.0741
464.00,0.0697
463.00,0.0650
462.00,0.0608
461.00,0.0568
460.00,0.0526
459.00,0.0490
458.00,0.0462
457.00,0.0437
456.00,0.0411
455.00,0.0390
454.00,0.0379
453.00,0.0370
452.00,0.0358
451.00,0.0348
450.00,0.0345
449.00,0.0341
448.00,0.0332
447.00,0.0325
446.00,0.0322
445.00,0.0318
444.00,0.0308
443.00,0.0300
442.00,0.0300
441.00,0.0298
440.00,0.0291
439.00,0.0285
438.00,0.0287
437.00,0.0290
436.00,0.0289
435.00,0.0288
434.00,0.0290
433.00,0.0289
432.00,0.0283
431.00,0.0279
430.00,0.0282
429.00,0.0285
428.00,0.0284
427.00,0.0288
426.00,0.0303
425.00,0.0317
424.00,0.0322
423.00,0.0326
422.00,0.0342
421.00,0.0365
420.00,0.0391
419.00,0.0427
418.00,0.0478
417.00,0.0524
416.00,0.0561
415.00,0.0601
414.00,0.0647
413.00,0.0682
412.00,0.0695
411.00,0.0701
410.00,0.0715
409.00,0.0725
408.00,0.0715
407.00,0.0689
406.00,0.0656
405.00,0.0609
404.00,0.0550
403.00,0.0502
402.00,0.0478
401.00,0.0462
400.00,0.0441
