Created as New Dataset,Sample 402 By YargerLab Date Thursday, December 04 2025
cm-1,A
4000.00,0.0060
3999.00,0.0060
3998.00,0.0060
3997.00,0.0060
3996.00,0.0060
3995.00,0.0061
3994.00,0.0061
3993.00,0.0061
3992.00,0.0061
3991.00,0.0061
3990.00,0.0061
3989.00,0.0060
3988.00,0.0060
3987.00,0.0061
3986.00,0.0061
3985.00,0.0061
3984.00,0.0061
3983.00,0.0060
3982.00,0.0060
3981.00,0.0060
3980.00,0.0060
3979.00,0.0060
3978.00,0.0060
3977.00,0.0060
3976.00,0.0060
3975.00,0.0060
3974.00,0.0060
3973.00,0.0060
3972.00,0.0060
3971.00,0.0060
3970.00,0.0060
3969.00,0.0060
3968.00,0.0060
3967.00,0.0060
3966.00,0.0060
3965.00,0.0060
3964.00,0.0061
3963.00,0.0061
3962.00,0.0061
3961.00,0.0061
3960.00,0.0060
3959.00,0.0060
3958.00,0.0060
3957.00,0.0060
3956.00,0.0060
3955.00,0.0060
3954.00,0.0060
3953.00,0.0061
3952.00,0.0061
3951.00,0.0061
3950.00,0.0061
3949.00,0.0061
3948.00,0.0061
3947.00,0.0061
3946.00,0.0061
3945.00,0.0061
3944.00,0.0061
3943.00,0.0061
3942.00,0.0061
3941.00,0.0061
3940.00,0.0061
3939.00,0.0061
3938.00,0.0061
3937.00,0.0061
3936.00,0.0061
3935.00,0.0061
3934.00,0.0061
3933.00,0.0061
3932.00,0.0060
3931.00,0.0060
3930.00,0.0060
3929.00,0.0061
3928.00,0.0061
3927.00,0.0061
3926.00,0.0061
3925.00,0.0060
3924.00,0.0061
3923.00,0.0061
3922.00,0.0061
3921.00,0.0061
3920.00,0.0060
3919.00,0.0060
3918.00,0.0061
3917.00,0.0061
3916.00,0.0061
3915.00,0.0061
3914.00,0.0061
3913.00,0.0061
3912.00,0.0061
3911.00,0.0061
3910.00,0.0061
3909.00,0.0061
3908.00,0.0061
3907.00,0.0061
3906.00,0.0061
3905.00,0.0061
3904.00,0.0061
3903.00,0.0061
3902.00,0.0061
3901.00,0.0061
3900.00,0.0062
3899.00,0.0061
3898.00,0.0061
3897.00,0.0061
3896.00,0.0061
3895.00,0.0061
3894.00,0.0061
3893.00,0.0061
3892.00,0.0061
3891.00,0.0061
3890.00,0.0060
3889.00,0.0061
3888.00,0.0061
3887.00,0.0061
3886.00,0.0061
3885.00,0.0061
3884.00,0.0061
3883.00,0.0060
3882.00,0.0060
3881.00,0.0060
3880.00,0.0060
3879.00,0.0060
3878.00,0.0060
3877.00,0.0060
3876.00,0.0060
3875.00,0.0060
3874.00,0.0060
3873.00,0.0060
3872.00,0.0060
3871.00,0.0060
3870.00,0.0061
3869.00,0.0061
3868.00,0.0061
3867.00,0.0061
3866.00,0.0061
3865.00,0.0061
3864.00,0.0061
3863.00,0.0061
3862.00,0.0061
3861.00,0.0061
3860.00,0.0061
3859.00,0.0061
3858.00,0.0061
3857.00,0.0061
3856.00,0.0061
3855.00,0.0061
3854.00,0.0061
3853.00,0.0061
3852.00,0.0061
3851.00,0.0061
3850.00,0.0061
3849.00,0.0061
3848.00,0.0061
3847.00,0.0061
3846.00,0.0061
3845.00,0.0061
3844.00,0.0061
3843.00,0.0061
3842.00,0.0061
3841.00,0.0060
3840.00,0.0060
3839.00,0.0060
3838.00,0.0060
3837.00,0.0061
3836.00,0.0061
3835.00,0.0061
3834.00,0.0061
3833.00,0.0061
3832.00,0.0061
3831.00,0.0061
3830.00,0.0061
3829.00,0.0061
3828.00,0.0061
3827.00,0.0061
3826.00,0.0060
3825.00,0.0060
3824.00,0.0060
3823.00,0.0060
3822.00,0.0061
3821.00,0.0061
3820.00,0.0061
3819.00,0.0061
3818.00,0.0061
3817.00,0.0061
3816.00,0.0061
3815.00,0.0061
3814.00,0.0061
3813.00,0.0061
3812.00,0.0061
3811.00,0.0061
3810.00,0.0061
3809.00,0.0061
3808.00,0.0061
3807.00,0.0061
3806.00,0.0060
3805.00,0.0060
3804.00,0.0060
3803.00,0.0060
3802.00,0.0061
3801.00,0.0061
3800.00,0.0061
3799.00,0.0061
3798.00,0.0061
3797.00,0.0061
3796.00,0.0061
3795.00,0.0061
3794.00,0.0061
3793.00,0.0061
3792.00,0.0061
3791.00,0.0061
3790.00,0.0061
3789.00,0.0061
3788.00,0.0061
3787.00,0.0061
3786.00,0.0061
3785.00,0.0061
3784.00,0.0061
3783.00,0.0061
3782.00,0.0061
3781.00,0.0061
3780.00,0.0061
3779.00,0.0061
3778.00,0.0061
3777.00,0.0061
3776.00,0.0061
3775.00,0.0061
3774.00,0.0061
3773.00,0.0061
3772.00,0.0061
3771.00,0.0061
3770.00,0.0061
3769.00,0.0061
3768.00,0.0061
3767.00,0.0061
3766.00,0.0061
3765.00,0.0061
3764.00,0.0061
3763.00,0.0062
3762.00,0.0062
3761.00,0.0062
3760.00,0.0061
3759.00,0.0061
3758.00,0.0061
3757.00,0.0061
3756.00,0.0061
3755.00,0.0061
3754.00,0.0061
3753.00,0.0061
3752.00,0.0061
3751.00,0.0061
3750.00,0.0061
3749.00,0.0061
3748.00,0.0061
3747.00,0.0061
3746.00,0.0061
3745.00,0.0061
3744.00,0.0061
3743.00,0.0060
3742.00,0.0060
3741.00,0.0060
3740.00,0.0060
3739.00,0.0060
3738.00,0.0060
3737.00,0.0059
3736.00,0.0059
3735.00,0.0059
3734.00,0.0059
3733.00,0.0060
3732.00,0.0060
3731.00,0.0060
3730.00,0.0060
3729.00,0.0060
3728.00,0.0060
3727.00,0.0060
3726.00,0.0060
3725.00,0.0060
3724.00,0.0059
3723.00,0.0059
3722.00,0.0059
3721.00,0.0059
3720.00,0.0059
3719.00,0.0059
3718.00,0.0059
3717.00,0.0059
3716.00,0.0059
3715.00,0.0060
3714.00,0.0060
3713.00,0.0059
3712.00,0.0059
3711.00,0.0059
3710.00,0.0059
3709.00,0.0059
3708.00,0.0059
3707.00,0.0059
3706.00,0.0059
3705.00,0.0059
3704.00,0.0059
3703.00,0.0059
3702.00,0.0059
3701.00,0.0059
3700.00,0.0059
3699.00,0.0059
3698.00,0.0059
3697.00,0.0059
3696.00,0.0059
3695.00,0.0059
3694.00,0.0059
3693.00,0.0059
3692.00,0.0060
3691.00,0.0060
3690.00,0.0060
3689.00,0.0060
3688.00,0.0061
3687.00,0.0061
3686.00,0.0061
3685.00,0.0061
3684.00,0.0061
3683.00,0.0061
3682.00,0.0061
3681.00,0.0062
3680.00,0.0062
3679.00,0.0062
3678.00,0.0063
3677.00,0.0063
3676.00,0.0063
3675.00,0.0063
3674.00,0.0064
3673.00,0.0064
3672.00,0.0064
3671.00,0.0064
3670.00,0.0064
3669.00,0.0065
3668.00,0.0065
3667.00,0.0065
3666.00,0.0065
3665.00,0.0065
3664.00,0.0066
3663.00,0.0066
3662.00,0.0066
3661.00,0.0067
3660.00,0.0067
3659.00,0.0067
3658.00,0.0067
3657.00,0.0067
3656.00,0.0067
3655.00,0.0068
3654.00,0.0068
3653.00,0.0068
3652.00,0.0068
3651.00,0.0068
3650.00,0.0068
3649.00,0.0068
3648.00,0.0068
3647.00,0.0068
3646.00,0.0068
3645.00,0.0068
3644.00,0.0068
3643.00,0.0068
3642.00,0.0068
3641.00,0.0069
3640.00,0.0069
3639.00,0.0069
3638.00,0.0070
3637.00,0.0070
3636.00,0.0070
3635.00,0.0070
3634.00,0.0070
3633.00,0.0070
3632.00,0.0070
3631.00,0.0071
3630.00,0.0071
3629.00,0.0072
3628.00,0.0072
3627.00,0.0072
3626.00,0.0072
3625.00,0.0072
3624.00,0.0072
3623.00,0.0072
3622.00,0.0072
3621.00,0.0073
3620.00,0.0073
3619.00,0.0073
3618.00,0.0074
3617.00,0.0074
3616.00,0.0075
3615.00,0.0075
3614.00,0.0076
3613.00,0.0076
3612.00,0.0077
3611.00,0.0078
3610.00,0.0078
3609.00,0.0078
3608.00,0.0079
3607.00,0.0079
3606.00,0.0079
3605.00,0.0080
3604.00,0.0080
3603.00,0.0080
3602.00,0.0080
3601.00,0.0081
3600.00,0.0081
3599.00,0.0082
3598.00,0.0082
3597.00,0.0082
3596.00,0.0083
3595.00,0.0083
3594.00,0.0084
3593.00,0.0084
3592.00,0.0084
3591.00,0.0084
3590.00,0.0085
3589.00,0.0085
3588.00,0.0085
3587.00,0.0086
3586.00,0.0087
3585.00,0.0087
3584.00,0.0088
3583.00,0.0088
3582.00,0.0088
3581.00,0.0089
3580.00,0.0089
3579.00,0.0090
3578.00,0.0090
3577.00,0.0091
3576.00,0.0091
3575.00,0.0092
3574.00,0.0092
3573.00,0.0092
3572.00,0.0092
3571.00,0.0092
3570.00,0.0093
3569.00,0.0093
3568.00,0.0093
3567.00,0.0094
3566.00,0.0095
3565.00,0.0095
3564.00,0.0096
3563.00,0.0096
3562.00,0.0096
3561.00,0.0096
3560.00,0.0097
3559.00,0.0098
3558.00,0.0098
3557.00,0.0099
3556.00,0.0099
3555.00,0.0099
3554.00,0.0100
3553.00,0.0100
3552.00,0.0100
3551.00,0.0101
3550.00,0.0101
3549.00,0.0101
3548.00,0.0101
3547.00,0.0102
3546.00,0.0102
3545.00,0.0103
3544.00,0.0103
3543.00,0.0104
3542.00,0.0104
3541.00,0.0104
3540.00,0.0105
3539.00,0.0105
3538.00,0.0105
3537.00,0.0105
3536.00,0.0105
3535.00,0.0105
3534.00,0.0105
3533.00,0.0105
3532.00,0.0105
3531.00,0.0106
3530.00,0.0106
3529.00,0.0106
3528.00,0.0106
3527.00,0.0107
3526.00,0.0107
3525.00,0.0107
3524.00,0.0108
3523.00,0.0108
3522.00,0.0108
3521.00,0.0108
3520.00,0.0108
3519.00,0.0109
3518.00,0.0109
3517.00,0.0109
3516.00,0.0109
3515.00,0.0109
3514.00,0.0109
3513.00,0.0109
3512.00,0.0109
3511.00,0.0109
3510.00,0.0110
3509.00,0.0110
3508.00,0.0110
3507.00,0.0111
3506.00,0.0111
3505.00,0.0111
3504.00,0.0111
3503.00,0.0111
3502.00,0.0111
3501.00,0.0112
3500.00,0.0112
3499.00,0.0112
3498.00,0.0112
3497.00,0.0112
3496.00,0.0112
3495.00,0.0113
3494.00,0.0113
3493.00,0.0113
3492.00,0.0113
3491.00,0.0113
3490.00,0.0113
3489.00,0.0113
3488.00,0.0113
3487.00,0.0113
3486.00,0.0114
3485.00,0.0114
3484.00,0.0114
3483.00,0.0114
3482.00,0.0114
3481.00,0.0115
3480.00,0.0115
3479.00,0.0115
3478.00,0.0115
3477.00,0.0115
3476.00,0.0115
3475.00,0.0115
3474.00,0.0116
3473.00,0.0116
3472.00,0.0116
3471.00,0.0116
3470.00,0.0116
3469.00,0.0116
3468.00,0.0116
3467.00,0.0116
3466.00,0.0116
3465.00,0.0116
3464.00,0.0116
3463.00,0.0116
3462.00,0.0116
3461.00,0.0116
3460.00,0.0116
3459.00,0.0116
3458.00,0.0116
3457.00,0.0116
3456.00,0.0116
3455.00,0.0116
3454.00,0.0116
3453.00,0.0116
3452.00,0.0116
3451.00,0.0117
3450.00,0.0117
3449.00,0.0117
3448.00,0.0117
3447.00,0.0117
3446.00,0.0117
3445.00,0.0117
3444.00,0.0117
3443.00,0.0117
3442.00,0.0117
3441.00,0.0117
3440.00,0.0117
3439.00,0.0117
3438.00,0.0117
3437.00,0.0117
3436.00,0.0117
3435.00,0.0117
3434.00,0.0117
3433.00,0.0117
3432.00,0.0117
3431.00,0.0117
3430.00,0.0117
3429.00,0.0118
3428.00,0.0118
3427.00,0.0118
3426.00,0.0118
3425.00,0.0118
3424.00,0.0118
3423.00,0.0118
3422.00,0.0118
3421.00,0.0118
3420.00,0.0118
3419.00,0.0118
3418.00,0.0118
3417.00,0.0118
3416.00,0.0118
3415.00,0.0119
3414.00,0.0119
3413.00,0.0118
3412.00,0.0118
3411.00,0.0119
3410.00,0.0119
3409.00,0.0119
3408.00,0.0119
3407.00,0.0119
3406.00,0.0119
3405.00,0.0119
3404.00,0.0118
3403.00,0.0118
3402.00,0.0118
3401.00,0.0118
3400.00,0.0119
3399.00,0.0119
3398.00,0.0120
3397.00,0.0120
3396.00,0.0120
3395.00,0.0120
3394.00,0.0120
3393.00,0.0119
3392.00,0.0120
3391.00,0.0120
3390.00,0.0120
3389.00,0.0121
3388.00,0.0121
3387.00,0.0122
3386.00,0.0122
3385.00,0.0122
3384.00,0.0123
3383.00,0.0123
3382.00,0.0123
3381.00,0.0123
3380.00,0.0122
3379.00,0.0122
3378.00,0.0122
3377.00,0.0122
3376.00,0.0123
3375.00,0.0123
3374.00,0.0123
3373.00,0.0123
3372.00,0.0122
3371.00,0.0121
3370.00,0.0121
3369.00,0.0121
3368.00,0.0121
3367.00,0.0122
3366.00,0.0123
3365.00,0.0124
3364.00,0.0125
3363.00,0.0125
3362.00,0.0125
3361.00,0.0125
3360.00,0.0126
3359.00,0.0126
3358.00,0.0127
3357.00,0.0127
3356.00,0.0128
3355.00,0.0127
3354.00,0.0127
3353.00,0.0127
3352.00,0.0126
3351.00,0.0127
3350.00,0.0128
3349.00,0.0129
3348.00,0.0130
3347.00,0.0130
3346.00,0.0130
3345.00,0.0131
3344.00,0.0131
3343.00,0.0131
3342.00,0.0131
3341.00,0.0131
3340.00,0.0131
3339.00,0.0131
3338.00,0.0132
3337.00,0.0132
3336.00,0.0133
3335.00,0.0134
3334.00,0.0135
3333.00,0.0135
3332.00,0.0136
3331.00,0.0136
3330.00,0.0136
3329.00,0.0136
3328.00,0.0135
3327.00,0.0135
3326.00,0.0136
3325.00,0.0136
3324.00,0.0137
3323.00,0.0137
3322.00,0.0138
3321.00,0.0138
3320.00,0.0138
3319.00,0.0139
3318.00,0.0139
3317.00,0.0140
3316.00,0.0140
3315.00,0.0140
3314.00,0.0140
3313.00,0.0140
3312.00,0.0140
3311.00,0.0139
3310.00,0.0139
3309.00,0.0138
3308.00,0.0138
3307.00,0.0138
3306.00,0.0139
3305.00,0.0140
3304.00,0.0142
3303.00,0.0143
3302.00,0.0144
3301.00,0.0145
3300.00,0.0146
3299.00,0.0146
3298.00,0.0146
3297.00,0.0145
3296.00,0.0145
3295.00,0.0145
3294.00,0.0145
3293.00,0.0146
3292.00,0.0146
3291.00,0.0147
3290.00,0.0148
3289.00,0.0148
3288.00,0.0148
3287.00,0.0148
3286.00,0.0148
3285.00,0.0148
3284.00,0.0148
3283.00,0.0148
3282.00,0.0147
3281.00,0.0147
3280.00,0.0146
3279.00,0.0145
3278.00,0.0145
3277.00,0.0144
3276.00,0.0143
3275.00,0.0142
3274.00,0.0141
3273.00,0.0140
3272.00,0.0139
3271.00,0.0139
3270.00,0.0139
3269.00,0.0139
3268.00,0.0139
3267.00,0.0139
3266.00,0.0138
3265.00,0.0138
3264.00,0.0137
3263.00,0.0137
3262.00,0.0136
3261.00,0.0135
3260.00,0.0135
3259.00,0.0134
3258.00,0.0133
3257.00,0.0132
3256.00,0.0132
3255.00,0.0132
3254.00,0.0132
3253.00,0.0131
3252.00,0.0131
3251.00,0.0130
3250.00,0.0130
3249.00,0.0129
3248.00,0.0129
3247.00,0.0128
3246.00,0.0128
3245.00,0.0129
3244.00,0.0129
3243.00,0.0130
3242.00,0.0130
3241.00,0.0131
3240.00,0.0132
3239.00,0.0132
3238.00,0.0133
3237.00,0.0133
3236.00,0.0133
3235.00,0.0133
3234.00,0.0133
3233.00,0.0134
3232.00,0.0134
3231.00,0.0135
3230.00,0.0136
3229.00,0.0137
3228.00,0.0137
3227.00,0.0138
3226.00,0.0138
3225.00,0.0138
3224.00,0.0138
3223.00,0.0138
3222.00,0.0138
3221.00,0.0138
3220.00,0.0138
3219.00,0.0138
3218.00,0.0138
3217.00,0.0138
3216.00,0.0138
3215.00,0.0138
3214.00,0.0137
3213.00,0.0137
3212.00,0.0136
3211.00,0.0135
3210.00,0.0135
3209.00,0.0134
3208.00,0.0134
3207.00,0.0133
3206.00,0.0133
3205.00,0.0132
3204.00,0.0132
3203.00,0.0131
3202.00,0.0130
3201.00,0.0130
3200.00,0.0129
3199.00,0.0128
3198.00,0.0128
3197.00,0.0127
3196.00,0.0126
3195.00,0.0125
3194.00,0.0124
3193.00,0.0123
3192.00,0.0123
3191.00,0.0122
3190.00,0.0121
3189.00,0.0120
3188.00,0.0119
3187.00,0.0119
3186.00,0.0118
3185.00,0.0117
3184.00,0.0116
3183.00,0.0115
3182.00,0.0114
3181.00,0.0114
3180.00,0.0113
3179.00,0.0112
3178.00,0.0111
3177.00,0.0110
3176.00,0.0109
3175.00,0.0109
3174.00,0.0108
3173.00,0.0107
3172.00,0.0106
3171.00,0.0105
3170.00,0.0104
3169.00,0.0104
3168.00,0.0103
3167.00,0.0102
3166.00,0.0102
3165.00,0.0101
3164.00,0.0100
3163.00,0.0100
3162.00,0.0099
3161.00,0.0098
3160.00,0.0098
3159.00,0.0097
3158.00,0.0097
3157.00,0.0096
3156.00,0.0095
3155.00,0.0095
3154.00,0.0094
3153.00,0.0094
3152.00,0.0094
3151.00,0.0093
3150.00,0.0093
3149.00,0.0092
3148.00,0.0092
3147.00,0.0091
3146.00,0.0091
3145.00,0.0090
3144.00,0.0090
3143.00,0.0089
3142.00,0.0089
3141.00,0.0089
3140.00,0.0089
3139.00,0.0088
3138.00,0.0088
3137.00,0.0088
3136.00,0.0089
3135.00,0.0089
3134.00,0.0088
3133.00,0.0088
3132.00,0.0088
3131.00,0.0088
3130.00,0.0088
3129.00,0.0088
3128.00,0.0088
3127.00,0.0089
3126.00,0.0089
3125.00,0.0089
3124.00,0.0090
3123.00,0.0090
3122.00,0.0091
3121.00,0.0092
3120.00,0.0093
3119.00,0.0094
3118.00,0.0095
3117.00,0.0096
3116.00,0.0097
3115.00,0.0098
3114.00,0.0099
3113.00,0.0100
3112.00,0.0102
3111.00,0.0103
3110.00,0.0104
3109.00,0.0106
3108.00,0.0107
3107.00,0.0108
3106.00,0.0109
3105.00,0.0110
3104.00,0.0112
3103.00,0.0113
3102.00,0.0114
3101.00,0.0115
3100.00,0.0116
3099.00,0.0117
3098.00,0.0117
3097.00,0.0118
3096.00,0.0118
3095.00,0.0118
3094.00,0.0119
3093.00,0.0119
3092.00,0.0119
3091.00,0.0119
3090.00,0.0119
3089.00,0.0119
3088.00,0.0118
3087.00,0.0118
3086.00,0.0118
3085.00,0.0118
3084.00,0.0117
3083.00,0.0117
3082.00,0.0117
3081.00,0.0116
3080.00,0.0116
3079.00,0.0115
3078.00,0.0115
3077.00,0.0115
3076.00,0.0115
3075.00,0.0114
3074.00,0.0114
3073.00,0.0114
3072.00,0.0113
3071.00,0.0113
3070.00,0.0112
3069.00,0.0112
3068.00,0.0111
3067.00,0.0111
3066.00,0.0110
3065.00,0.0109
3064.00,0.0109
3063.00,0.0108
3062.00,0.0108
3061.00,0.0107
3060.00,0.0106
3059.00,0.0105
3058.00,0.0104
3057.00,0.0103
3056.00,0.0102
3055.00,0.0101
3054.00,0.0100
3053.00,0.0099
3052.00,0.0098
3051.00,0.0098
3050.00,0.0097
3049.00,0.0097
3048.00,0.0097
3047.00,0.0096
3046.00,0.0096
3045.00,0.0095
3044.00,0.0094
3043.00,0.0094
3042.00,0.0094
3041.00,0.0094
3040.00,0.0094
3039.00,0.0094
3038.00,0.0094
3037.00,0.0094
3036.00,0.0094
3035.00,0.0095
3034.00,0.0095
3033.00,0.0095
3032.00,0.0096
3031.00,0.0096
3030.00,0.0097
3029.00,0.0097
3028.00,0.0098
3027.00,0.0098
3026.00,0.0098
3025.00,0.0099
3024.00,0.0099
3023.00,0.0099
3022.00,0.0100
3021.00,0.0101
3020.00,0.0101
3019.00,0.0102
3018.00,0.0103
3017.00,0.0104
3016.00,0.0105
3015.00,0.0106
3014.00,0.0108
3013.00,0.0110
3012.00,0.0111
3011.00,0.0114
3010.00,0.0116
3009.00,0.0119
3008.00,0.0122
3007.00,0.0124
3006.00,0.0127
3005.00,0.0130
3004.00,0.0134
3003.00,0.0137
3002.00,0.0140
3001.00,0.0144
3000.00,0.0147
2999.00,0.0150
2998.00,0.0153
2997.00,0.0157
2996.00,0.0160
2995.00,0.0164
2994.00,0.0167
2993.00,0.0171
2992.00,0.0174
2991.00,0.0177
2990.00,0.0180
2989.00,0.0183
2988.00,0.0186
2987.00,0.0189
2986.00,0.0192
2985.00,0.0195
2984.00,0.0198
2983.00,0.0200
2982.00,0.0203
2981.00,0.0204
2980.00,0.0205
2979.00,0.0205
2978.00,0.0204
2977.00,0.0204
2976.00,0.0204
2975.00,0.0204
2974.00,0.0204
2973.00,0.0205
2972.00,0.0206
2971.00,0.0206
2970.00,0.0207
2969.00,0.0207
2968.00,0.0207
2967.00,0.0207
2966.00,0.0208
2965.00,0.0210
2964.00,0.0211
2963.00,0.0213
2962.00,0.0216
2961.00,0.0219
2960.00,0.0221
2959.00,0.0224
2958.00,0.0227
2957.00,0.0231
2956.00,0.0234
2955.00,0.0237
2954.00,0.0239
2953.00,0.0242
2952.00,0.0245
2951.00,0.0246
2950.00,0.0247
2949.00,0.0248
2948.00,0.0247
2947.00,0.0245
2946.00,0.0242
2945.00,0.0238
2944.00,0.0234
2943.00,0.0229
2942.00,0.0225
2941.00,0.0220
2940.00,0.0215
2939.00,0.0210
2938.00,0.0205
2937.00,0.0201
2936.00,0.0197
2935.00,0.0193
2934.00,0.0190
2933.00,0.0186
2932.00,0.0183
2931.00,0.0181
2930.00,0.0178
2929.00,0.0176
2928.00,0.0174
2927.00,0.0173
2926.00,0.0171
2925.00,0.0170
2924.00,0.0169
2923.00,0.0168
2922.00,0.0168
2921.00,0.0167
2920.00,0.0167
2919.00,0.0167
2918.00,0.0167
2917.00,0.0168
2916.00,0.0168
2915.00,0.0169
2914.00,0.0169
2913.00,0.0170
2912.00,0.0170
2911.00,0.0170
2910.00,0.0170
2909.00,0.0170
2908.00,0.0169
2907.00,0.0169
2906.00,0.0168
2905.00,0.0168
2904.00,0.0168
2903.00,0.0168
2902.00,0.0168
2901.00,0.0169
2900.00,0.0169
2899.00,0.0170
2898.00,0.0171
2897.00,0.0172
2896.00,0.0173
2895.00,0.0174
2894.00,0.0175
2893.00,0.0176
2892.00,0.0177
2891.00,0.0178
2890.00,0.0179
2889.00,0.0180
2888.00,0.0181
2887.00,0.0182
2886.00,0.0182
2885.00,0.0183
2884.00,0.0183
2883.00,0.0183
2882.00,0.0183
2881.00,0.0182
2880.00,0.0182
2879.00,0.0181
2878.00,0.0180
2877.00,0.0179
2876.00,0.0178
2875.00,0.0176
2874.00,0.0174
2873.00,0.0173
2872.00,0.0172
2871.00,0.0170
2870.00,0.0169
2869.00,0.0167
2868.00,0.0165
2867.00,0.0163
2866.00,0.0161
2865.00,0.0159
2864.00,0.0156
2863.00,0.0154
2862.00,0.0151
2861.00,0.0147
2860.00,0.0144
2859.00,0.0140
2858.00,0.0137
2857.00,0.0133
2856.00,0.0130
2855.00,0.0127
2854.00,0.0124
2853.00,0.0121
2852.00,0.0120
2851.00,0.0118
2850.00,0.0118
2849.00,0.0118
2848.00,0.0119
2847.00,0.0121
2846.00,0.0123
2845.00,0.0124
2844.00,0.0126
2843.00,0.0127
2842.00,0.0127
2841.00,0.0127
2840.00,0.0127
2839.00,0.0127
2838.00,0.0126
2837.00,0.0126
2836.00,0.0126
2835.00,0.0125
2834.00,0.0124
2833.00,0.0123
2832.00,0.0121
2831.00,0.0120
2830.00,0.0118
2829.00,0.0117
2828.00,0.0116
2827.00,0.0114
2826.00,0.0113
2825.00,0.0112
2824.00,0.0111
2823.00,0.0110
2822.00,0.0109
2821.00,0.0108
2820.00,0.0107
2819.00,0.0107
2818.00,0.0106
2817.00,0.0105
2816.00,0.0104
2815.00,0.0103
2814.00,0.0102
2813.00,0.0101
2812.00,0.0100
2811.00,0.0099
2810.00,0.0098
2809.00,0.0098
2808.00,0.0097
2807.00,0.0096
2806.00,0.0096
2805.00,0.0095
2804.00,0.0095
2803.00,0.0094
2802.00,0.0093
2801.00,0.0093
2800.00,0.0092
2799.00,0.0092
2798.00,0.0091
2797.00,0.0091
2796.00,0.0090
2795.00,0.0090
2794.00,0.0089
2793.00,0.0089
2792.00,0.0088
2791.00,0.0088
2790.00,0.0088
2789.00,0.0087
2788.00,0.0087
2787.00,0.0087
2786.00,0.0086
2785.00,0.0086
2784.00,0.0085
2783.00,0.0085
2782.00,0.0085
2781.00,0.0084
2780.00,0.0084
2779.00,0.0083
2778.00,0.0083
2777.00,0.0083
2776.00,0.0083
2775.00,0.0082
2774.00,0.0082
2773.00,0.0082
2772.00,0.0082
2771.00,0.0082
2770.00,0.0081
2769.00,0.0081
2768.00,0.0081
2767.00,0.0081
2766.00,0.0081
2765.00,0.0080
2764.00,0.0080
2763.00,0.0080
2762.00,0.0080
2761.00,0.0079
2760.00,0.0079
2759.00,0.0079
2758.00,0.0079
2757.00,0.0079
2756.00,0.0079
2755.00,0.0079
2754.00,0.0079
2753.00,0.0079
2752.00,0.0079
2751.00,0.0079
2750.00,0.0079
2749.00,0.0078
2748.00,0.0078
2747.00,0.0078
2746.00,0.0078
2745.00,0.0078
2744.00,0.0078
2743.00,0.0078
2742.00,0.0078
2741.00,0.0078
2740.00,0.0078
2739.00,0.0078
2738.00,0.0077
2737.00,0.0077
2736.00,0.0077
2735.00,0.0078
2734.00,0.0078
2733.00,0.0078
2732.00,0.0078
2731.00,0.0078
2730.00,0.0078
2729.00,0.0077
2728.00,0.0077
2727.00,0.0077
2726.00,0.0077
2725.00,0.0077
2724.00,0.0077
2723.00,0.0077
2722.00,0.0077
2721.00,0.0077
2720.00,0.0077
2719.00,0.0077
2718.00,0.0077
2717.00,0.0077
2716.00,0.0078
2715.00,0.0078
2714.00,0.0078
2713.00,0.0077
2712.00,0.0077
2711.00,0.0077
2710.00,0.0077
2709.00,0.0077
2708.00,0.0077
2707.00,0.0077
2706.00,0.0077
2705.00,0.0077
2704.00,0.0076
2703.00,0.0076
2702.00,0.0076
2701.00,0.0076
2700.00,0.0076
2699.00,0.0076
2698.00,0.0076
2697.00,0.0076
2696.00,0.0075
2695.00,0.0075
2694.00,0.0075
2693.00,0.0075
2692.00,0.0075
2691.00,0.0075
2690.00,0.0075
2689.00,0.0075
2688.00,0.0075
2687.00,0.0075
2686.00,0.0075
2685.00,0.0075
2684.00,0.0075
2683.00,0.0075
2682.00,0.0075
2681.00,0.0075
2680.00,0.0074
2679.00,0.0074
2678.00,0.0074
2677.00,0.0074
2676.00,0.0074
2675.00,0.0074
2674.00,0.0074
2673.00,0.0074
2672.00,0.0074
2671.00,0.0074
2670.00,0.0074
2669.00,0.0074
2668.00,0.0075
2667.00,0.0075
2666.00,0.0075
2665.00,0.0076
2664.00,0.0076
2663.00,0.0077
2662.00,0.0077
2661.00,0.0078
2660.00,0.0078
2659.00,0.0078
2658.00,0.0078
2657.00,0.0078
2656.00,0.0079
2655.00,0.0079
2654.00,0.0079
2653.00,0.0079
2652.00,0.0079
2651.00,0.0079
2650.00,0.0079
2649.00,0.0079
2648.00,0.0079
2647.00,0.0079
2646.00,0.0079
2645.00,0.0079
2644.00,0.0079
2643.00,0.0079
2642.00,0.0079
2641.00,0.0079
2640.00,0.0079
2639.00,0.0078
2638.00,0.0078
2637.00,0.0078
2636.00,0.0079
2635.00,0.0079
2634.00,0.0079
2633.00,0.0079
2632.00,0.0078
2631.00,0.0078
2630.00,0.0078
2629.00,0.0078
2628.00,0.0078
2627.00,0.0078
2626.00,0.0078
2625.00,0.0078
2624.00,0.0078
2623.00,0.0078
2622.00,0.0078
2621.00,0.0078
2620.00,0.0078
2619.00,0.0078
2618.00,0.0078
2617.00,0.0078
2616.00,0.0078
2615.00,0.0078
2614.00,0.0077
2613.00,0.0077
2612.00,0.0077
2611.00,0.0077
2610.00,0.0076
2609.00,0.0076
2608.00,0.0076
2607.00,0.0076
2606.00,0.0076
2605.00,0.0076
2604.00,0.0077
2603.00,0.0077
2602.00,0.0077
2601.00,0.0076
2600.00,0.0076
2599.00,0.0076
2598.00,0.0076
2597.00,0.0076
2596.00,0.0075
2595.00,0.0075
2594.00,0.0075
2593.00,0.0075
2592.00,0.0075
2591.00,0.0075
2590.00,0.0075
2589.00,0.0075
2588.00,0.0075
2587.00,0.0075
2586.00,0.0075
2585.00,0.0076
2584.00,0.0075
2583.00,0.0075
2582.00,0.0075
2581.00,0.0075
2580.00,0.0075
2579.00,0.0075
2578.00,0.0075
2577.00,0.0075
2576.00,0.0075
2575.00,0.0075
2574.00,0.0075
2573.00,0.0075
2572.00,0.0075
2571.00,0.0075
2570.00,0.0075
2569.00,0.0075
2568.00,0.0074
2567.00,0.0074
2566.00,0.0074
2565.00,0.0074
2564.00,0.0074
2563.00,0.0074
2562.00,0.0074
2561.00,0.0074
2560.00,0.0074
2559.00,0.0074
2558.00,0.0074
2557.00,0.0074
2556.00,0.0074
2555.00,0.0074
2554.00,0.0074
2553.00,0.0074
2552.00,0.0074
2551.00,0.0074
2550.00,0.0073
2549.00,0.0073
2548.00,0.0073
2547.00,0.0073
2546.00,0.0073
2545.00,0.0073
2544.00,0.0073
2543.00,0.0072
2542.00,0.0072
2541.00,0.0072
2540.00,0.0072
2539.00,0.0073
2538.00,0.0073
2537.00,0.0073
2536.00,0.0073
2535.00,0.0072
2534.00,0.0072
2533.00,0.0072
2532.00,0.0072
2531.00,0.0072
2530.00,0.0072
2529.00,0.0072
2528.00,0.0072
2527.00,0.0072
2526.00,0.0072
2525.00,0.0072
2524.00,0.0072
2523.00,0.0071
2522.00,0.0071
2521.00,0.0071
2520.00,0.0071
2519.00,0.0071
2518.00,0.0071
2517.00,0.0071
2516.00,0.0072
2515.00,0.0072
2514.00,0.0071
2513.00,0.0071
2512.00,0.0071
2511.00,0.0071
2510.00,0.0071
2509.00,0.0071
2508.00,0.0071
2507.00,0.0071
2506.00,0.0071
2505.00,0.0071
2504.00,0.0071
2503.00,0.0071
2502.00,0.0071
2501.00,0.0071
2500.00,0.0071
2499.00,0.0071
2498.00,0.0071
2497.00,0.0071
2496.00,0.0071
2495.00,0.0071
2494.00,0.0071
2493.00,0.0072
2492.00,0.0072
2491.00,0.0071
2490.00,0.0071
2489.00,0.0071
2488.00,0.0070
2487.00,0.0070
2486.00,0.0071
2485.00,0.0071
2484.00,0.0071
2483.00,0.0071
2482.00,0.0070
2481.00,0.0070
2480.00,0.0070
2479.00,0.0070
2478.00,0.0070
2477.00,0.0070
2476.00,0.0070
2475.00,0.0071
2474.00,0.0070
2473.00,0.0070
2472.00,0.0070
2471.00,0.0070
2470.00,0.0070
2469.00,0.0070
2468.00,0.0070
2467.00,0.0070
2466.00,0.0070
2465.00,0.0070
2464.00,0.0070
2463.00,0.0071
2462.00,0.0071
2461.00,0.0071
2460.00,0.0071
2459.00,0.0071
2458.00,0.0071
2457.00,0.0071
2456.00,0.0071
2455.00,0.0071
2454.00,0.0071
2453.00,0.0072
2452.00,0.0072
2451.00,0.0072
2450.00,0.0072
2449.00,0.0072
2448.00,0.0072
2447.00,0.0071
2446.00,0.0071
2445.00,0.0071
2444.00,0.0071
2443.00,0.0071
2442.00,0.0071
2441.00,0.0071
2440.00,0.0071
2439.00,0.0071
2438.00,0.0071
2437.00,0.0071
2436.00,0.0071
2435.00,0.0071
2434.00,0.0071
2433.00,0.0071
2432.00,0.0071
2431.00,0.0071
2430.00,0.0071
2429.00,0.0071
2428.00,0.0071
2427.00,0.0071
2426.00,0.0071
2425.00,0.0071
2424.00,0.0071
2423.00,0.0071
2422.00,0.0071
2421.00,0.0070
2420.00,0.0070
2419.00,0.0070
2418.00,0.0070
2417.00,0.0070
2416.00,0.0070
2415.00,0.0070
2414.00,0.0070
2413.00,0.0070
2412.00,0.0070
2411.00,0.0070
2410.00,0.0070
2409.00,0.0069
2408.00,0.0069
2407.00,0.0068
2406.00,0.0068
2405.00,0.0068
2404.00,0.0069
2403.00,0.0069
2402.00,0.0069
2401.00,0.0069
2400.00,0.0069
2399.00,0.0069
2398.00,0.0069
2397.00,0.0069
2396.00,0.0069
2395.00,0.0069
2394.00,0.0069
2393.00,0.0069
2392.00,0.0069
2391.00,0.0069
2390.00,0.0069
2389.00,0.0069
2388.00,0.0069
2387.00,0.0069
2386.00,0.0068
2385.00,0.0067
2384.00,0.0067
2383.00,0.0066
2382.00,0.0065
2381.00,0.0065
2380.00,0.0065
2379.00,0.0064
2378.00,0.0065
2377.00,0.0065
2376.00,0.0065
2375.00,0.0065
2374.00,0.0066
2373.00,0.0065
2372.00,0.0065
2371.00,0.0064
2370.00,0.0063
2369.00,0.0063
2368.00,0.0063
2367.00,0.0063
2366.00,0.0063
2365.00,0.0063
2364.00,0.0064
2363.00,0.0064
2362.00,0.0064
2361.00,0.0065
2360.00,0.0065
2359.00,0.0065
2358.00,0.0065
2357.00,0.0066
2356.00,0.0066
2355.00,0.0067
2354.00,0.0067
2353.00,0.0067
2352.00,0.0067
2351.00,0.0066
2350.00,0.0066
2349.00,0.0066
2348.00,0.0067
2347.00,0.0068
2346.00,0.0068
2345.00,0.0068
2344.00,0.0068
2343.00,0.0068
2342.00,0.0068
2341.00,0.0068
2340.00,0.0069
2339.00,0.0070
2338.00,0.0071
2337.00,0.0071
2336.00,0.0071
2335.00,0.0071
2334.00,0.0071
2333.00,0.0071
2332.00,0.0071
2331.00,0.0071
2330.00,0.0071
2329.00,0.0073
2328.00,0.0076
2327.00,0.0080
2326.00,0.0082
2325.00,0.0083
2324.00,0.0083
2323.00,0.0081
2322.00,0.0079
2321.00,0.0077
2320.00,0.0076
2319.00,0.0075
2318.00,0.0075
2317.00,0.0075
2316.00,0.0075
2315.00,0.0075
2314.00,0.0074
2313.00,0.0074
2312.00,0.0073
2311.00,0.0072
2310.00,0.0072
2309.00,0.0072
2308.00,0.0072
2307.00,0.0072
2306.00,0.0072
2305.00,0.0072
2304.00,0.0072
2303.00,0.0072
2302.00,0.0072
2301.00,0.0072
2300.00,0.0073
2299.00,0.0073
2298.00,0.0073
2297.00,0.0074
2296.00,0.0075
2295.00,0.0076
2294.00,0.0077
2293.00,0.0078
2292.00,0.0079
2291.00,0.0080
2290.00,0.0080
2289.00,0.0081
2288.00,0.0082
2287.00,0.0082
2286.00,0.0082
2285.00,0.0082
2284.00,0.0081
2283.00,0.0080
2282.00,0.0079
2281.00,0.0077
2280.00,0.0077
2279.00,0.0076
2278.00,0.0076
2277.00,0.0076
2276.00,0.0076
2275.00,0.0076
2274.00,0.0076
2273.00,0.0076
2272.00,0.0075
2271.00,0.0075
2270.00,0.0074
2269.00,0.0074
2268.00,0.0074
2267.00,0.0074
2266.00,0.0074
2265.00,0.0074
2264.00,0.0073
2263.00,0.0073
2262.00,0.0073
2261.00,0.0073
2260.00,0.0073
2259.00,0.0073
2258.00,0.0072
2257.00,0.0071
2256.00,0.0071
2255.00,0.0071
2254.00,0.0071
2253.00,0.0071
2252.00,0.0072
2251.00,0.0072
2250.00,0.0072
2249.00,0.0073
2248.00,0.0072
2247.00,0.0072
2246.00,0.0071
2245.00,0.0071
2244.00,0.0071
2243.00,0.0071
2242.00,0.0070
2241.00,0.0070
2240.00,0.0070
2239.00,0.0071
2238.00,0.0071
2237.00,0.0070
2236.00,0.0070
2235.00,0.0070
2234.00,0.0070
2233.00,0.0070
2232.00,0.0070
2231.00,0.0070
2230.00,0.0070
2229.00,0.0070
2228.00,0.0070
2227.00,0.0070
2226.00,0.0070
2225.00,0.0069
2224.00,0.0069
2223.00,0.0069
2222.00,0.0069
2221.00,0.0069
2220.00,0.0068
2219.00,0.0068
2218.00,0.0067
2217.00,0.0067
2216.00,0.0067
2215.00,0.0067
2214.00,0.0067
2213.00,0.0067
2212.00,0.0068
2211.00,0.0069
2210.00,0.0069
2209.00,0.0069
2208.00,0.0068
2207.00,0.0068
2206.00,0.0068
2205.00,0.0068
2204.00,0.0068
2203.00,0.0068
2202.00,0.0067
2201.00,0.0067
2200.00,0.0067
2199.00,0.0067
2198.00,0.0066
2197.00,0.0067
2196.00,0.0067
2195.00,0.0067
2194.00,0.0067
2193.00,0.0067
2192.00,0.0066
2191.00,0.0066
2190.00,0.0065
2189.00,0.0065
2188.00,0.0066
2187.00,0.0066
2186.00,0.0066
2185.00,0.0065
2184.00,0.0064
2183.00,0.0062
2182.00,0.0061
2181.00,0.0061
2180.00,0.0063
2179.00,0.0064
2178.00,0.0064
2177.00,0.0062
2176.00,0.0060
2175.00,0.0060
2174.00,0.0060
2173.00,0.0063
2172.00,0.0067
2171.00,0.0071
2170.00,0.0073
2169.00,0.0075
2168.00,0.0077
2167.00,0.0077
2166.00,0.0078
2165.00,0.0079
2164.00,0.0081
2163.00,0.0081
2162.00,0.0075
2161.00,0.0062
2160.00,0.0047
2159.00,0.0036
2158.00,0.0031
2157.00,0.0033
2156.00,0.0038
2155.00,0.0042
2154.00,0.0045
2153.00,0.0048
2152.00,0.0050
2151.00,0.0050
2150.00,0.0049
2149.00,0.0049
2148.00,0.0049
2147.00,0.0049
2146.00,0.0050
2145.00,0.0050
2144.00,0.0051
2143.00,0.0052
2142.00,0.0052
2141.00,0.0053
2140.00,0.0054
2139.00,0.0054
2138.00,0.0052
2137.00,0.0049
2136.00,0.0047
2135.00,0.0046
2134.00,0.0047
2133.00,0.0048
2132.00,0.0051
2131.00,0.0053
2130.00,0.0055
2129.00,0.0056
2128.00,0.0057
2127.00,0.0057
2126.00,0.0058
2125.00,0.0058
2124.00,0.0059
2123.00,0.0060
2122.00,0.0061
2121.00,0.0062
2120.00,0.0063
2119.00,0.0064
2118.00,0.0065
2117.00,0.0066
2116.00,0.0066
2115.00,0.0067
2114.00,0.0068
2113.00,0.0068
2112.00,0.0068
2111.00,0.0068
2110.00,0.0067
2109.00,0.0067
2108.00,0.0067
2107.00,0.0066
2106.00,0.0066
2105.00,0.0067
2104.00,0.0067
2103.00,0.0068
2102.00,0.0068
2101.00,0.0068
2100.00,0.0068
2099.00,0.0067
2098.00,0.0065
2097.00,0.0063
2096.00,0.0061
2095.00,0.0059
2094.00,0.0059
2093.00,0.0060
2092.00,0.0062
2091.00,0.0063
2090.00,0.0065
2089.00,0.0066
2088.00,0.0067
2087.00,0.0068
2086.00,0.0068
2085.00,0.0069
2084.00,0.0069
2083.00,0.0070
2082.00,0.0069
2081.00,0.0069
2080.00,0.0068
2079.00,0.0067
2078.00,0.0067
2077.00,0.0067
2076.00,0.0067
2075.00,0.0067
2074.00,0.0067
2073.00,0.0066
2072.00,0.0065
2071.00,0.0065
2070.00,0.0064
2069.00,0.0065
2068.00,0.0066
2067.00,0.0067
2066.00,0.0068
2065.00,0.0068
2064.00,0.0067
2063.00,0.0065
2062.00,0.0063
2061.00,0.0063
2060.00,0.0063
2059.00,0.0063
2058.00,0.0063
2057.00,0.0063
2056.00,0.0064
2055.00,0.0066
2054.00,0.0069
2053.00,0.0073
2052.00,0.0076
2051.00,0.0075
2050.00,0.0070
2049.00,0.0065
2048.00,0.0062
2047.00,0.0061
2046.00,0.0060
2045.00,0.0060
2044.00,0.0061
2043.00,0.0060
2042.00,0.0060
2041.00,0.0060
2040.00,0.0061
2039.00,0.0061
2038.00,0.0060
2037.00,0.0058
2036.00,0.0057
2035.00,0.0054
2034.00,0.0051
2033.00,0.0050
2032.00,0.0051
2031.00,0.0052
2030.00,0.0053
2029.00,0.0053
2028.00,0.0053
2027.00,0.0052
2026.00,0.0052
2025.00,0.0053
2024.00,0.0054
2023.00,0.0054
2022.00,0.0053
2021.00,0.0053
2020.00,0.0053
2019.00,0.0052
2018.00,0.0052
2017.00,0.0053
2016.00,0.0054
2015.00,0.0055
2014.00,0.0056
2013.00,0.0057
2012.00,0.0058
2011.00,0.0057
2010.00,0.0055
2009.00,0.0052
2008.00,0.0049
2007.00,0.0047
2006.00,0.0045
2005.00,0.0046
2004.00,0.0048
2003.00,0.0050
2002.00,0.0051
2001.00,0.0053
2000.00,0.0055
1999.00,0.0057
1998.00,0.0057
1997.00,0.0058
1996.00,0.0058
1995.00,0.0058
1994.00,0.0059
1993.00,0.0060
1992.00,0.0061
1991.00,0.0061
1990.00,0.0061
1989.00,0.0061
1988.00,0.0062
1987.00,0.0063
1986.00,0.0063
1985.00,0.0065
1984.00,0.0068
1983.00,0.0071
1982.00,0.0073
1981.00,0.0074
1980.00,0.0071
1979.00,0.0064
1978.00,0.0055
1977.00,0.0049
1976.00,0.0048
1975.00,0.0048
1974.00,0.0048
1973.00,0.0049
1972.00,0.0050
1971.00,0.0051
1970.00,0.0051
1969.00,0.0051
1968.00,0.0051
1967.00,0.0051
1966.00,0.0050
1965.00,0.0049
1964.00,0.0049
1963.00,0.0049
1962.00,0.0048
1961.00,0.0048
1960.00,0.0048
1959.00,0.0048
1958.00,0.0048
1957.00,0.0049
1956.00,0.0050
1955.00,0.0050
1954.00,0.0050
1953.00,0.0051
1952.00,0.0053
1951.00,0.0054
1950.00,0.0054
1949.00,0.0055
1948.00,0.0056
1947.00,0.0056
1946.00,0.0055
1945.00,0.0055
1944.00,0.0056
1943.00,0.0056
1942.00,0.0055
1941.00,0.0054
1940.00,0.0054
1939.00,0.0053
1938.00,0.0053
1937.00,0.0053
1936.00,0.0054
1935.00,0.0054
1934.00,0.0053
1933.00,0.0053
1932.00,0.0053
1931.00,0.0053
1930.00,0.0052
1929.00,0.0053
1928.00,0.0053
1927.00,0.0054
1926.00,0.0054
1925.00,0.0055
1924.00,0.0055
1923.00,0.0056
1922.00,0.0056
1921.00,0.0056
1920.00,0.0057
1919.00,0.0058
1918.00,0.0058
1917.00,0.0058
1916.00,0.0058
1915.00,0.0057
1914.00,0.0057
1913.00,0.0057
1912.00,0.0058
1911.00,0.0058
1910.00,0.0058
1909.00,0.0057
1908.00,0.0058
1907.00,0.0057
1906.00,0.0057
1905.00,0.0057
1904.00,0.0058
1903.00,0.0058
1902.00,0.0058
1901.00,0.0058
1900.00,0.0058
1899.00,0.0058
1898.00,0.0057
1897.00,0.0057
1896.00,0.0058
1895.00,0.0058
1894.00,0.0057
1893.00,0.0057
1892.00,0.0058
1891.00,0.0058
1890.00,0.0058
1889.00,0.0057
1888.00,0.0057
1887.00,0.0057
1886.00,0.0056
1885.00,0.0056
1884.00,0.0056
1883.00,0.0056
1882.00,0.0056
1881.00,0.0056
1880.00,0.0056
1879.00,0.0056
1878.00,0.0055
1877.00,0.0055
1876.00,0.0056
1875.00,0.0056
1874.00,0.0056
1873.00,0.0057
1872.00,0.0058
1871.00,0.0059
1870.00,0.0059
1869.00,0.0059
1868.00,0.0058
1867.00,0.0057
1866.00,0.0056
1865.00,0.0056
1864.00,0.0056
1863.00,0.0056
1862.00,0.0056
1861.00,0.0056
1860.00,0.0056
1859.00,0.0055
1858.00,0.0055
1857.00,0.0055
1856.00,0.0055
1855.00,0.0056
1854.00,0.0055
1853.00,0.0055
1852.00,0.0055
1851.00,0.0056
1850.00,0.0056
1849.00,0.0057
1848.00,0.0058
1847.00,0.0059
1846.00,0.0059
1845.00,0.0058
1844.00,0.0057
1843.00,0.0055
1842.00,0.0055
1841.00,0.0055
1840.00,0.0056
1839.00,0.0056
1838.00,0.0056
1837.00,0.0055
1836.00,0.0055
1835.00,0.0055
1834.00,0.0056
1833.00,0.0057
1832.00,0.0058
1831.00,0.0058
1830.00,0.0057
1829.00,0.0057
1828.00,0.0057
1827.00,0.0057
1826.00,0.0057
1825.00,0.0057
1824.00,0.0056
1823.00,0.0056
1822.00,0.0055
1821.00,0.0054
1820.00,0.0054
1819.00,0.0053
1818.00,0.0052
1817.00,0.0051
1816.00,0.0051
1815.00,0.0052
1814.00,0.0053
1813.00,0.0054
1812.00,0.0055
1811.00,0.0055
1810.00,0.0054
1809.00,0.0054
1808.00,0.0054
1807.00,0.0053
1806.00,0.0053
1805.00,0.0054
1804.00,0.0055
1803.00,0.0057
1802.00,0.0057
1801.00,0.0057
1800.00,0.0056
1799.00,0.0055
1798.00,0.0054
1797.00,0.0055
1796.00,0.0056
1795.00,0.0057
1794.00,0.0057
1793.00,0.0057
1792.00,0.0056
1791.00,0.0054
1790.00,0.0053
1789.00,0.0053
1788.00,0.0054
1787.00,0.0055
1786.00,0.0055
1785.00,0.0054
1784.00,0.0055
1783.00,0.0055
1782.00,0.0055
1781.00,0.0055
1780.00,0.0055
1779.00,0.0054
1778.00,0.0054
1777.00,0.0055
1776.00,0.0056
1775.00,0.0057
1774.00,0.0057
1773.00,0.0057
1772.00,0.0056
1771.00,0.0056
1770.00,0.0056
1769.00,0.0056
1768.00,0.0055
1767.00,0.0054
1766.00,0.0054
1765.00,0.0055
1764.00,0.0056
1763.00,0.0056
1762.00,0.0055
1761.00,0.0054
1760.00,0.0053
1759.00,0.0054
1758.00,0.0053
1757.00,0.0052
1756.00,0.0050
1755.00,0.0049
1754.00,0.0049
1753.00,0.0049
1752.00,0.0049
1751.00,0.0048
1750.00,0.0047
1749.00,0.0045
1748.00,0.0044
1747.00,0.0042
1746.00,0.0041
1745.00,0.0040
1744.00,0.0039
1743.00,0.0038
1742.00,0.0037
1741.00,0.0036
1740.00,0.0036
1739.00,0.0036
1738.00,0.0037
1737.00,0.0039
1736.00,0.0042
1735.00,0.0043
1734.00,0.0044
1733.00,0.0046
1732.00,0.0051
1731.00,0.0055
1730.00,0.0057
1729.00,0.0059
1728.00,0.0062
1727.00,0.0066
1726.00,0.0070
1725.00,0.0075
1724.00,0.0081
1723.00,0.0087
1722.00,0.0093
1721.00,0.0101
1720.00,0.0111
1719.00,0.0122
1718.00,0.0134
1717.00,0.0149
1716.00,0.0168
1715.00,0.0187
1714.00,0.0206
1713.00,0.0228
1712.00,0.0253
1711.00,0.0279
1710.00,0.0307
1709.00,0.0337
1708.00,0.0369
1707.00,0.0402
1706.00,0.0437
1705.00,0.0472
1704.00,0.0502
1703.00,0.0527
1702.00,0.0551
1701.00,0.0585
1700.00,0.0624
1699.00,0.0656
1698.00,0.0677
1697.00,0.0697
1696.00,0.0724
1695.00,0.0756
1694.00,0.0784
1693.00,0.0807
1692.00,0.0831
1691.00,0.0858
1690.00,0.0890
1689.00,0.0921
1688.00,0.0948
1687.00,0.0971
1686.00,0.0997
1685.00,0.1038
1684.00,0.1090
1683.00,0.1136
1682.00,0.1164
1681.00,0.1182
1680.00,0.1198
1679.00,0.1214
1678.00,0.1225
1677.00,0.1236
1676.00,0.1251
1675.00,0.1268
1674.00,0.1281
1673.00,0.1284
1672.00,0.1283
1671.00,0.1282
1670.00,0.1286
1669.00,0.1292
1668.00,0.1296
1667.00,0.1294
1666.00,0.1289
1665.00,0.1283
1664.00,0.1282
1663.00,0.1287
1662.00,0.1293
1661.00,0.1297
1660.00,0.1296
1659.00,0.1293
1658.00,0.1288
1657.00,0.1279
1656.00,0.1265
1655.00,0.1253
1654.00,0.1250
1653.00,0.1262
1652.00,0.1272
1651.00,0.1268
1650.00,0.1250
1649.00,0.1228
1648.00,0.1207
1647.00,0.1190
1646.00,0.1174
1645.00,0.1153
1644.00,0.1126
1643.00,0.1094
1642.00,0.1059
1641.00,0.1022
1640.00,0.0985
1639.00,0.0949
1638.00,0.0911
1637.00,0.0875
1636.00,0.0841
1635.00,0.0812
1634.00,0.0787
1633.00,0.0762
1632.00,0.0738
1631.00,0.0716
1630.00,0.0697
1629.00,0.0679
1628.00,0.0664
1627.00,0.0649
1626.00,0.0635
1625.00,0.0620
1624.00,0.0605
1623.00,0.0591
1622.00,0.0577
1621.00,0.0561
1620.00,0.0544
1619.00,0.0525
1618.00,0.0507
1617.00,0.0489
1616.00,0.0474
1615.00,0.0460
1614.00,0.0446
1613.00,0.0431
1612.00,0.0415
1611.00,0.0401
1610.00,0.0390
1609.00,0.0380
1608.00,0.0372
1607.00,0.0367
1606.00,0.0362
1605.00,0.0357
1604.00,0.0350
1603.00,0.0341
1602.00,0.0330
1601.00,0.0317
1600.00,0.0304
1599.00,0.0291
1598.00,0.0280
1597.00,0.0269
1596.00,0.0260
1595.00,0.0251
1594.00,0.0244
1593.00,0.0237
1592.00,0.0230
1591.00,0.0224
1590.00,0.0219
1589.00,0.0214
1588.00,0.0209
1587.00,0.0205
1586.00,0.0202
1585.00,0.0199
1584.00,0.0197
1583.00,0.0196
1582.00,0.0196
1581.00,0.0198
1580.00,0.0199
1579.00,0.0199
1578.00,0.0198
1577.00,0.0196
1576.00,0.0192
1575.00,0.0189
1574.00,0.0187
1573.00,0.0183
1572.00,0.0179
1571.00,0.0175
1570.00,0.0171
1569.00,0.0166
1568.00,0.0162
1567.00,0.0160
1566.00,0.0157
1565.00,0.0155
1564.00,0.0153
1563.00,0.0151
1562.00,0.0149
1561.00,0.0150
1560.00,0.0150
1559.00,0.0148
1558.00,0.0146
1557.00,0.0146
1556.00,0.0145
1555.00,0.0144
1554.00,0.0144
1553.00,0.0145
1552.00,0.0147
1551.00,0.0149
1550.00,0.0151
1549.00,0.0155
1548.00,0.0159
1547.00,0.0166
1546.00,0.0177
1545.00,0.0190
1544.00,0.0205
1543.00,0.0222
1542.00,0.0244
1541.00,0.0274
1540.00,0.0314
1539.00,0.0362
1538.00,0.0409
1537.00,0.0451
1536.00,0.0491
1535.00,0.0536
1534.00,0.0590
1533.00,0.0643
1532.00,0.0684
1531.00,0.0711
1530.00,0.0725
1529.00,0.0727
1528.00,0.0717
1527.00,0.0694
1526.00,0.0660
1525.00,0.0619
1524.00,0.0575
1523.00,0.0531
1522.00,0.0488
1521.00,0.0449
1520.00,0.0420
1519.00,0.0403
1518.00,0.0392
1517.00,0.0384
1516.00,0.0382
1515.00,0.0384
1514.00,0.0390
1513.00,0.0400
1512.00,0.0415
1511.00,0.0432
1510.00,0.0449
1509.00,0.0465
1508.00,0.0485
1507.00,0.0509
1506.00,0.0536
1505.00,0.0559
1504.00,0.0577
1503.00,0.0590
1502.00,0.0602
1501.00,0.0614
1500.00,0.0627
1499.00,0.0638
1498.00,0.0647
1497.00,0.0656
1496.00,0.0664
1495.00,0.0668
1494.00,0.0668
1493.00,0.0665
1492.00,0.0659
1491.00,0.0649
1490.00,0.0635
1489.00,0.0616
1488.00,0.0592
1487.00,0.0565
1486.00,0.0539
1485.00,0.0513
1484.00,0.0488
1483.00,0.0465
1482.00,0.0443
1481.00,0.0425
1480.00,0.0409
1479.00,0.0396
1478.00,0.0386
1477.00,0.0378
1476.00,0.0372
1475.00,0.0367
1474.00,0.0364
1473.00,0.0365
1472.00,0.0369
1471.00,0.0377
1470.00,0.0387
1469.00,0.0401
1468.00,0.0419
1467.00,0.0441
1466.00,0.0469
1465.00,0.0502
1464.00,0.0533
1463.00,0.0558
1462.00,0.0576
1461.00,0.0587
1460.00,0.0591
1459.00,0.0587
1458.00,0.0576
1457.00,0.0558
1456.00,0.0538
1455.00,0.0519
1454.00,0.0502
1453.00,0.0489
1452.00,0.0479
1451.00,0.0475
1450.00,0.0476
1449.00,0.0484
1448.00,0.0497
1447.00,0.0514
1446.00,0.0533
1445.00,0.0555
1444.00,0.0579
1443.00,0.0604
1442.00,0.0632
1441.00,0.0659
1440.00,0.0686
1439.00,0.0712
1438.00,0.0743
1437.00,0.0780
1436.00,0.0817
1435.00,0.0847
1434.00,0.0867
1433.00,0.0881
1432.00,0.0893
1431.00,0.0901
1430.00,0.0908
1429.00,0.0914
1428.00,0.0921
1427.00,0.0929
1426.00,0.0941
1425.00,0.0956
1424.00,0.0971
1423.00,0.0981
1422.00,0.0982
1421.00,0.0974
1420.00,0.0956
1419.00,0.0925
1418.00,0.0884
1417.00,0.0835
1416.00,0.0782
1415.00,0.0726
1414.00,0.0672
1413.00,0.0621
1412.00,0.0574
1411.00,0.0531
1410.00,0.0493
1409.00,0.0460
1408.00,0.0431
1407.00,0.0406
1406.00,0.0384
1405.00,0.0365
1404.00,0.0347
1403.00,0.0332
1402.00,0.0321
1401.00,0.0312
1400.00,0.0304
1399.00,0.0297
1398.00,0.0292
1397.00,0.0289
1396.00,0.0286
1395.00,0.0285
1394.00,0.0287
1393.00,0.0290
1392.00,0.0295
1391.00,0.0302
1390.00,0.0313
1389.00,0.0326
1388.00,0.0342
1387.00,0.0359
1386.00,0.0377
1385.00,0.0392
1384.00,0.0405
1383.00,0.0415
1382.00,0.0422
1381.00,0.0424
1380.00,0.0422
1379.00,0.0417
1378.00,0.0411
1377.00,0.0406
1376.00,0.0401
1375.00,0.0398
1374.00,0.0395
1373.00,0.0394
1372.00,0.0393
1371.00,0.0394
1370.00,0.0397
1369.00,0.0401
1368.00,0.0407
1367.00,0.0414
1366.00,0.0423
1365.00,0.0433
1364.00,0.0446
1363.00,0.0460
1362.00,0.0473
1361.00,0.0486
1360.00,0.0498
1359.00,0.0509
1358.00,0.0518
1357.00,0.0526
1356.00,0.0531
1355.00,0.0534
1354.00,0.0533
1353.00,0.0528
1352.00,0.0520
1351.00,0.0510
1350.00,0.0496
1349.00,0.0480
1348.00,0.0462
1347.00,0.0444
1346.00,0.0426
1345.00,0.0409
1344.00,0.0394
1343.00,0.0383
1342.00,0.0375
1341.00,0.0368
1340.00,0.0364
1339.00,0.0360
1338.00,0.0356
1337.00,0.0353
1336.00,0.0350
1335.00,0.0349
1334.00,0.0348
1333.00,0.0349
1332.00,0.0351
1331.00,0.0354
1330.00,0.0359
1329.00,0.0365
1328.00,0.0371
1327.00,0.0379
1326.00,0.0388
1325.00,0.0397
1324.00,0.0408
1323.00,0.0419
1322.00,0.0431
1321.00,0.0444
1320.00,0.0458
1319.00,0.0473
1318.00,0.0489
1317.00,0.0507
1316.00,0.0525
1315.00,0.0544
1314.00,0.0565
1313.00,0.0586
1312.00,0.0607
1311.00,0.0624
1310.00,0.0636
1309.00,0.0641
1308.00,0.0639
1307.00,0.0630
1306.00,0.0616
1305.00,0.0600
1304.00,0.0585
1303.00,0.0572
1302.00,0.0564
1301.00,0.0561
1300.00,0.0563
1299.00,0.0572
1298.00,0.0587
1297.00,0.0610
1296.00,0.0640
1295.00,0.0678
1294.00,0.0722
1293.00,0.0770
1292.00,0.0820
1291.00,0.0870
1290.00,0.0917
1289.00,0.0960
1288.00,0.0998
1287.00,0.1029
1286.00,0.1053
1285.00,0.1070
1284.00,0.1082
1283.00,0.1088
1282.00,0.1090
1281.00,0.1090
1280.00,0.1089
1279.00,0.1088
1278.00,0.1087
1277.00,0.1086
1276.00,0.1086
1275.00,0.1087
1274.00,0.1086
1273.00,0.1085
1272.00,0.1080
1271.00,0.1071
1270.00,0.1056
1269.00,0.1037
1268.00,0.1013
1267.00,0.0985
1266.00,0.0953
1265.00,0.0918
1264.00,0.0880
1263.00,0.0841
1262.00,0.0803
1261.00,0.0764
1260.00,0.0727
1259.00,0.0692
1258.00,0.0659
1257.00,0.0628
1256.00,0.0600
1255.00,0.0575
1254.00,0.0553
1253.00,0.0534
1252.00,0.0520
1251.00,0.0508
1250.00,0.0501
1249.00,0.0497
1248.00,0.0497
1247.00,0.0501
1246.00,0.0509
1245.00,0.0519
1244.00,0.0531
1243.00,0.0543
1242.00,0.0554
1241.00,0.0564
1240.00,0.0570
1239.00,0.0574
1238.00,0.0574
1237.00,0.0573
1236.00,0.0570
1235.00,0.0569
1234.00,0.0570
1233.00,0.0573
1232.00,0.0580
1231.00,0.0591
1230.00,0.0605
1229.00,0.0622
1228.00,0.0641
1227.00,0.0663
1226.00,0.0686
1225.00,0.0710
1224.00,0.0735
1223.00,0.0761
1222.00,0.0788
1221.00,0.0816
1220.00,0.0844
1219.00,0.0874
1218.00,0.0903
1217.00,0.0932
1216.00,0.0961
1215.00,0.0988
1214.00,0.1012
1213.00,0.1032
1212.00,0.1046
1211.00,0.1053
1210.00,0.1053
1209.00,0.1043
1208.00,0.1026
1207.00,0.1001
1206.00,0.0970
1205.00,0.0934
1204.00,0.0896
1203.00,0.0856
1202.00,0.0818
1201.00,0.0782
1200.00,0.0750
1199.00,0.0723
1198.00,0.0702
1197.00,0.0687
1196.00,0.0678
1195.00,0.0674
1194.00,0.0676
1193.00,0.0680
1192.00,0.0687
1191.00,0.0695
1190.00,0.0702
1189.00,0.0706
1188.00,0.0708
1187.00,0.0707
1186.00,0.0702
1185.00,0.0693
1184.00,0.0681
1183.00,0.0666
1182.00,0.0650
1181.00,0.0632
1180.00,0.0613
1179.00,0.0594
1178.00,0.0575
1177.00,0.0558
1176.00,0.0542
1175.00,0.0528
1174.00,0.0516
1173.00,0.0506
1172.00,0.0498
1171.00,0.0491
1170.00,0.0486
1169.00,0.0481
1168.00,0.0478
1167.00,0.0475
1166.00,0.0472
1165.00,0.0469
1164.00,0.0464
1163.00,0.0458
1162.00,0.0450
1161.00,0.0441
1160.00,0.0429
1159.00,0.0418
1158.00,0.0406
1157.00,0.0397
1156.00,0.0390
1155.00,0.0386
1154.00,0.0387
1153.00,0.0392
1152.00,0.0402
1151.00,0.0415
1150.00,0.0431
1149.00,0.0448
1148.00,0.0463
1147.00,0.0473
1146.00,0.0477
1145.00,0.0471
1144.00,0.0459
1143.00,0.0442
1142.00,0.0424
1141.00,0.0410
1140.00,0.0402
1139.00,0.0401
1138.00,0.0407
1137.00,0.0418
1136.00,0.0431
1135.00,0.0443
1134.00,0.0451
1133.00,0.0453
1132.00,0.0449
1131.00,0.0443
1130.00,0.0435
1129.00,0.0431
1128.00,0.0432
1127.00,0.0441
1126.00,0.0458
1125.00,0.0484
1124.00,0.0517
1123.00,0.0555
1122.00,0.0597
1121.00,0.0640
1120.00,0.0682
1119.00,0.0720
1118.00,0.0751
1117.00,0.0772
1116.00,0.0782
1115.00,0.0780
1114.00,0.0768
1113.00,0.0748
1112.00,0.0724
1111.00,0.0698
1110.00,0.0675
1109.00,0.0658
1108.00,0.0648
1107.00,0.0647
1106.00,0.0655
1105.00,0.0670
1104.00,0.0691
1103.00,0.0714
1102.00,0.0739
1101.00,0.0762
1100.00,0.0782
1099.00,0.0796
1098.00,0.0804
1097.00,0.0804
1096.00,0.0797
1095.00,0.0783
1094.00,0.0762
1093.00,0.0735
1092.00,0.0705
1091.00,0.0672
1090.00,0.0638
1089.00,0.0604
1088.00,0.0572
1087.00,0.0542
1086.00,0.0515
1085.00,0.0491
1084.00,0.0470
1083.00,0.0453
1082.00,0.0438
1081.00,0.0427
1080.00,0.0417
1079.00,0.0410
1078.00,0.0404
1077.00,0.0399
1076.00,0.0395
1075.00,0.0392
1074.00,0.0388
1073.00,0.0384
1072.00,0.0380
1071.00,0.0375
1070.00,0.0370
1069.00,0.0365
1068.00,0.0361
1067.00,0.0357
1066.00,0.0355
1065.00,0.0355
1064.00,0.0357
1063.00,0.0361
1062.00,0.0368
1061.00,0.0376
1060.00,0.0386
1059.00,0.0397
1058.00,0.0408
1057.00,0.0418
1056.00,0.0427
1055.00,0.0434
1054.00,0.0439
1053.00,0.0442
1052.00,0.0443
1051.00,0.0442
1050.00,0.0439
1049.00,0.0435
1048.00,0.0431
1047.00,0.0426
1046.00,0.0421
1045.00,0.0416
1044.00,0.0413
1043.00,0.0411
1042.00,0.0411
1041.00,0.0412
1040.00,0.0414
1039.00,0.0417
1038.00,0.0422
1037.00,0.0426
1036.00,0.0431
1035.00,0.0436
1034.00,0.0442
1033.00,0.0448
1032.00,0.0455
1031.00,0.0463
1030.00,0.0474
1029.00,0.0486
1028.00,0.0501
1027.00,0.0517
1026.00,0.0536
1025.00,0.0556
1024.00,0.0576
1023.00,0.0595
1022.00,0.0612
1021.00,0.0624
1020.00,0.0631
1019.00,0.0632
1018.00,0.0625
1017.00,0.0611
1016.00,0.0591
1015.00,0.0567
1014.00,0.0539
1013.00,0.0511
1012.00,0.0483
1011.00,0.0457
1010.00,0.0434
1009.00,0.0415
1008.00,0.0399
1007.00,0.0388
1006.00,0.0380
1005.00,0.0375
1004.00,0.0372
1003.00,0.0369
1002.00,0.0367
1001.00,0.0363
1000.00,0.0357
999.00,0.0351
998.00,0.0344
997.00,0.0338
996.00,0.0331
995.00,0.0324
994.00,0.0318
993.00,0.0312
992.00,0.0307
991.00,0.0301
990.00,0.0297
989.00,0.0293
988.00,0.0289
987.00,0.0286
986.00,0.0283
985.00,0.0280
984.00,0.0277
983.00,0.0275
982.00,0.0272
981.00,0.0270
980.00,0.0267
979.00,0.0265
978.00,0.0262
977.00,0.0260
976.00,0.0258
975.00,0.0256
974.00,0.0254
973.00,0.0253
972.00,0.0252
971.00,0.0252
970.00,0.0252
969.00,0.0253
968.00,0.0253
967.00,0.0254
966.00,0.0255
965.00,0.0255
964.00,0.0256
963.00,0.0256
962.00,0.0257
961.00,0.0256
960.00,0.0255
959.00,0.0254
958.00,0.0252
957.00,0.0251
956.00,0.0250
955.00,0.0250
954.00,0.0249
953.00,0.0249
952.00,0.0248
951.00,0.0248
950.00,0.0247
949.00,0.0247
948.00,0.0248
947.00,0.0248
946.00,0.0248
945.00,0.0248
944.00,0.0248
943.00,0.0247
942.00,0.0246
941.00,0.0245
940.00,0.0245
939.00,0.0246
938.00,0.0248
937.00,0.0250
936.00,0.0253
935.00,0.0255
934.00,0.0257
933.00,0.0257
932.00,0.0255
931.00,0.0251
930.00,0.0247
929.00,0.0242
928.00,0.0237
927.00,0.0234
926.00,0.0231
925.00,0.0229
924.00,0.0227
923.00,0.0225
922.00,0.0223
921.00,0.0220
920.00,0.0218
919.00,0.0216
918.00,0.0214
917.00,0.0213
916.00,0.0211
915.00,0.0209
914.00,0.0208
913.00,0.0207
912.00,0.0206
911.00,0.0205
910.00,0.0205
909.00,0.0205
908.00,0.0205
907.00,0.0205
906.00,0.0206
905.00,0.0208
904.00,0.0210
903.00,0.0212
902.00,0.0215
901.00,0.0217
900.00,0.0220
899.00,0.0222
898.00,0.0224
897.00,0.0226
896.00,0.0228
895.00,0.0228
894.00,0.0228
893.00,0.0227
892.00,0.0225
891.00,0.0223
890.00,0.0220
889.00,0.0218
888.00,0.0215
887.00,0.0213
886.00,0.0211
885.00,0.0210
884.00,0.0209
883.00,0.0208
882.00,0.0207
881.00,0.0206
880.00,0.0205
879.00,0.0205
878.00,0.0205
877.00,0.0206
876.00,0.0206
875.00,0.0206
874.00,0.0206
873.00,0.0206
872.00,0.0207
871.00,0.0207
870.00,0.0208
869.00,0.0209
868.00,0.0210
867.00,0.0212
866.00,0.0215
865.00,0.0222
864.00,0.0233
863.00,0.0249
862.00,0.0272
861.00,0.0301
860.00,0.0330
859.00,0.0353
858.00,0.0363
857.00,0.0360
856.00,0.0346
855.00,0.0329
854.00,0.0315
853.00,0.0306
852.00,0.0303
851.00,0.0304
850.00,0.0307
849.00,0.0312
848.00,0.0317
847.00,0.0323
846.00,0.0329
845.00,0.0336
844.00,0.0343
843.00,0.0351
842.00,0.0359
841.00,0.0367
840.00,0.0375
839.00,0.0383
838.00,0.0393
837.00,0.0406
836.00,0.0423
835.00,0.0443
834.00,0.0466
833.00,0.0487
832.00,0.0504
831.00,0.0512
830.00,0.0509
829.00,0.0495
828.00,0.0475
827.00,0.0450
826.00,0.0425
825.00,0.0401
824.00,0.0380
823.00,0.0361
822.00,0.0344
821.00,0.0330
820.00,0.0317
819.00,0.0307
818.00,0.0299
817.00,0.0292
816.00,0.0286
815.00,0.0281
814.00,0.0277
813.00,0.0274
812.00,0.0272
811.00,0.0271
810.00,0.0272
809.00,0.0274
808.00,0.0278
807.00,0.0283
806.00,0.0289
805.00,0.0295
804.00,0.0300
803.00,0.0304
802.00,0.0306
801.00,0.0308
800.00,0.0308
799.00,0.0309
798.00,0.0310
797.00,0.0313
796.00,0.0318
795.00,0.0325
794.00,0.0334
793.00,0.0345
792.00,0.0357
791.00,0.0370
790.00,0.0385
789.00,0.0401
788.00,0.0416
787.00,0.0429
786.00,0.0441
785.00,0.0449
784.00,0.0452
783.00,0.0452
782.00,0.0447
781.00,0.0439
780.00,0.0429
779.00,0.0420
778.00,0.0411
777.00,0.0403
776.00,0.0396
775.00,0.0391
774.00,0.0385
773.00,0.0379
772.00,0.0373
771.00,0.0368
770.00,0.0364
769.00,0.0361
768.00,0.0360
767.00,0.0361
766.00,0.0365
765.00,0.0372
764.00,0.0382
763.00,0.0395
762.00,0.0410
761.00,0.0426
760.00,0.0441
759.00,0.0457
758.00,0.0470
757.00,0.0482
756.00,0.0491
755.00,0.0498
754.00,0.0503
753.00,0.0506
752.00,0.0507
751.00,0.0507
750.00,0.0506
749.00,0.0504
748.00,0.0500
747.00,0.0495
746.00,0.0489
745.00,0.0481
744.00,0.0473
743.00,0.0465
742.00,0.0457
741.00,0.0450
740.00,0.0444
739.00,0.0439
738.00,0.0435
737.00,0.0432
736.00,0.0429
735.00,0.0427
734.00,0.0425
733.00,0.0421
732.00,0.0417
731.00,0.0412
730.00,0.0407
729.00,0.0400
728.00,0.0394
727.00,0.0388
726.00,0.0383
725.00,0.0380
724.00,0.0380
723.00,0.0383
722.00,0.0390
721.00,0.0404
720.00,0.0423
719.00,0.0449
718.00,0.0478
717.00,0.0509
716.00,0.0538
715.00,0.0562
714.00,0.0579
713.00,0.0585
712.00,0.0580
711.00,0.0564
710.00,0.0540
709.00,0.0512
708.00,0.0483
707.00,0.0455
706.00,0.0432
705.00,0.0412
704.00,0.0396
703.00,0.0384
702.00,0.0376
701.00,0.0370
700.00,0.0366
699.00,0.0363
698.00,0.0361
697.00,0.0360
696.00,0.0361
695.00,0.0362
694.00,0.0364
693.00,0.0369
692.00,0.0374
691.00,0.0381
690.00,0.0389
689.00,0.0398
688.00,0.0408
687.00,0.0418
686.00,0.0428
685.00,0.0437
684.00,0.0444
683.00,0.0451
682.00,0.0456
681.00,0.0461
680.00,0.0464
679.00,0.0466
678.00,0.0468
677.00,0.0468
676.00,0.0467
675.00,0.0465
674.00,0.0464
673.00,0.0462
672.00,0.0461
671.00,0.0460
670.00,0.0461
669.00,0.0465
668.00,0.0473
667.00,0.0479
666.00,0.0481
665.00,0.0481
664.00,0.0483
663.00,0.0486
662.00,0.0491
661.00,0.0497
660.00,0.0504
659.00,0.0512
658.00,0.0521
657.00,0.0530
656.00,0.0538
655.00,0.0547
654.00,0.0554
653.00,0.0561
652.00,0.0567
651.00,0.0572
650.00,0.0576
649.00,0.0579
648.00,0.0581
647.00,0.0580
646.00,0.0577
645.00,0.0573
644.00,0.0567
643.00,0.0560
642.00,0.0553
641.00,0.0547
640.00,0.0541
639.00,0.0537
638.00,0.0534
637.00,0.0532
636.00,0.0531
635.00,0.0531
634.00,0.0529
633.00,0.0528
632.00,0.0524
631.00,0.0520
630.00,0.0514
629.00,0.0508
628.00,0.0502
627.00,0.0495
626.00,0.0489
625.00,0.0482
624.00,0.0476
623.00,0.0471
622.00,0.0466
621.00,0.0462
620.00,0.0458
619.00,0.0454
618.00,0.0450
617.00,0.0447
616.00,0.0445
615.00,0.0444
614.00,0.0444
613.00,0.0444
612.00,0.0445
611.00,0.0445
610.00,0.0446
609.00,0.0445
608.00,0.0443
607.00,0.0442
606.00,0.0443
605.00,0.0444
604.00,0.0445
603.00,0.0446
602.00,0.0448
601.00,0.0450
600.00,0.0454
599.00,0.0458
598.00,0.0463
597.00,0.0468
596.00,0.0473
595.00,0.0479
594.00,0.0485
593.00,0.0491
592.00,0.0499
591.00,0.0507
590.00,0.0515
589.00,0.0523
588.00,0.0532
587.00,0.0541
586.00,0.0550
585.00,0.0558
584.00,0.0566
583.00,0.0574
582.00,0.0580
581.00,0.0586
580.00,0.0592
579.00,0.0598
578.00,0.0604
577.00,0.0610
576.00,0.0616
575.00,0.0621
574.00,0.0625
573.00,0.0628
572.00,0.0629
571.00,0.0630
570.00,0.0631
569.00,0.0629
568.00,0.0626
567.00,0.0621
566.00,0.0615
565.00,0.0608
564.00,0.0600
563.00,0.0592
562.00,0.0585
561.00,0.0577
560.00,0.0569
559.00,0.0561
558.00,0.0553
557.00,0.0546
556.00,0.0539
555.00,0.0531
554.00,0.0524
553.00,0.0518
552.00,0.0513
551.00,0.0508
550.00,0.0504
549.00,0.0500
548.00,0.0495
547.00,0.0490
546.00,0.0484
545.00,0.0478
544.00,0.0473
543.00,0.0468
542.00,0.0464
541.00,0.0461
540.00,0.0458
539.00,0.0456
538.00,0.0454
537.00,0.0453
536.00,0.0451
535.00,0.0449
534.00,0.0447
533.00,0.0445
532.00,0.0443
531.00,0.0441
530.00,0.0440
529.00,0.0439
528.00,0.0437
527.00,0.0435
526.00,0.0434
525.00,0.0434
524.00,0.0434
523.00,0.0434
522.00,0.0435
521.00,0.0435
520.00,0.0435
519.00,0.0434
518.00,0.0432
517.00,0.0431
516.00,0.0430
515.00,0.0429
514.00,0.0430
513.00,0.0431
512.00,0.0433
511.00,0.0435
510.00,0.0438
509.00,0.0441
508.00,0.0443
507.00,0.0443
506.00,0.0443
505.00,0.0443
504.00,0.0444
503.00,0.0444
502.00,0.0443
501.00,0.0440
500.00,0.0436
499.00,0.0433
498.00,0.0431
497.00,0.0429
496.00,0.0429
495.00,0.0431
494.00,0.0433
493.00,0.0436
492.00,0.0436
491.00,0.0435
490.00,0.0435
489.00,0.0435
488.00,0.0437
487.00,0.0441
486.00,0.0446
485.00,0.0450
484.00,0.0453
483.00,0.0452
482.00,0.0451
481.00,0.0450
480.00,0.0450
479.00,0.0452
478.00,0.0456
477.00,0.0462
476.00,0.0469
475.00,0.0476
474.00,0.0483
473.00,0.0487
472.00,0.0487
471.00,0.0484
470.00,0.0481
469.00,0.0479
468.00,0.0478
467.00,0.0477
466.00,0.0476
465.00,0.0473
464.00,0.0470
463.00,0.0468
462.00,0.0468
461.00,0.0467
460.00,0.0465
459.00,0.0463
458.00,0.0462
457.00,0.0460
456.00,0.0457
455.00,0.0454
454.00,0.0451
453.00,0.0448
452.00,0.0446
451.00,0.0444
450.00,0.0445
449.00,0.0448
448.00,0.0449
447.00,0.0448
446.00,0.0445
445.00,0.0440
444.00,0.0434
443.00,0.0429
442.00,0.0424
441.00,0.0420
440.00,0.0418
439.00,0.0419
438.00,0.0421
437.00,0.0423
436.00,0.0423
435.00,0.0423
434.00,0.0422
433.00,0.0422
432.00,0.0421
431.00,0.0420
430.00,0.0419
429.00,0.0418
428.00,0.0418
427.00,0.0419
426.00,0.0422
425.00,0.0422
424.00,0.0418
423.00,0.0413
422.00,0.0413
421.00,0.0418
420.00,0.0425
419.00,0.0430
418.00,0.0430
417.00,0.0428
416.00,0.0428
415.00,0.0431
414.00,0.0434
413.00,0.0437
412.00,0.0440
411.00,0.0445
410.00,0.0453
409.00,0.0460
408.00,0.0463
407.00,0.0461
406.00,0.0458
405.00,0.0456
404.00,0.0456
403.00,0.0458
402.00,0.0463
401.00,0.0471
400.00,0.0482
