Created as New Dataset,Sample 218 By YargerLab Date Sunday, October 05 2025
cm-1,A
4000.00,0.0085
3999.00,0.0085
3998.00,0.0086
3997.00,0.0086
3996.00,0.0086
3995.00,0.0086
3994.00,0.0086
3993.00,0.0086
3992.00,0.0086
3991.00,0.0085
3990.00,0.0085
3989.00,0.0085
3988.00,0.0085
3987.00,0.0085
3986.00,0.0085
3985.00,0.0085
3984.00,0.0085
3983.00,0.0085
3982.00,0.0085
3981.00,0.0084
3980.00,0.0084
3979.00,0.0084
3978.00,0.0084
3977.00,0.0085
3976.00,0.0085
3975.00,0.0085
3974.00,0.0085
3973.00,0.0085
3972.00,0.0085
3971.00,0.0085
3970.00,0.0085
3969.00,0.0085
3968.00,0.0085
3967.00,0.0085
3966.00,0.0085
3965.00,0.0085
3964.00,0.0085
3963.00,0.0085
3962.00,0.0085
3961.00,0.0085
3960.00,0.0085
3959.00,0.0085
3958.00,0.0085
3957.00,0.0085
3956.00,0.0085
3955.00,0.0084
3954.00,0.0084
3953.00,0.0084
3952.00,0.0084
3951.00,0.0085
3950.00,0.0085
3949.00,0.0085
3948.00,0.0085
3947.00,0.0085
3946.00,0.0085
3945.00,0.0085
3944.00,0.0085
3943.00,0.0085
3942.00,0.0085
3941.00,0.0085
3940.00,0.0085
3939.00,0.0085
3938.00,0.0085
3937.00,0.0085
3936.00,0.0085
3935.00,0.0085
3934.00,0.0085
3933.00,0.0085
3932.00,0.0084
3931.00,0.0084
3930.00,0.0084
3929.00,0.0084
3928.00,0.0084
3927.00,0.0084
3926.00,0.0084
3925.00,0.0084
3924.00,0.0084
3923.00,0.0084
3922.00,0.0085
3921.00,0.0085
3920.00,0.0085
3919.00,0.0085
3918.00,0.0085
3917.00,0.0086
3916.00,0.0086
3915.00,0.0086
3914.00,0.0086
3913.00,0.0086
3912.00,0.0086
3911.00,0.0085
3910.00,0.0085
3909.00,0.0085
3908.00,0.0084
3907.00,0.0084
3906.00,0.0084
3905.00,0.0084
3904.00,0.0084
3903.00,0.0084
3902.00,0.0084
3901.00,0.0084
3900.00,0.0083
3899.00,0.0083
3898.00,0.0083
3897.00,0.0083
3896.00,0.0083
3895.00,0.0083
3894.00,0.0083
3893.00,0.0083
3892.00,0.0083
3891.00,0.0083
3890.00,0.0083
3889.00,0.0083
3888.00,0.0083
3887.00,0.0083
3886.00,0.0083
3885.00,0.0083
3884.00,0.0083
3883.00,0.0083
3882.00,0.0083
3881.00,0.0083
3880.00,0.0083
3879.00,0.0083
3878.00,0.0084
3877.00,0.0084
3876.00,0.0084
3875.00,0.0084
3874.00,0.0084
3873.00,0.0083
3872.00,0.0083
3871.00,0.0083
3870.00,0.0083
3869.00,0.0083
3868.00,0.0083
3867.00,0.0083
3866.00,0.0083
3865.00,0.0084
3864.00,0.0083
3863.00,0.0083
3862.00,0.0083
3861.00,0.0083
3860.00,0.0083
3859.00,0.0083
3858.00,0.0083
3857.00,0.0083
3856.00,0.0083
3855.00,0.0084
3854.00,0.0084
3853.00,0.0084
3852.00,0.0084
3851.00,0.0084
3850.00,0.0084
3849.00,0.0083
3848.00,0.0083
3847.00,0.0083
3846.00,0.0083
3845.00,0.0083
3844.00,0.0082
3843.00,0.0082
3842.00,0.0082
3841.00,0.0082
3840.00,0.0083
3839.00,0.0083
3838.00,0.0083
3837.00,0.0083
3836.00,0.0084
3835.00,0.0084
3834.00,0.0083
3833.00,0.0083
3832.00,0.0083
3831.00,0.0083
3830.00,0.0083
3829.00,0.0083
3828.00,0.0083
3827.00,0.0083
3826.00,0.0083
3825.00,0.0083
3824.00,0.0083
3823.00,0.0083
3822.00,0.0083
3821.00,0.0083
3820.00,0.0083
3819.00,0.0083
3818.00,0.0083
3817.00,0.0082
3816.00,0.0082
3815.00,0.0083
3814.00,0.0083
3813.00,0.0083
3812.00,0.0082
3811.00,0.0082
3810.00,0.0082
3809.00,0.0083
3808.00,0.0083
3807.00,0.0083
3806.00,0.0083
3805.00,0.0083
3804.00,0.0083
3803.00,0.0083
3802.00,0.0083
3801.00,0.0082
3800.00,0.0082
3799.00,0.0082
3798.00,0.0082
3797.00,0.0082
3796.00,0.0082
3795.00,0.0081
3794.00,0.0081
3793.00,0.0081
3792.00,0.0081
3791.00,0.0081
3790.00,0.0081
3789.00,0.0081
3788.00,0.0081
3787.00,0.0081
3786.00,0.0081
3785.00,0.0081
3784.00,0.0082
3783.00,0.0082
3782.00,0.0082
3781.00,0.0082
3780.00,0.0082
3779.00,0.0082
3778.00,0.0082
3777.00,0.0082
3776.00,0.0082
3775.00,0.0082
3774.00,0.0082
3773.00,0.0082
3772.00,0.0081
3771.00,0.0081
3770.00,0.0081
3769.00,0.0081
3768.00,0.0081
3767.00,0.0081
3766.00,0.0081
3765.00,0.0081
3764.00,0.0081
3763.00,0.0081
3762.00,0.0081
3761.00,0.0081
3760.00,0.0082
3759.00,0.0082
3758.00,0.0082
3757.00,0.0082
3756.00,0.0082
3755.00,0.0083
3754.00,0.0083
3753.00,0.0083
3752.00,0.0083
3751.00,0.0083
3750.00,0.0083
3749.00,0.0083
3748.00,0.0083
3747.00,0.0083
3746.00,0.0083
3745.00,0.0083
3744.00,0.0082
3743.00,0.0082
3742.00,0.0081
3741.00,0.0081
3740.00,0.0080
3739.00,0.0080
3738.00,0.0080
3737.00,0.0079
3736.00,0.0079
3735.00,0.0079
3734.00,0.0079
3733.00,0.0080
3732.00,0.0080
3731.00,0.0080
3730.00,0.0080
3729.00,0.0080
3728.00,0.0080
3727.00,0.0080
3726.00,0.0080
3725.00,0.0080
3724.00,0.0079
3723.00,0.0079
3722.00,0.0079
3721.00,0.0079
3720.00,0.0079
3719.00,0.0079
3718.00,0.0079
3717.00,0.0079
3716.00,0.0079
3715.00,0.0080
3714.00,0.0080
3713.00,0.0080
3712.00,0.0080
3711.00,0.0079
3710.00,0.0079
3709.00,0.0079
3708.00,0.0080
3707.00,0.0080
3706.00,0.0080
3705.00,0.0080
3704.00,0.0080
3703.00,0.0079
3702.00,0.0079
3701.00,0.0079
3700.00,0.0079
3699.00,0.0079
3698.00,0.0079
3697.00,0.0079
3696.00,0.0079
3695.00,0.0079
3694.00,0.0079
3693.00,0.0079
3692.00,0.0079
3691.00,0.0080
3690.00,0.0080
3689.00,0.0080
3688.00,0.0080
3687.00,0.0080
3686.00,0.0080
3685.00,0.0080
3684.00,0.0079
3683.00,0.0079
3682.00,0.0079
3681.00,0.0079
3680.00,0.0079
3679.00,0.0079
3678.00,0.0079
3677.00,0.0079
3676.00,0.0079
3675.00,0.0079
3674.00,0.0079
3673.00,0.0079
3672.00,0.0079
3671.00,0.0078
3670.00,0.0078
3669.00,0.0078
3668.00,0.0078
3667.00,0.0078
3666.00,0.0078
3665.00,0.0078
3664.00,0.0078
3663.00,0.0078
3662.00,0.0078
3661.00,0.0078
3660.00,0.0078
3659.00,0.0078
3658.00,0.0078
3657.00,0.0078
3656.00,0.0078
3655.00,0.0078
3654.00,0.0078
3653.00,0.0078
3652.00,0.0078
3651.00,0.0079
3650.00,0.0078
3649.00,0.0078
3648.00,0.0078
3647.00,0.0078
3646.00,0.0077
3645.00,0.0077
3644.00,0.0077
3643.00,0.0077
3642.00,0.0078
3641.00,0.0078
3640.00,0.0078
3639.00,0.0078
3638.00,0.0078
3637.00,0.0077
3636.00,0.0077
3635.00,0.0077
3634.00,0.0077
3633.00,0.0077
3632.00,0.0077
3631.00,0.0077
3630.00,0.0077
3629.00,0.0077
3628.00,0.0077
3627.00,0.0077
3626.00,0.0077
3625.00,0.0077
3624.00,0.0077
3623.00,0.0077
3622.00,0.0077
3621.00,0.0077
3620.00,0.0077
3619.00,0.0077
3618.00,0.0076
3617.00,0.0076
3616.00,0.0076
3615.00,0.0076
3614.00,0.0075
3613.00,0.0076
3612.00,0.0076
3611.00,0.0076
3610.00,0.0077
3609.00,0.0077
3608.00,0.0077
3607.00,0.0077
3606.00,0.0076
3605.00,0.0076
3604.00,0.0076
3603.00,0.0076
3602.00,0.0076
3601.00,0.0076
3600.00,0.0075
3599.00,0.0075
3598.00,0.0075
3597.00,0.0075
3596.00,0.0075
3595.00,0.0075
3594.00,0.0075
3593.00,0.0076
3592.00,0.0076
3591.00,0.0076
3590.00,0.0076
3589.00,0.0076
3588.00,0.0075
3587.00,0.0075
3586.00,0.0075
3585.00,0.0075
3584.00,0.0075
3583.00,0.0074
3582.00,0.0074
3581.00,0.0074
3580.00,0.0074
3579.00,0.0074
3578.00,0.0075
3577.00,0.0075
3576.00,0.0075
3575.00,0.0075
3574.00,0.0075
3573.00,0.0075
3572.00,0.0074
3571.00,0.0074
3570.00,0.0074
3569.00,0.0074
3568.00,0.0074
3567.00,0.0074
3566.00,0.0074
3565.00,0.0074
3564.00,0.0074
3563.00,0.0075
3562.00,0.0075
3561.00,0.0075
3560.00,0.0075
3559.00,0.0074
3558.00,0.0075
3557.00,0.0075
3556.00,0.0075
3555.00,0.0075
3554.00,0.0075
3553.00,0.0075
3552.00,0.0075
3551.00,0.0075
3550.00,0.0075
3549.00,0.0075
3548.00,0.0075
3547.00,0.0075
3546.00,0.0075
3545.00,0.0075
3544.00,0.0075
3543.00,0.0075
3542.00,0.0076
3541.00,0.0076
3540.00,0.0076
3539.00,0.0076
3538.00,0.0077
3537.00,0.0077
3536.00,0.0077
3535.00,0.0077
3534.00,0.0078
3533.00,0.0078
3532.00,0.0078
3531.00,0.0077
3530.00,0.0077
3529.00,0.0077
3528.00,0.0077
3527.00,0.0077
3526.00,0.0077
3525.00,0.0078
3524.00,0.0078
3523.00,0.0078
3522.00,0.0079
3521.00,0.0079
3520.00,0.0079
3519.00,0.0080
3518.00,0.0080
3517.00,0.0080
3516.00,0.0079
3515.00,0.0079
3514.00,0.0079
3513.00,0.0080
3512.00,0.0081
3511.00,0.0081
3510.00,0.0082
3509.00,0.0082
3508.00,0.0082
3507.00,0.0082
3506.00,0.0082
3505.00,0.0082
3504.00,0.0082
3503.00,0.0082
3502.00,0.0083
3501.00,0.0083
3500.00,0.0084
3499.00,0.0085
3498.00,0.0086
3497.00,0.0087
3496.00,0.0088
3495.00,0.0089
3494.00,0.0090
3493.00,0.0092
3492.00,0.0093
3491.00,0.0093
3490.00,0.0094
3489.00,0.0094
3488.00,0.0093
3487.00,0.0092
3486.00,0.0091
3485.00,0.0089
3484.00,0.0088
3483.00,0.0087
3482.00,0.0086
3481.00,0.0085
3480.00,0.0084
3479.00,0.0083
3478.00,0.0082
3477.00,0.0082
3476.00,0.0082
3475.00,0.0081
3474.00,0.0081
3473.00,0.0080
3472.00,0.0080
3471.00,0.0079
3470.00,0.0079
3469.00,0.0079
3468.00,0.0079
3467.00,0.0079
3466.00,0.0079
3465.00,0.0079
3464.00,0.0079
3463.00,0.0079
3462.00,0.0079
3461.00,0.0079
3460.00,0.0079
3459.00,0.0079
3458.00,0.0079
3457.00,0.0079
3456.00,0.0079
3455.00,0.0079
3454.00,0.0079
3453.00,0.0079
3452.00,0.0079
3451.00,0.0079
3450.00,0.0079
3449.00,0.0079
3448.00,0.0079
3447.00,0.0079
3446.00,0.0079
3445.00,0.0078
3444.00,0.0078
3443.00,0.0078
3442.00,0.0078
3441.00,0.0078
3440.00,0.0078
3439.00,0.0078
3438.00,0.0079
3437.00,0.0079
3436.00,0.0079
3435.00,0.0079
3434.00,0.0079
3433.00,0.0079
3432.00,0.0079
3431.00,0.0079
3430.00,0.0079
3429.00,0.0079
3428.00,0.0080
3427.00,0.0080
3426.00,0.0080
3425.00,0.0080
3424.00,0.0080
3423.00,0.0080
3422.00,0.0081
3421.00,0.0081
3420.00,0.0081
3419.00,0.0081
3418.00,0.0081
3417.00,0.0081
3416.00,0.0081
3415.00,0.0081
3414.00,0.0081
3413.00,0.0081
3412.00,0.0081
3411.00,0.0081
3410.00,0.0081
3409.00,0.0081
3408.00,0.0082
3407.00,0.0082
3406.00,0.0083
3405.00,0.0083
3404.00,0.0082
3403.00,0.0082
3402.00,0.0082
3401.00,0.0082
3400.00,0.0082
3399.00,0.0083
3398.00,0.0084
3397.00,0.0085
3396.00,0.0085
3395.00,0.0085
3394.00,0.0084
3393.00,0.0084
3392.00,0.0084
3391.00,0.0085
3390.00,0.0085
3389.00,0.0086
3388.00,0.0087
3387.00,0.0088
3386.00,0.0088
3385.00,0.0089
3384.00,0.0089
3383.00,0.0089
3382.00,0.0089
3381.00,0.0088
3380.00,0.0089
3379.00,0.0089
3378.00,0.0089
3377.00,0.0089
3376.00,0.0090
3375.00,0.0090
3374.00,0.0090
3373.00,0.0090
3372.00,0.0089
3371.00,0.0088
3370.00,0.0088
3369.00,0.0088
3368.00,0.0089
3367.00,0.0089
3366.00,0.0090
3365.00,0.0091
3364.00,0.0092
3363.00,0.0092
3362.00,0.0092
3361.00,0.0093
3360.00,0.0093
3359.00,0.0093
3358.00,0.0094
3357.00,0.0094
3356.00,0.0095
3355.00,0.0095
3354.00,0.0095
3353.00,0.0094
3352.00,0.0094
3351.00,0.0094
3350.00,0.0094
3349.00,0.0095
3348.00,0.0096
3347.00,0.0096
3346.00,0.0096
3345.00,0.0096
3344.00,0.0096
3343.00,0.0096
3342.00,0.0096
3341.00,0.0095
3340.00,0.0095
3339.00,0.0096
3338.00,0.0096
3337.00,0.0097
3336.00,0.0098
3335.00,0.0098
3334.00,0.0099
3333.00,0.0099
3332.00,0.0099
3331.00,0.0099
3330.00,0.0100
3329.00,0.0100
3328.00,0.0099
3327.00,0.0099
3326.00,0.0100
3325.00,0.0100
3324.00,0.0101
3323.00,0.0102
3322.00,0.0102
3321.00,0.0103
3320.00,0.0103
3319.00,0.0104
3318.00,0.0104
3317.00,0.0104
3316.00,0.0105
3315.00,0.0105
3314.00,0.0105
3313.00,0.0105
3312.00,0.0105
3311.00,0.0105
3310.00,0.0105
3309.00,0.0105
3308.00,0.0105
3307.00,0.0106
3306.00,0.0106
3305.00,0.0107
3304.00,0.0108
3303.00,0.0108
3302.00,0.0109
3301.00,0.0109
3300.00,0.0109
3299.00,0.0109
3298.00,0.0109
3297.00,0.0109
3296.00,0.0109
3295.00,0.0109
3294.00,0.0109
3293.00,0.0110
3292.00,0.0110
3291.00,0.0111
3290.00,0.0111
3289.00,0.0112
3288.00,0.0112
3287.00,0.0113
3286.00,0.0113
3285.00,0.0114
3284.00,0.0114
3283.00,0.0114
3282.00,0.0114
3281.00,0.0114
3280.00,0.0115
3279.00,0.0115
3278.00,0.0115
3277.00,0.0116
3276.00,0.0116
3275.00,0.0116
3274.00,0.0116
3273.00,0.0116
3272.00,0.0117
3271.00,0.0117
3270.00,0.0117
3269.00,0.0118
3268.00,0.0119
3267.00,0.0119
3266.00,0.0120
3265.00,0.0120
3264.00,0.0121
3263.00,0.0121
3262.00,0.0121
3261.00,0.0122
3260.00,0.0122
3259.00,0.0123
3258.00,0.0123
3257.00,0.0124
3256.00,0.0124
3255.00,0.0125
3254.00,0.0125
3253.00,0.0126
3252.00,0.0126
3251.00,0.0127
3250.00,0.0127
3249.00,0.0128
3248.00,0.0128
3247.00,0.0129
3246.00,0.0129
3245.00,0.0130
3244.00,0.0130
3243.00,0.0131
3242.00,0.0132
3241.00,0.0133
3240.00,0.0133
3239.00,0.0134
3238.00,0.0134
3237.00,0.0134
3236.00,0.0135
3235.00,0.0135
3234.00,0.0136
3233.00,0.0136
3232.00,0.0137
3231.00,0.0137
3230.00,0.0138
3229.00,0.0139
3228.00,0.0140
3227.00,0.0141
3226.00,0.0141
3225.00,0.0142
3224.00,0.0143
3223.00,0.0144
3222.00,0.0144
3221.00,0.0145
3220.00,0.0147
3219.00,0.0148
3218.00,0.0149
3217.00,0.0151
3216.00,0.0152
3215.00,0.0154
3214.00,0.0156
3213.00,0.0158
3212.00,0.0160
3211.00,0.0161
3210.00,0.0162
3209.00,0.0163
3208.00,0.0163
3207.00,0.0163
3206.00,0.0163
3205.00,0.0162
3204.00,0.0162
3203.00,0.0162
3202.00,0.0163
3201.00,0.0163
3200.00,0.0163
3199.00,0.0164
3198.00,0.0164
3197.00,0.0165
3196.00,0.0165
3195.00,0.0166
3194.00,0.0166
3193.00,0.0167
3192.00,0.0168
3191.00,0.0169
3190.00,0.0170
3189.00,0.0170
3188.00,0.0171
3187.00,0.0172
3186.00,0.0173
3185.00,0.0174
3184.00,0.0174
3183.00,0.0175
3182.00,0.0176
3181.00,0.0177
3180.00,0.0178
3179.00,0.0179
3178.00,0.0179
3177.00,0.0180
3176.00,0.0181
3175.00,0.0182
3174.00,0.0183
3173.00,0.0184
3172.00,0.0185
3171.00,0.0186
3170.00,0.0188
3169.00,0.0189
3168.00,0.0190
3167.00,0.0191
3166.00,0.0192
3165.00,0.0193
3164.00,0.0194
3163.00,0.0195
3162.00,0.0196
3161.00,0.0197
3160.00,0.0199
3159.00,0.0200
3158.00,0.0201
3157.00,0.0202
3156.00,0.0202
3155.00,0.0203
3154.00,0.0204
3153.00,0.0205
3152.00,0.0206
3151.00,0.0207
3150.00,0.0208
3149.00,0.0210
3148.00,0.0211
3147.00,0.0212
3146.00,0.0213
3145.00,0.0214
3144.00,0.0216
3143.00,0.0217
3142.00,0.0218
3141.00,0.0219
3140.00,0.0220
3139.00,0.0221
3138.00,0.0222
3137.00,0.0222
3136.00,0.0223
3135.00,0.0224
3134.00,0.0225
3133.00,0.0226
3132.00,0.0227
3131.00,0.0228
3130.00,0.0229
3129.00,0.0230
3128.00,0.0231
3127.00,0.0232
3126.00,0.0233
3125.00,0.0234
3124.00,0.0234
3123.00,0.0236
3122.00,0.0237
3121.00,0.0238
3120.00,0.0239
3119.00,0.0241
3118.00,0.0242
3117.00,0.0243
3116.00,0.0245
3115.00,0.0246
3114.00,0.0247
3113.00,0.0249
3112.00,0.0251
3111.00,0.0252
3110.00,0.0254
3109.00,0.0256
3108.00,0.0258
3107.00,0.0259
3106.00,0.0261
3105.00,0.0263
3104.00,0.0264
3103.00,0.0266
3102.00,0.0267
3101.00,0.0269
3100.00,0.0270
3099.00,0.0272
3098.00,0.0274
3097.00,0.0277
3096.00,0.0279
3095.00,0.0282
3094.00,0.0285
3093.00,0.0288
3092.00,0.0291
3091.00,0.0292
3090.00,0.0293
3089.00,0.0294
3088.00,0.0294
3087.00,0.0295
3086.00,0.0296
3085.00,0.0297
3084.00,0.0298
3083.00,0.0300
3082.00,0.0302
3081.00,0.0304
3080.00,0.0307
3079.00,0.0309
3078.00,0.0311
3077.00,0.0313
3076.00,0.0315
3075.00,0.0315
3074.00,0.0316
3073.00,0.0316
3072.00,0.0316
3071.00,0.0317
3070.00,0.0318
3069.00,0.0318
3068.00,0.0320
3067.00,0.0321
3066.00,0.0322
3065.00,0.0323
3064.00,0.0324
3063.00,0.0325
3062.00,0.0325
3061.00,0.0326
3060.00,0.0327
3059.00,0.0328
3058.00,0.0328
3057.00,0.0329
3056.00,0.0329
3055.00,0.0330
3054.00,0.0330
3053.00,0.0330
3052.00,0.0331
3051.00,0.0331
3050.00,0.0332
3049.00,0.0333
3048.00,0.0335
3047.00,0.0337
3046.00,0.0340
3045.00,0.0342
3044.00,0.0343
3043.00,0.0345
3042.00,0.0346
3041.00,0.0347
3040.00,0.0347
3039.00,0.0348
3038.00,0.0349
3037.00,0.0350
3036.00,0.0351
3035.00,0.0352
3034.00,0.0354
3033.00,0.0355
3032.00,0.0357
3031.00,0.0359
3030.00,0.0360
3029.00,0.0362
3028.00,0.0364
3027.00,0.0365
3026.00,0.0367
3025.00,0.0368
3024.00,0.0368
3023.00,0.0369
3022.00,0.0369
3021.00,0.0370
3020.00,0.0371
3019.00,0.0371
3018.00,0.0372
3017.00,0.0372
3016.00,0.0372
3015.00,0.0373
3014.00,0.0373
3013.00,0.0374
3012.00,0.0374
3011.00,0.0375
3010.00,0.0375
3009.00,0.0376
3008.00,0.0377
3007.00,0.0378
3006.00,0.0379
3005.00,0.0379
3004.00,0.0380
3003.00,0.0381
3002.00,0.0382
3001.00,0.0383
3000.00,0.0384
2999.00,0.0384
2998.00,0.0385
2997.00,0.0385
2996.00,0.0385
2995.00,0.0385
2994.00,0.0386
2993.00,0.0386
2992.00,0.0386
2991.00,0.0386
2990.00,0.0385
2989.00,0.0385
2988.00,0.0385
2987.00,0.0385
2986.00,0.0384
2985.00,0.0384
2984.00,0.0384
2983.00,0.0384
2982.00,0.0384
2981.00,0.0385
2980.00,0.0385
2979.00,0.0385
2978.00,0.0386
2977.00,0.0387
2976.00,0.0388
2975.00,0.0388
2974.00,0.0389
2973.00,0.0390
2972.00,0.0391
2971.00,0.0391
2970.00,0.0392
2969.00,0.0392
2968.00,0.0393
2967.00,0.0393
2966.00,0.0393
2965.00,0.0393
2964.00,0.0393
2963.00,0.0393
2962.00,0.0392
2961.00,0.0392
2960.00,0.0391
2959.00,0.0390
2958.00,0.0389
2957.00,0.0389
2956.00,0.0388
2955.00,0.0386
2954.00,0.0385
2953.00,0.0385
2952.00,0.0384
2951.00,0.0383
2950.00,0.0383
2949.00,0.0383
2948.00,0.0383
2947.00,0.0383
2946.00,0.0383
2945.00,0.0383
2944.00,0.0383
2943.00,0.0383
2942.00,0.0382
2941.00,0.0381
2940.00,0.0379
2939.00,0.0377
2938.00,0.0374
2937.00,0.0371
2936.00,0.0369
2935.00,0.0368
2934.00,0.0366
2933.00,0.0365
2932.00,0.0365
2931.00,0.0364
2930.00,0.0364
2929.00,0.0365
2928.00,0.0365
2927.00,0.0366
2926.00,0.0367
2925.00,0.0368
2924.00,0.0369
2923.00,0.0371
2922.00,0.0372
2921.00,0.0373
2920.00,0.0374
2919.00,0.0376
2918.00,0.0377
2917.00,0.0378
2916.00,0.0379
2915.00,0.0381
2914.00,0.0383
2913.00,0.0386
2912.00,0.0389
2911.00,0.0391
2910.00,0.0394
2909.00,0.0396
2908.00,0.0398
2907.00,0.0399
2906.00,0.0400
2905.00,0.0401
2904.00,0.0402
2903.00,0.0403
2902.00,0.0405
2901.00,0.0406
2900.00,0.0407
2899.00,0.0409
2898.00,0.0410
2897.00,0.0411
2896.00,0.0412
2895.00,0.0413
2894.00,0.0414
2893.00,0.0415
2892.00,0.0416
2891.00,0.0416
2890.00,0.0417
2889.00,0.0417
2888.00,0.0418
2887.00,0.0418
2886.00,0.0419
2885.00,0.0419
2884.00,0.0420
2883.00,0.0421
2882.00,0.0422
2881.00,0.0423
2880.00,0.0424
2879.00,0.0426
2878.00,0.0428
2877.00,0.0430
2876.00,0.0431
2875.00,0.0433
2874.00,0.0435
2873.00,0.0436
2872.00,0.0437
2871.00,0.0438
2870.00,0.0438
2869.00,0.0438
2868.00,0.0438
2867.00,0.0437
2866.00,0.0436
2865.00,0.0435
2864.00,0.0434
2863.00,0.0433
2862.00,0.0431
2861.00,0.0430
2860.00,0.0428
2859.00,0.0427
2858.00,0.0425
2857.00,0.0423
2856.00,0.0422
2855.00,0.0421
2854.00,0.0420
2853.00,0.0418
2852.00,0.0417
2851.00,0.0416
2850.00,0.0416
2849.00,0.0415
2848.00,0.0416
2847.00,0.0417
2846.00,0.0419
2845.00,0.0421
2844.00,0.0424
2843.00,0.0427
2842.00,0.0430
2841.00,0.0433
2840.00,0.0435
2839.00,0.0438
2838.00,0.0440
2837.00,0.0442
2836.00,0.0444
2835.00,0.0446
2834.00,0.0446
2833.00,0.0447
2832.00,0.0447
2831.00,0.0447
2830.00,0.0446
2829.00,0.0446
2828.00,0.0445
2827.00,0.0444
2826.00,0.0443
2825.00,0.0441
2824.00,0.0440
2823.00,0.0439
2822.00,0.0437
2821.00,0.0435
2820.00,0.0433
2819.00,0.0432
2818.00,0.0430
2817.00,0.0429
2816.00,0.0427
2815.00,0.0426
2814.00,0.0424
2813.00,0.0422
2812.00,0.0420
2811.00,0.0418
2810.00,0.0416
2809.00,0.0414
2808.00,0.0412
2807.00,0.0410
2806.00,0.0407
2805.00,0.0405
2804.00,0.0403
2803.00,0.0400
2802.00,0.0398
2801.00,0.0396
2800.00,0.0394
2799.00,0.0391
2798.00,0.0389
2797.00,0.0386
2796.00,0.0384
2795.00,0.0381
2794.00,0.0379
2793.00,0.0377
2792.00,0.0374
2791.00,0.0372
2790.00,0.0370
2789.00,0.0367
2788.00,0.0365
2787.00,0.0363
2786.00,0.0361
2785.00,0.0359
2784.00,0.0357
2783.00,0.0355
2782.00,0.0353
2781.00,0.0352
2780.00,0.0350
2779.00,0.0348
2778.00,0.0347
2777.00,0.0345
2776.00,0.0344
2775.00,0.0342
2774.00,0.0341
2773.00,0.0340
2772.00,0.0339
2771.00,0.0339
2770.00,0.0339
2769.00,0.0338
2768.00,0.0338
2767.00,0.0338
2766.00,0.0338
2765.00,0.0338
2764.00,0.0338
2763.00,0.0338
2762.00,0.0337
2761.00,0.0337
2760.00,0.0337
2759.00,0.0336
2758.00,0.0335
2757.00,0.0334
2756.00,0.0333
2755.00,0.0331
2754.00,0.0330
2753.00,0.0328
2752.00,0.0327
2751.00,0.0325
2750.00,0.0324
2749.00,0.0322
2748.00,0.0320
2747.00,0.0319
2746.00,0.0317
2745.00,0.0316
2744.00,0.0315
2743.00,0.0315
2742.00,0.0314
2741.00,0.0314
2740.00,0.0313
2739.00,0.0313
2738.00,0.0312
2737.00,0.0311
2736.00,0.0311
2735.00,0.0310
2734.00,0.0310
2733.00,0.0309
2732.00,0.0308
2731.00,0.0308
2730.00,0.0308
2729.00,0.0308
2728.00,0.0308
2727.00,0.0308
2726.00,0.0308
2725.00,0.0308
2724.00,0.0309
2723.00,0.0310
2722.00,0.0311
2721.00,0.0313
2720.00,0.0314
2719.00,0.0316
2718.00,0.0318
2717.00,0.0321
2716.00,0.0324
2715.00,0.0328
2714.00,0.0332
2713.00,0.0337
2712.00,0.0343
2711.00,0.0350
2710.00,0.0358
2709.00,0.0365
2708.00,0.0373
2707.00,0.0380
2706.00,0.0387
2705.00,0.0392
2704.00,0.0397
2703.00,0.0401
2702.00,0.0403
2701.00,0.0406
2700.00,0.0407
2699.00,0.0408
2698.00,0.0409
2697.00,0.0409
2696.00,0.0408
2695.00,0.0407
2694.00,0.0406
2693.00,0.0405
2692.00,0.0403
2691.00,0.0402
2690.00,0.0400
2689.00,0.0399
2688.00,0.0397
2687.00,0.0395
2686.00,0.0394
2685.00,0.0392
2684.00,0.0390
2683.00,0.0388
2682.00,0.0387
2681.00,0.0385
2680.00,0.0384
2679.00,0.0384
2678.00,0.0385
2677.00,0.0387
2676.00,0.0390
2675.00,0.0393
2674.00,0.0396
2673.00,0.0398
2672.00,0.0400
2671.00,0.0402
2670.00,0.0403
2669.00,0.0404
2668.00,0.0404
2667.00,0.0405
2666.00,0.0405
2665.00,0.0406
2664.00,0.0406
2663.00,0.0406
2662.00,0.0406
2661.00,0.0407
2660.00,0.0407
2659.00,0.0407
2658.00,0.0407
2657.00,0.0407
2656.00,0.0406
2655.00,0.0406
2654.00,0.0405
2653.00,0.0405
2652.00,0.0404
2651.00,0.0402
2650.00,0.0401
2649.00,0.0400
2648.00,0.0399
2647.00,0.0397
2646.00,0.0395
2645.00,0.0393
2644.00,0.0392
2643.00,0.0390
2642.00,0.0389
2641.00,0.0387
2640.00,0.0386
2639.00,0.0384
2638.00,0.0382
2637.00,0.0381
2636.00,0.0379
2635.00,0.0378
2634.00,0.0376
2633.00,0.0375
2632.00,0.0373
2631.00,0.0371
2630.00,0.0370
2629.00,0.0368
2628.00,0.0367
2627.00,0.0365
2626.00,0.0364
2625.00,0.0363
2624.00,0.0362
2623.00,0.0361
2622.00,0.0360
2621.00,0.0359
2620.00,0.0359
2619.00,0.0358
2618.00,0.0357
2617.00,0.0357
2616.00,0.0356
2615.00,0.0355
2614.00,0.0354
2613.00,0.0353
2612.00,0.0353
2611.00,0.0353
2610.00,0.0353
2609.00,0.0353
2608.00,0.0353
2607.00,0.0353
2606.00,0.0354
2605.00,0.0355
2604.00,0.0357
2603.00,0.0359
2602.00,0.0361
2601.00,0.0365
2600.00,0.0369
2599.00,0.0373
2598.00,0.0378
2597.00,0.0383
2596.00,0.0390
2595.00,0.0396
2594.00,0.0402
2593.00,0.0408
2592.00,0.0414
2591.00,0.0420
2590.00,0.0425
2589.00,0.0428
2588.00,0.0430
2587.00,0.0431
2586.00,0.0430
2585.00,0.0428
2584.00,0.0425
2583.00,0.0421
2582.00,0.0417
2581.00,0.0413
2580.00,0.0408
2579.00,0.0404
2578.00,0.0401
2577.00,0.0397
2576.00,0.0394
2575.00,0.0391
2574.00,0.0387
2573.00,0.0385
2572.00,0.0382
2571.00,0.0380
2570.00,0.0378
2569.00,0.0376
2568.00,0.0375
2567.00,0.0374
2566.00,0.0373
2565.00,0.0373
2564.00,0.0374
2563.00,0.0375
2562.00,0.0377
2561.00,0.0379
2560.00,0.0382
2559.00,0.0385
2558.00,0.0387
2557.00,0.0390
2556.00,0.0394
2555.00,0.0397
2554.00,0.0401
2553.00,0.0404
2552.00,0.0408
2551.00,0.0411
2550.00,0.0414
2549.00,0.0416
2548.00,0.0417
2547.00,0.0418
2546.00,0.0417
2545.00,0.0416
2544.00,0.0414
2543.00,0.0411
2542.00,0.0409
2541.00,0.0406
2540.00,0.0403
2539.00,0.0400
2538.00,0.0396
2537.00,0.0393
2536.00,0.0390
2535.00,0.0387
2534.00,0.0385
2533.00,0.0382
2532.00,0.0380
2531.00,0.0378
2530.00,0.0376
2529.00,0.0374
2528.00,0.0372
2527.00,0.0371
2526.00,0.0369
2525.00,0.0368
2524.00,0.0366
2523.00,0.0364
2522.00,0.0362
2521.00,0.0360
2520.00,0.0358
2519.00,0.0355
2518.00,0.0353
2517.00,0.0352
2516.00,0.0350
2515.00,0.0349
2514.00,0.0347
2513.00,0.0346
2512.00,0.0344
2511.00,0.0342
2510.00,0.0339
2509.00,0.0337
2508.00,0.0335
2507.00,0.0332
2506.00,0.0330
2505.00,0.0328
2504.00,0.0326
2503.00,0.0324
2502.00,0.0321
2501.00,0.0319
2500.00,0.0317
2499.00,0.0315
2498.00,0.0313
2497.00,0.0311
2496.00,0.0309
2495.00,0.0307
2494.00,0.0305
2493.00,0.0303
2492.00,0.0302
2491.00,0.0300
2490.00,0.0297
2489.00,0.0296
2488.00,0.0294
2487.00,0.0292
2486.00,0.0290
2485.00,0.0288
2484.00,0.0286
2483.00,0.0285
2482.00,0.0283
2481.00,0.0281
2480.00,0.0280
2479.00,0.0278
2478.00,0.0277
2477.00,0.0275
2476.00,0.0274
2475.00,0.0273
2474.00,0.0272
2473.00,0.0270
2472.00,0.0269
2471.00,0.0267
2470.00,0.0266
2469.00,0.0265
2468.00,0.0264
2467.00,0.0263
2466.00,0.0262
2465.00,0.0260
2464.00,0.0259
2463.00,0.0258
2462.00,0.0257
2461.00,0.0256
2460.00,0.0255
2459.00,0.0255
2458.00,0.0254
2457.00,0.0253
2456.00,0.0252
2455.00,0.0250
2454.00,0.0248
2453.00,0.0247
2452.00,0.0246
2451.00,0.0245
2450.00,0.0244
2449.00,0.0243
2448.00,0.0242
2447.00,0.0241
2446.00,0.0240
2445.00,0.0239
2444.00,0.0238
2443.00,0.0237
2442.00,0.0236
2441.00,0.0235
2440.00,0.0235
2439.00,0.0235
2438.00,0.0235
2437.00,0.0235
2436.00,0.0234
2435.00,0.0234
2434.00,0.0233
2433.00,0.0232
2432.00,0.0231
2431.00,0.0230
2430.00,0.0229
2429.00,0.0229
2428.00,0.0228
2427.00,0.0227
2426.00,0.0226
2425.00,0.0225
2424.00,0.0224
2423.00,0.0223
2422.00,0.0222
2421.00,0.0222
2420.00,0.0222
2419.00,0.0221
2418.00,0.0221
2417.00,0.0220
2416.00,0.0220
2415.00,0.0220
2414.00,0.0220
2413.00,0.0219
2412.00,0.0219
2411.00,0.0218
2410.00,0.0218
2409.00,0.0217
2408.00,0.0217
2407.00,0.0217
2406.00,0.0216
2405.00,0.0216
2404.00,0.0216
2403.00,0.0216
2402.00,0.0216
2401.00,0.0216
2400.00,0.0216
2399.00,0.0216
2398.00,0.0216
2397.00,0.0216
2396.00,0.0216
2395.00,0.0216
2394.00,0.0216
2393.00,0.0215
2392.00,0.0214
2391.00,0.0213
2390.00,0.0212
2389.00,0.0210
2388.00,0.0209
2387.00,0.0208
2386.00,0.0206
2385.00,0.0205
2384.00,0.0203
2383.00,0.0202
2382.00,0.0201
2381.00,0.0199
2380.00,0.0198
2379.00,0.0197
2378.00,0.0196
2377.00,0.0196
2376.00,0.0195
2375.00,0.0194
2374.00,0.0193
2373.00,0.0192
2372.00,0.0191
2371.00,0.0190
2370.00,0.0189
2369.00,0.0188
2368.00,0.0187
2367.00,0.0185
2366.00,0.0184
2365.00,0.0183
2364.00,0.0183
2363.00,0.0183
2362.00,0.0183
2361.00,0.0182
2360.00,0.0182
2359.00,0.0181
2358.00,0.0180
2357.00,0.0180
2356.00,0.0179
2355.00,0.0179
2354.00,0.0178
2353.00,0.0177
2352.00,0.0176
2351.00,0.0175
2350.00,0.0174
2349.00,0.0174
2348.00,0.0174
2347.00,0.0174
2346.00,0.0174
2345.00,0.0174
2344.00,0.0173
2343.00,0.0173
2342.00,0.0172
2341.00,0.0171
2340.00,0.0171
2339.00,0.0171
2338.00,0.0171
2337.00,0.0171
2336.00,0.0171
2335.00,0.0170
2334.00,0.0170
2333.00,0.0169
2332.00,0.0168
2331.00,0.0168
2330.00,0.0168
2329.00,0.0168
2328.00,0.0170
2327.00,0.0173
2326.00,0.0175
2325.00,0.0175
2324.00,0.0175
2323.00,0.0173
2322.00,0.0170
2321.00,0.0168
2320.00,0.0167
2319.00,0.0166
2318.00,0.0165
2317.00,0.0164
2316.00,0.0163
2315.00,0.0162
2314.00,0.0161
2313.00,0.0160
2312.00,0.0160
2311.00,0.0159
2310.00,0.0158
2309.00,0.0157
2308.00,0.0157
2307.00,0.0157
2306.00,0.0157
2305.00,0.0158
2304.00,0.0158
2303.00,0.0158
2302.00,0.0158
2301.00,0.0158
2300.00,0.0158
2299.00,0.0159
2298.00,0.0159
2297.00,0.0159
2296.00,0.0160
2295.00,0.0160
2294.00,0.0161
2293.00,0.0162
2292.00,0.0163
2291.00,0.0164
2290.00,0.0164
2289.00,0.0164
2288.00,0.0164
2287.00,0.0164
2286.00,0.0163
2285.00,0.0162
2284.00,0.0162
2283.00,0.0160
2282.00,0.0159
2281.00,0.0158
2280.00,0.0157
2279.00,0.0156
2278.00,0.0155
2277.00,0.0155
2276.00,0.0155
2275.00,0.0154
2274.00,0.0152
2273.00,0.0151
2272.00,0.0151
2271.00,0.0150
2270.00,0.0149
2269.00,0.0148
2268.00,0.0147
2267.00,0.0147
2266.00,0.0147
2265.00,0.0146
2264.00,0.0146
2263.00,0.0145
2262.00,0.0145
2261.00,0.0145
2260.00,0.0146
2259.00,0.0146
2258.00,0.0146
2257.00,0.0145
2256.00,0.0144
2255.00,0.0143
2254.00,0.0142
2253.00,0.0142
2252.00,0.0142
2251.00,0.0143
2250.00,0.0142
2249.00,0.0142
2248.00,0.0141
2247.00,0.0141
2246.00,0.0141
2245.00,0.0140
2244.00,0.0140
2243.00,0.0140
2242.00,0.0139
2241.00,0.0138
2240.00,0.0138
2239.00,0.0138
2238.00,0.0138
2237.00,0.0138
2236.00,0.0139
2235.00,0.0139
2234.00,0.0139
2233.00,0.0139
2232.00,0.0140
2231.00,0.0141
2230.00,0.0141
2229.00,0.0140
2228.00,0.0140
2227.00,0.0140
2226.00,0.0139
2225.00,0.0139
2224.00,0.0139
2223.00,0.0138
2222.00,0.0137
2221.00,0.0137
2220.00,0.0137
2219.00,0.0137
2218.00,0.0136
2217.00,0.0136
2216.00,0.0135
2215.00,0.0135
2214.00,0.0135
2213.00,0.0135
2212.00,0.0135
2211.00,0.0135
2210.00,0.0134
2209.00,0.0132
2208.00,0.0131
2207.00,0.0131
2206.00,0.0131
2205.00,0.0131
2204.00,0.0133
2203.00,0.0134
2202.00,0.0134
2201.00,0.0134
2200.00,0.0135
2199.00,0.0134
2198.00,0.0133
2197.00,0.0132
2196.00,0.0131
2195.00,0.0129
2194.00,0.0127
2193.00,0.0126
2192.00,0.0126
2191.00,0.0125
2190.00,0.0125
2189.00,0.0126
2188.00,0.0127
2187.00,0.0128
2186.00,0.0127
2185.00,0.0126
2184.00,0.0124
2183.00,0.0122
2182.00,0.0120
2181.00,0.0119
2180.00,0.0119
2179.00,0.0118
2178.00,0.0115
2177.00,0.0113
2176.00,0.0113
2175.00,0.0113
2174.00,0.0114
2173.00,0.0116
2172.00,0.0118
2171.00,0.0120
2170.00,0.0122
2169.00,0.0125
2168.00,0.0127
2167.00,0.0128
2166.00,0.0127
2165.00,0.0126
2164.00,0.0127
2163.00,0.0126
2162.00,0.0121
2161.00,0.0112
2160.00,0.0101
2159.00,0.0091
2158.00,0.0085
2157.00,0.0085
2156.00,0.0089
2155.00,0.0092
2154.00,0.0095
2153.00,0.0098
2152.00,0.0102
2151.00,0.0104
2150.00,0.0105
2149.00,0.0105
2148.00,0.0106
2147.00,0.0106
2146.00,0.0106
2145.00,0.0107
2144.00,0.0108
2143.00,0.0108
2142.00,0.0107
2141.00,0.0107
2140.00,0.0107
2139.00,0.0107
2138.00,0.0106
2137.00,0.0104
2136.00,0.0102
2135.00,0.0101
2134.00,0.0100
2133.00,0.0100
2132.00,0.0102
2131.00,0.0103
2130.00,0.0104
2129.00,0.0105
2128.00,0.0107
2127.00,0.0109
2126.00,0.0109
2125.00,0.0109
2124.00,0.0109
2123.00,0.0109
2122.00,0.0109
2121.00,0.0109
2120.00,0.0110
2119.00,0.0111
2118.00,0.0111
2117.00,0.0112
2116.00,0.0114
2115.00,0.0115
2114.00,0.0115
2113.00,0.0116
2112.00,0.0117
2111.00,0.0118
2110.00,0.0119
2109.00,0.0120
2108.00,0.0121
2107.00,0.0122
2106.00,0.0122
2105.00,0.0123
2104.00,0.0124
2103.00,0.0125
2102.00,0.0126
2101.00,0.0126
2100.00,0.0127
2099.00,0.0126
2098.00,0.0125
2097.00,0.0123
2096.00,0.0122
2095.00,0.0121
2094.00,0.0121
2093.00,0.0122
2092.00,0.0123
2091.00,0.0124
2090.00,0.0124
2089.00,0.0124
2088.00,0.0125
2087.00,0.0125
2086.00,0.0125
2085.00,0.0124
2084.00,0.0124
2083.00,0.0124
2082.00,0.0124
2081.00,0.0124
2080.00,0.0124
2079.00,0.0124
2078.00,0.0123
2077.00,0.0121
2076.00,0.0121
2075.00,0.0120
2074.00,0.0120
2073.00,0.0120
2072.00,0.0120
2071.00,0.0120
2070.00,0.0119
2069.00,0.0119
2068.00,0.0119
2067.00,0.0119
2066.00,0.0119
2065.00,0.0119
2064.00,0.0120
2063.00,0.0121
2062.00,0.0121
2061.00,0.0122
2060.00,0.0124
2059.00,0.0125
2058.00,0.0124
2057.00,0.0124
2056.00,0.0125
2055.00,0.0126
2054.00,0.0128
2053.00,0.0132
2052.00,0.0136
2051.00,0.0136
2050.00,0.0133
2049.00,0.0129
2048.00,0.0126
2047.00,0.0125
2046.00,0.0123
2045.00,0.0122
2044.00,0.0123
2043.00,0.0123
2042.00,0.0123
2041.00,0.0123
2040.00,0.0124
2039.00,0.0125
2038.00,0.0125
2037.00,0.0125
2036.00,0.0124
2035.00,0.0123
2034.00,0.0119
2033.00,0.0117
2032.00,0.0117
2031.00,0.0117
2030.00,0.0115
2029.00,0.0112
2028.00,0.0110
2027.00,0.0108
2026.00,0.0105
2025.00,0.0102
2024.00,0.0102
2023.00,0.0101
2022.00,0.0099
2021.00,0.0096
2020.00,0.0096
2019.00,0.0095
2018.00,0.0094
2017.00,0.0093
2016.00,0.0095
2015.00,0.0096
2014.00,0.0096
2013.00,0.0096
2012.00,0.0097
2011.00,0.0099
2010.00,0.0098
2009.00,0.0097
2008.00,0.0097
2007.00,0.0096
2006.00,0.0095
2005.00,0.0097
2004.00,0.0101
2003.00,0.0104
2002.00,0.0106
2001.00,0.0108
2000.00,0.0111
1999.00,0.0113
1998.00,0.0114
1997.00,0.0114
1996.00,0.0115
1995.00,0.0115
1994.00,0.0113
1993.00,0.0111
1992.00,0.0110
1991.00,0.0108
1990.00,0.0107
1989.00,0.0106
1988.00,0.0107
1987.00,0.0107
1986.00,0.0106
1985.00,0.0106
1984.00,0.0109
1983.00,0.0114
1982.00,0.0117
1981.00,0.0119
1980.00,0.0119
1979.00,0.0115
1978.00,0.0109
1977.00,0.0106
1976.00,0.0108
1975.00,0.0110
1974.00,0.0111
1973.00,0.0113
1972.00,0.0117
1971.00,0.0121
1970.00,0.0123
1969.00,0.0124
1968.00,0.0125
1967.00,0.0125
1966.00,0.0122
1965.00,0.0120
1964.00,0.0119
1963.00,0.0116
1962.00,0.0111
1961.00,0.0107
1960.00,0.0105
1959.00,0.0104
1958.00,0.0103
1957.00,0.0103
1956.00,0.0105
1955.00,0.0107
1954.00,0.0107
1953.00,0.0108
1952.00,0.0108
1951.00,0.0108
1950.00,0.0106
1949.00,0.0106
1948.00,0.0108
1947.00,0.0110
1946.00,0.0111
1945.00,0.0111
1944.00,0.0112
1943.00,0.0111
1942.00,0.0110
1941.00,0.0109
1940.00,0.0110
1939.00,0.0110
1938.00,0.0110
1937.00,0.0110
1936.00,0.0112
1935.00,0.0113
1934.00,0.0113
1933.00,0.0113
1932.00,0.0113
1931.00,0.0113
1930.00,0.0111
1929.00,0.0110
1928.00,0.0109
1927.00,0.0108
1926.00,0.0107
1925.00,0.0106
1924.00,0.0107
1923.00,0.0108
1922.00,0.0108
1921.00,0.0108
1920.00,0.0109
1919.00,0.0109
1918.00,0.0107
1917.00,0.0106
1916.00,0.0106
1915.00,0.0108
1914.00,0.0109
1913.00,0.0109
1912.00,0.0110
1911.00,0.0110
1910.00,0.0109
1909.00,0.0109
1908.00,0.0110
1907.00,0.0111
1906.00,0.0111
1905.00,0.0111
1904.00,0.0113
1903.00,0.0114
1902.00,0.0114
1901.00,0.0114
1900.00,0.0115
1899.00,0.0116
1898.00,0.0116
1897.00,0.0117
1896.00,0.0119
1895.00,0.0120
1894.00,0.0120
1893.00,0.0120
1892.00,0.0122
1891.00,0.0123
1890.00,0.0123
1889.00,0.0122
1888.00,0.0122
1887.00,0.0122
1886.00,0.0122
1885.00,0.0121
1884.00,0.0121
1883.00,0.0121
1882.00,0.0119
1881.00,0.0118
1880.00,0.0117
1879.00,0.0116
1878.00,0.0115
1877.00,0.0114
1876.00,0.0114
1875.00,0.0114
1874.00,0.0114
1873.00,0.0114
1872.00,0.0114
1871.00,0.0115
1870.00,0.0114
1869.00,0.0113
1868.00,0.0114
1867.00,0.0116
1866.00,0.0117
1865.00,0.0118
1864.00,0.0120
1863.00,0.0121
1862.00,0.0123
1861.00,0.0125
1860.00,0.0128
1859.00,0.0132
1858.00,0.0136
1857.00,0.0139
1856.00,0.0143
1855.00,0.0146
1854.00,0.0147
1853.00,0.0147
1852.00,0.0147
1851.00,0.0146
1850.00,0.0144
1849.00,0.0142
1848.00,0.0142
1847.00,0.0142
1846.00,0.0141
1845.00,0.0140
1844.00,0.0138
1843.00,0.0139
1842.00,0.0141
1841.00,0.0144
1840.00,0.0147
1839.00,0.0148
1838.00,0.0147
1837.00,0.0146
1836.00,0.0144
1835.00,0.0142
1834.00,0.0139
1833.00,0.0136
1832.00,0.0134
1831.00,0.0130
1830.00,0.0126
1829.00,0.0123
1828.00,0.0122
1827.00,0.0121
1826.00,0.0120
1825.00,0.0117
1824.00,0.0117
1823.00,0.0117
1822.00,0.0118
1821.00,0.0119
1820.00,0.0119
1819.00,0.0119
1818.00,0.0118
1817.00,0.0119
1816.00,0.0122
1815.00,0.0125
1814.00,0.0128
1813.00,0.0132
1812.00,0.0137
1811.00,0.0142
1810.00,0.0147
1809.00,0.0153
1808.00,0.0158
1807.00,0.0163
1806.00,0.0167
1805.00,0.0168
1804.00,0.0169
1803.00,0.0168
1802.00,0.0165
1801.00,0.0161
1800.00,0.0158
1799.00,0.0155
1798.00,0.0153
1797.00,0.0151
1796.00,0.0151
1795.00,0.0150
1794.00,0.0148
1793.00,0.0144
1792.00,0.0142
1791.00,0.0141
1790.00,0.0142
1789.00,0.0145
1788.00,0.0150
1787.00,0.0154
1786.00,0.0157
1785.00,0.0161
1784.00,0.0169
1783.00,0.0178
1782.00,0.0189
1781.00,0.0202
1780.00,0.0219
1779.00,0.0240
1778.00,0.0264
1777.00,0.0292
1776.00,0.0326
1775.00,0.0362
1774.00,0.0402
1773.00,0.0445
1772.00,0.0491
1771.00,0.0534
1770.00,0.0569
1769.00,0.0600
1768.00,0.0626
1767.00,0.0648
1766.00,0.0665
1765.00,0.0681
1764.00,0.0699
1763.00,0.0721
1762.00,0.0749
1761.00,0.0788
1760.00,0.0838
1759.00,0.0896
1758.00,0.0960
1757.00,0.1034
1756.00,0.1117
1755.00,0.1202
1754.00,0.1285
1753.00,0.1364
1752.00,0.1433
1751.00,0.1480
1750.00,0.1498
1749.00,0.1485
1748.00,0.1448
1747.00,0.1391
1746.00,0.1323
1745.00,0.1249
1744.00,0.1173
1743.00,0.1096
1742.00,0.1022
1741.00,0.0951
1740.00,0.0881
1739.00,0.0817
1738.00,0.0765
1737.00,0.0726
1736.00,0.0689
1735.00,0.0644
1734.00,0.0593
1733.00,0.0551
1732.00,0.0524
1731.00,0.0504
1730.00,0.0484
1729.00,0.0465
1728.00,0.0452
1727.00,0.0442
1726.00,0.0433
1725.00,0.0427
1724.00,0.0421
1723.00,0.0416
1722.00,0.0410
1721.00,0.0405
1720.00,0.0401
1719.00,0.0396
1718.00,0.0389
1717.00,0.0386
1716.00,0.0388
1715.00,0.0391
1714.00,0.0395
1713.00,0.0404
1712.00,0.0418
1711.00,0.0434
1710.00,0.0451
1709.00,0.0473
1708.00,0.0502
1707.00,0.0541
1706.00,0.0591
1705.00,0.0655
1704.00,0.0727
1703.00,0.0800
1702.00,0.0879
1701.00,0.0978
1700.00,0.1095
1699.00,0.1206
1698.00,0.1298
1697.00,0.1380
1696.00,0.1463
1695.00,0.1542
1694.00,0.1610
1693.00,0.1671
1692.00,0.1730
1691.00,0.1787
1690.00,0.1844
1689.00,0.1901
1688.00,0.1957
1687.00,0.2012
1686.00,0.2062
1685.00,0.2103
1684.00,0.2136
1683.00,0.2165
1682.00,0.2192
1681.00,0.2211
1680.00,0.2220
1679.00,0.2215
1678.00,0.2197
1677.00,0.2159
1676.00,0.2092
1675.00,0.2005
1674.00,0.1924
1673.00,0.1858
1672.00,0.1796
1671.00,0.1724
1670.00,0.1639
1669.00,0.1554
1668.00,0.1479
1667.00,0.1419
1666.00,0.1368
1665.00,0.1315
1664.00,0.1255
1663.00,0.1188
1662.00,0.1125
1661.00,0.1072
1660.00,0.1026
1659.00,0.0984
1658.00,0.0947
1657.00,0.0914
1656.00,0.0885
1655.00,0.0854
1654.00,0.0815
1653.00,0.0769
1652.00,0.0733
1651.00,0.0715
1650.00,0.0705
1649.00,0.0691
1648.00,0.0674
1647.00,0.0656
1646.00,0.0642
1645.00,0.0633
1644.00,0.0627
1643.00,0.0624
1642.00,0.0620
1641.00,0.0616
1640.00,0.0609
1639.00,0.0601
1638.00,0.0592
1637.00,0.0579
1636.00,0.0558
1635.00,0.0535
1634.00,0.0516
1633.00,0.0504
1632.00,0.0494
1631.00,0.0483
1630.00,0.0471
1629.00,0.0458
1628.00,0.0444
1627.00,0.0432
1626.00,0.0423
1625.00,0.0414
1624.00,0.0404
1623.00,0.0392
1622.00,0.0383
1621.00,0.0377
1620.00,0.0373
1619.00,0.0369
1618.00,0.0367
1617.00,0.0364
1616.00,0.0363
1615.00,0.0367
1614.00,0.0377
1613.00,0.0398
1612.00,0.0436
1611.00,0.0507
1610.00,0.0633
1609.00,0.0828
1608.00,0.1087
1607.00,0.1366
1606.00,0.1588
1605.00,0.1682
1604.00,0.1627
1603.00,0.1460
1602.00,0.1251
1601.00,0.1057
1600.00,0.0906
1599.00,0.0799
1598.00,0.0728
1597.00,0.0677
1596.00,0.0634
1595.00,0.0592
1594.00,0.0552
1593.00,0.0516
1592.00,0.0487
1591.00,0.0463
1590.00,0.0445
1589.00,0.0431
1588.00,0.0418
1587.00,0.0408
1586.00,0.0400
1585.00,0.0394
1584.00,0.0391
1583.00,0.0392
1582.00,0.0399
1581.00,0.0412
1580.00,0.0431
1579.00,0.0453
1578.00,0.0475
1577.00,0.0495
1576.00,0.0503
1575.00,0.0499
1574.00,0.0485
1573.00,0.0468
1572.00,0.0448
1571.00,0.0425
1570.00,0.0401
1569.00,0.0380
1568.00,0.0365
1567.00,0.0356
1566.00,0.0349
1565.00,0.0344
1564.00,0.0339
1563.00,0.0338
1562.00,0.0338
1561.00,0.0335
1560.00,0.0326
1559.00,0.0312
1558.00,0.0300
1557.00,0.0292
1556.00,0.0288
1555.00,0.0282
1554.00,0.0274
1553.00,0.0265
1552.00,0.0258
1551.00,0.0251
1550.00,0.0244
1549.00,0.0239
1548.00,0.0234
1547.00,0.0231
1546.00,0.0228
1545.00,0.0224
1544.00,0.0221
1543.00,0.0219
1542.00,0.0219
1541.00,0.0218
1540.00,0.0216
1539.00,0.0213
1538.00,0.0210
1537.00,0.0210
1536.00,0.0210
1535.00,0.0208
1534.00,0.0204
1533.00,0.0202
1532.00,0.0201
1531.00,0.0203
1530.00,0.0206
1529.00,0.0207
1528.00,0.0208
1527.00,0.0207
1526.00,0.0208
1525.00,0.0210
1524.00,0.0213
1523.00,0.0216
1522.00,0.0218
1521.00,0.0219
1520.00,0.0219
1519.00,0.0219
1518.00,0.0219
1517.00,0.0218
1516.00,0.0216
1515.00,0.0215
1514.00,0.0214
1513.00,0.0213
1512.00,0.0211
1511.00,0.0209
1510.00,0.0207
1509.00,0.0205
1508.00,0.0201
1507.00,0.0194
1506.00,0.0184
1505.00,0.0176
1504.00,0.0175
1503.00,0.0175
1502.00,0.0174
1501.00,0.0173
1500.00,0.0171
1499.00,0.0169
1498.00,0.0170
1497.00,0.0172
1496.00,0.0176
1495.00,0.0183
1494.00,0.0193
1493.00,0.0208
1492.00,0.0230
1491.00,0.0263
1490.00,0.0308
1489.00,0.0363
1488.00,0.0418
1487.00,0.0471
1486.00,0.0523
1485.00,0.0573
1484.00,0.0616
1483.00,0.0642
1482.00,0.0636
1481.00,0.0596
1480.00,0.0532
1479.00,0.0464
1478.00,0.0403
1477.00,0.0353
1476.00,0.0318
1475.00,0.0294
1474.00,0.0280
1473.00,0.0272
1472.00,0.0271
1471.00,0.0279
1470.00,0.0295
1469.00,0.0321
1468.00,0.0355
1467.00,0.0404
1466.00,0.0477
1465.00,0.0583
1464.00,0.0714
1463.00,0.0849
1462.00,0.0978
1461.00,0.1097
1460.00,0.1203
1459.00,0.1298
1458.00,0.1383
1457.00,0.1443
1456.00,0.1456
1455.00,0.1421
1454.00,0.1349
1453.00,0.1249
1452.00,0.1133
1451.00,0.1020
1450.00,0.0920
1449.00,0.0833
1448.00,0.0755
1447.00,0.0689
1446.00,0.0640
1445.00,0.0607
1444.00,0.0588
1443.00,0.0580
1442.00,0.0583
1441.00,0.0594
1440.00,0.0609
1439.00,0.0624
1438.00,0.0636
1437.00,0.0642
1436.00,0.0643
1435.00,0.0642
1434.00,0.0640
1433.00,0.0634
1432.00,0.0625
1431.00,0.0617
1430.00,0.0610
1429.00,0.0609
1428.00,0.0614
1427.00,0.0627
1426.00,0.0650
1425.00,0.0687
1424.00,0.0741
1423.00,0.0809
1422.00,0.0882
1421.00,0.0953
1420.00,0.1009
1419.00,0.1038
1418.00,0.1035
1417.00,0.1010
1416.00,0.0973
1415.00,0.0932
1414.00,0.0894
1413.00,0.0862
1412.00,0.0835
1411.00,0.0813
1410.00,0.0796
1409.00,0.0781
1408.00,0.0762
1407.00,0.0737
1406.00,0.0705
1405.00,0.0667
1404.00,0.0628
1403.00,0.0592
1402.00,0.0560
1401.00,0.0529
1400.00,0.0498
1399.00,0.0468
1398.00,0.0443
1397.00,0.0423
1396.00,0.0404
1395.00,0.0385
1394.00,0.0369
1393.00,0.0356
1392.00,0.0348
1391.00,0.0342
1390.00,0.0337
1389.00,0.0333
1388.00,0.0329
1387.00,0.0328
1386.00,0.0330
1385.00,0.0336
1384.00,0.0345
1383.00,0.0358
1382.00,0.0376
1381.00,0.0400
1380.00,0.0432
1379.00,0.0474
1378.00,0.0527
1377.00,0.0586
1376.00,0.0649
1375.00,0.0713
1374.00,0.0771
1373.00,0.0819
1372.00,0.0855
1371.00,0.0881
1370.00,0.0899
1369.00,0.0909
1368.00,0.0911
1367.00,0.0905
1366.00,0.0889
1365.00,0.0862
1364.00,0.0820
1363.00,0.0763
1362.00,0.0697
1361.00,0.0630
1360.00,0.0568
1359.00,0.0513
1358.00,0.0467
1357.00,0.0428
1356.00,0.0395
1355.00,0.0368
1354.00,0.0346
1353.00,0.0327
1352.00,0.0312
1351.00,0.0299
1350.00,0.0289
1349.00,0.0281
1348.00,0.0275
1347.00,0.0269
1346.00,0.0264
1345.00,0.0261
1344.00,0.0258
1343.00,0.0255
1342.00,0.0254
1341.00,0.0254
1340.00,0.0255
1339.00,0.0257
1338.00,0.0261
1337.00,0.0267
1336.00,0.0275
1335.00,0.0285
1334.00,0.0297
1333.00,0.0311
1332.00,0.0328
1331.00,0.0348
1330.00,0.0371
1329.00,0.0395
1328.00,0.0420
1327.00,0.0443
1326.00,0.0463
1325.00,0.0481
1324.00,0.0500
1323.00,0.0521
1322.00,0.0547
1321.00,0.0583
1320.00,0.0630
1319.00,0.0689
1318.00,0.0763
1317.00,0.0851
1316.00,0.0950
1315.00,0.1057
1314.00,0.1171
1313.00,0.1287
1312.00,0.1399
1311.00,0.1504
1310.00,0.1598
1309.00,0.1682
1308.00,0.1753
1307.00,0.1811
1306.00,0.1854
1305.00,0.1880
1304.00,0.1886
1303.00,0.1871
1302.00,0.1837
1301.00,0.1795
1300.00,0.1755
1299.00,0.1728
1298.00,0.1719
1297.00,0.1729
1296.00,0.1753
1295.00,0.1780
1294.00,0.1802
1293.00,0.1814
1292.00,0.1814
1291.00,0.1807
1290.00,0.1797
1289.00,0.1789
1288.00,0.1782
1287.00,0.1772
1286.00,0.1753
1285.00,0.1718
1284.00,0.1667
1283.00,0.1598
1282.00,0.1518
1281.00,0.1431
1280.00,0.1342
1279.00,0.1257
1278.00,0.1180
1277.00,0.1116
1276.00,0.1066
1275.00,0.1031
1274.00,0.1009
1273.00,0.0993
1272.00,0.0978
1271.00,0.0956
1270.00,0.0925
1269.00,0.0884
1268.00,0.0837
1267.00,0.0787
1266.00,0.0743
1265.00,0.0708
1264.00,0.0684
1263.00,0.0672
1262.00,0.0669
1261.00,0.0674
1260.00,0.0687
1259.00,0.0708
1258.00,0.0735
1257.00,0.0754
1256.00,0.0753
1255.00,0.0726
1254.00,0.0680
1253.00,0.0628
1252.00,0.0580
1251.00,0.0542
1250.00,0.0514
1249.00,0.0495
1248.00,0.0481
1247.00,0.0470
1246.00,0.0462
1245.00,0.0455
1244.00,0.0447
1243.00,0.0439
1242.00,0.0430
1241.00,0.0420
1240.00,0.0409
1239.00,0.0398
1238.00,0.0388
1237.00,0.0380
1236.00,0.0375
1235.00,0.0374
1234.00,0.0378
1233.00,0.0388
1232.00,0.0406
1231.00,0.0435
1230.00,0.0477
1229.00,0.0539
1228.00,0.0622
1227.00,0.0729
1226.00,0.0859
1225.00,0.1008
1224.00,0.1166
1223.00,0.1323
1222.00,0.1464
1221.00,0.1580
1220.00,0.1660
1219.00,0.1699
1218.00,0.1698
1217.00,0.1662
1216.00,0.1602
1215.00,0.1531
1214.00,0.1462
1213.00,0.1403
1212.00,0.1355
1211.00,0.1317
1210.00,0.1280
1209.00,0.1240
1208.00,0.1192
1207.00,0.1136
1206.00,0.1075
1205.00,0.1017
1204.00,0.0967
1203.00,0.0934
1202.00,0.0922
1201.00,0.0933
1200.00,0.0966
1199.00,0.1020
1198.00,0.1091
1197.00,0.1176
1196.00,0.1274
1195.00,0.1384
1194.00,0.1506
1193.00,0.1639
1192.00,0.1784
1191.00,0.1940
1190.00,0.2103
1189.00,0.2270
1188.00,0.2430
1187.00,0.2570
1186.00,0.2681
1185.00,0.2755
1184.00,0.2792
1183.00,0.2795
1182.00,0.2773
1181.00,0.2735
1180.00,0.2686
1179.00,0.2631
1178.00,0.2573
1177.00,0.2512
1176.00,0.2449
1175.00,0.2383
1174.00,0.2314
1173.00,0.2244
1172.00,0.2174
1171.00,0.2106
1170.00,0.2039
1169.00,0.1977
1168.00,0.1918
1167.00,0.1863
1166.00,0.1813
1165.00,0.1767
1164.00,0.1726
1163.00,0.1688
1162.00,0.1653
1161.00,0.1620
1160.00,0.1587
1159.00,0.1552
1158.00,0.1514
1157.00,0.1472
1156.00,0.1424
1155.00,0.1373
1154.00,0.1321
1153.00,0.1271
1152.00,0.1225
1151.00,0.1182
1150.00,0.1143
1149.00,0.1110
1148.00,0.1086
1147.00,0.1072
1146.00,0.1072
1145.00,0.1084
1144.00,0.1100
1143.00,0.1106
1142.00,0.1098
1141.00,0.1081
1140.00,0.1075
1139.00,0.1100
1138.00,0.1174
1137.00,0.1290
1136.00,0.1410
1135.00,0.1477
1134.00,0.1454
1133.00,0.1348
1132.00,0.1206
1131.00,0.1069
1130.00,0.0961
1129.00,0.0882
1128.00,0.0824
1127.00,0.0780
1126.00,0.0745
1125.00,0.0713
1124.00,0.0683
1123.00,0.0656
1122.00,0.0631
1121.00,0.0608
1120.00,0.0587
1119.00,0.0569
1118.00,0.0552
1117.00,0.0537
1116.00,0.0523
1115.00,0.0510
1114.00,0.0500
1113.00,0.0491
1112.00,0.0486
1111.00,0.0484
1110.00,0.0488
1109.00,0.0495
1108.00,0.0508
1107.00,0.0524
1106.00,0.0542
1105.00,0.0561
1104.00,0.0581
1103.00,0.0606
1102.00,0.0638
1101.00,0.0683
1100.00,0.0750
1099.00,0.0845
1098.00,0.0969
1097.00,0.1109
1096.00,0.1243
1095.00,0.1344
1094.00,0.1393
1093.00,0.1391
1092.00,0.1355
1091.00,0.1307
1090.00,0.1268
1089.00,0.1248
1088.00,0.1248
1087.00,0.1258
1086.00,0.1266
1085.00,0.1262
1084.00,0.1238
1083.00,0.1195
1082.00,0.1138
1081.00,0.1073
1080.00,0.1008
1079.00,0.0947
1078.00,0.0892
1077.00,0.0843
1076.00,0.0800
1075.00,0.0763
1074.00,0.0730
1073.00,0.0700
1072.00,0.0674
1071.00,0.0651
1070.00,0.0631
1069.00,0.0613
1068.00,0.0596
1067.00,0.0581
1066.00,0.0568
1065.00,0.0556
1064.00,0.0545
1063.00,0.0536
1062.00,0.0527
1061.00,0.0520
1060.00,0.0513
1059.00,0.0506
1058.00,0.0501
1057.00,0.0497
1056.00,0.0494
1055.00,0.0491
1054.00,0.0489
1053.00,0.0489
1052.00,0.0490
1051.00,0.0494
1050.00,0.0502
1049.00,0.0515
1048.00,0.0536
1047.00,0.0565
1046.00,0.0603
1045.00,0.0651
1044.00,0.0705
1043.00,0.0764
1042.00,0.0825
1041.00,0.0884
1040.00,0.0933
1039.00,0.0965
1038.00,0.0975
1037.00,0.0963
1036.00,0.0934
1035.00,0.0898
1034.00,0.0865
1033.00,0.0838
1032.00,0.0818
1031.00,0.0801
1030.00,0.0782
1029.00,0.0758
1028.00,0.0730
1027.00,0.0701
1026.00,0.0672
1025.00,0.0649
1024.00,0.0633
1023.00,0.0625
1022.00,0.0628
1021.00,0.0644
1020.00,0.0676
1019.00,0.0729
1018.00,0.0807
1017.00,0.0912
1016.00,0.1041
1015.00,0.1180
1014.00,0.1307
1013.00,0.1397
1012.00,0.1433
1011.00,0.1413
1010.00,0.1352
1009.00,0.1266
1008.00,0.1173
1007.00,0.1085
1006.00,0.1007
1005.00,0.0944
1004.00,0.0897
1003.00,0.0868
1002.00,0.0849
1001.00,0.0831
1000.00,0.0804
999.00,0.0764
998.00,0.0719
997.00,0.0675
996.00,0.0637
995.00,0.0608
994.00,0.0584
993.00,0.0565
992.00,0.0549
991.00,0.0535
990.00,0.0523
989.00,0.0513
988.00,0.0505
987.00,0.0497
986.00,0.0490
985.00,0.0484
984.00,0.0480
983.00,0.0476
982.00,0.0474
981.00,0.0474
980.00,0.0477
979.00,0.0486
978.00,0.0504
977.00,0.0537
976.00,0.0590
975.00,0.0662
974.00,0.0746
973.00,0.0829
972.00,0.0896
971.00,0.0938
970.00,0.0949
969.00,0.0929
968.00,0.0881
967.00,0.0813
966.00,0.0737
965.00,0.0666
964.00,0.0607
963.00,0.0564
962.00,0.0534
961.00,0.0515
960.00,0.0502
959.00,0.0495
958.00,0.0491
957.00,0.0489
956.00,0.0490
955.00,0.0492
954.00,0.0495
953.00,0.0501
952.00,0.0507
951.00,0.0515
950.00,0.0526
949.00,0.0538
948.00,0.0552
947.00,0.0569
946.00,0.0589
945.00,0.0612
944.00,0.0639
943.00,0.0669
942.00,0.0702
941.00,0.0740
940.00,0.0781
939.00,0.0826
938.00,0.0875
937.00,0.0926
936.00,0.0980
935.00,0.1034
934.00,0.1088
933.00,0.1141
932.00,0.1191
931.00,0.1235
930.00,0.1273
929.00,0.1303
928.00,0.1327
927.00,0.1346
926.00,0.1362
925.00,0.1384
924.00,0.1419
923.00,0.1479
922.00,0.1577
921.00,0.1721
920.00,0.1909
919.00,0.2124
918.00,0.2334
917.00,0.2504
916.00,0.2603
915.00,0.2619
914.00,0.2559
913.00,0.2448
912.00,0.2310
911.00,0.2164
910.00,0.2023
909.00,0.1892
908.00,0.1775
907.00,0.1669
906.00,0.1574
905.00,0.1489
904.00,0.1412
903.00,0.1340
902.00,0.1274
901.00,0.1213
900.00,0.1158
899.00,0.1107
898.00,0.1061
897.00,0.1018
896.00,0.0980
895.00,0.0945
894.00,0.0915
893.00,0.0889
892.00,0.0872
891.00,0.0863
890.00,0.0864
889.00,0.0872
888.00,0.0884
887.00,0.0895
886.00,0.0901
885.00,0.0896
884.00,0.0878
883.00,0.0850
882.00,0.0816
881.00,0.0784
880.00,0.0755
879.00,0.0732
878.00,0.0713
877.00,0.0697
876.00,0.0683
875.00,0.0671
874.00,0.0659
873.00,0.0649
872.00,0.0640
871.00,0.0632
870.00,0.0624
869.00,0.0617
868.00,0.0610
867.00,0.0603
866.00,0.0595
865.00,0.0587
864.00,0.0579
863.00,0.0570
862.00,0.0562
861.00,0.0553
860.00,0.0544
859.00,0.0535
858.00,0.0527
857.00,0.0519
856.00,0.0512
855.00,0.0507
854.00,0.0503
853.00,0.0500
852.00,0.0499
851.00,0.0500
850.00,0.0505
849.00,0.0514
848.00,0.0530
847.00,0.0561
846.00,0.0613
845.00,0.0700
844.00,0.0832
843.00,0.1011
842.00,0.1217
841.00,0.1413
840.00,0.1550
839.00,0.1595
838.00,0.1545
837.00,0.1429
836.00,0.1283
835.00,0.1135
834.00,0.1002
833.00,0.0889
832.00,0.0798
831.00,0.0724
830.00,0.0666
829.00,0.0619
828.00,0.0581
827.00,0.0548
826.00,0.0520
825.00,0.0495
824.00,0.0473
823.00,0.0453
822.00,0.0435
821.00,0.0418
820.00,0.0402
819.00,0.0388
818.00,0.0376
817.00,0.0366
816.00,0.0357
815.00,0.0352
814.00,0.0352
813.00,0.0359
812.00,0.0378
811.00,0.0415
810.00,0.0481
809.00,0.0586
808.00,0.0743
807.00,0.0952
806.00,0.1188
805.00,0.1406
804.00,0.1551
803.00,0.1593
802.00,0.1542
801.00,0.1439
800.00,0.1324
799.00,0.1226
798.00,0.1158
797.00,0.1123
796.00,0.1117
795.00,0.1135
794.00,0.1170
793.00,0.1212
792.00,0.1250
791.00,0.1268
790.00,0.1252
789.00,0.1197
788.00,0.1110
787.00,0.1008
786.00,0.0909
785.00,0.0825
784.00,0.0757
783.00,0.0704
782.00,0.0662
781.00,0.0628
780.00,0.0599
779.00,0.0574
778.00,0.0553
777.00,0.0535
776.00,0.0519
775.00,0.0506
774.00,0.0494
773.00,0.0485
772.00,0.0477
771.00,0.0470
770.00,0.0466
769.00,0.0463
768.00,0.0461
767.00,0.0462
766.00,0.0465
765.00,0.0473
764.00,0.0489
763.00,0.0516
762.00,0.0564
761.00,0.0645
760.00,0.0771
759.00,0.0948
758.00,0.1171
757.00,0.1416
756.00,0.1651
755.00,0.1836
754.00,0.1940
753.00,0.1947
752.00,0.1870
751.00,0.1735
750.00,0.1575
749.00,0.1410
748.00,0.1255
747.00,0.1115
746.00,0.0995
745.00,0.0893
744.00,0.0809
743.00,0.0739
742.00,0.0682
741.00,0.0634
740.00,0.0593
739.00,0.0558
738.00,0.0528
737.00,0.0501
736.00,0.0477
735.00,0.0456
734.00,0.0438
733.00,0.0421
732.00,0.0406
731.00,0.0393
730.00,0.0381
729.00,0.0370
728.00,0.0360
727.00,0.0352
726.00,0.0345
725.00,0.0338
724.00,0.0332
723.00,0.0327
722.00,0.0322
721.00,0.0319
720.00,0.0316
719.00,0.0316
718.00,0.0318
717.00,0.0323
716.00,0.0330
715.00,0.0341
714.00,0.0357
713.00,0.0381
712.00,0.0417
711.00,0.0475
710.00,0.0569
709.00,0.0720
708.00,0.0946
707.00,0.1242
706.00,0.1559
705.00,0.1812
704.00,0.1916
703.00,0.1849
702.00,0.1664
701.00,0.1441
700.00,0.1234
699.00,0.1063
698.00,0.0925
697.00,0.0814
696.00,0.0724
695.00,0.0651
694.00,0.0594
693.00,0.0550
692.00,0.0514
691.00,0.0486
690.00,0.0461
689.00,0.0441
688.00,0.0423
687.00,0.0408
686.00,0.0395
685.00,0.0384
684.00,0.0375
683.00,0.0367
682.00,0.0360
681.00,0.0355
680.00,0.0353
679.00,0.0352
678.00,0.0354
677.00,0.0361
676.00,0.0373
675.00,0.0395
674.00,0.0429
673.00,0.0485
672.00,0.0566
671.00,0.0674
670.00,0.0819
669.00,0.1025
668.00,0.1268
667.00,0.1437
666.00,0.1461
665.00,0.1377
664.00,0.1240
663.00,0.1086
662.00,0.0943
661.00,0.0826
660.00,0.0733
659.00,0.0659
658.00,0.0604
657.00,0.0561
656.00,0.0527
655.00,0.0500
654.00,0.0483
653.00,0.0477
652.00,0.0483
651.00,0.0511
650.00,0.0568
649.00,0.0654
648.00,0.0754
647.00,0.0851
646.00,0.0932
645.00,0.0989
644.00,0.1014
643.00,0.0999
642.00,0.0939
641.00,0.0847
640.00,0.0746
639.00,0.0656
638.00,0.0587
637.00,0.0535
636.00,0.0494
635.00,0.0461
634.00,0.0435
633.00,0.0414
632.00,0.0396
631.00,0.0382
630.00,0.0371
629.00,0.0362
628.00,0.0354
627.00,0.0348
626.00,0.0342
625.00,0.0337
624.00,0.0332
623.00,0.0328
622.00,0.0326
621.00,0.0325
620.00,0.0323
619.00,0.0322
618.00,0.0323
617.00,0.0326
616.00,0.0329
615.00,0.0335
614.00,0.0344
613.00,0.0354
612.00,0.0366
611.00,0.0383
610.00,0.0407
609.00,0.0441
608.00,0.0485
607.00,0.0542
606.00,0.0615
605.00,0.0706
604.00,0.0818
603.00,0.0951
602.00,0.1096
601.00,0.1240
600.00,0.1361
599.00,0.1439
598.00,0.1460
597.00,0.1425
596.00,0.1345
595.00,0.1240
594.00,0.1127
593.00,0.1017
592.00,0.0917
591.00,0.0831
590.00,0.0758
589.00,0.0699
588.00,0.0649
587.00,0.0608
586.00,0.0575
585.00,0.0548
584.00,0.0525
583.00,0.0507
582.00,0.0492
581.00,0.0480
580.00,0.0469
579.00,0.0460
578.00,0.0455
577.00,0.0454
576.00,0.0455
575.00,0.0460
574.00,0.0469
573.00,0.0485
572.00,0.0506
571.00,0.0535
570.00,0.0573
569.00,0.0619
568.00,0.0670
567.00,0.0724
566.00,0.0779
565.00,0.0828
564.00,0.0862
563.00,0.0878
562.00,0.0872
561.00,0.0847
560.00,0.0806
559.00,0.0755
558.00,0.0700
557.00,0.0647
556.00,0.0598
555.00,0.0558
554.00,0.0527
553.00,0.0505
552.00,0.0494
551.00,0.0496
550.00,0.0517
549.00,0.0563
548.00,0.0643
547.00,0.0759
546.00,0.0902
545.00,0.1045
544.00,0.1152
543.00,0.1200
542.00,0.1185
541.00,0.1122
540.00,0.1032
539.00,0.0934
538.00,0.0842
537.00,0.0761
536.00,0.0695
535.00,0.0642
534.00,0.0602
533.00,0.0570
532.00,0.0544
531.00,0.0522
530.00,0.0505
529.00,0.0492
528.00,0.0481
527.00,0.0474
526.00,0.0472
525.00,0.0474
524.00,0.0481
523.00,0.0495
522.00,0.0522
521.00,0.0567
520.00,0.0639
519.00,0.0744
518.00,0.0877
517.00,0.1018
516.00,0.1128
515.00,0.1174
514.00,0.1144
513.00,0.1055
512.00,0.0935
511.00,0.0814
510.00,0.0709
509.00,0.0626
508.00,0.0561
507.00,0.0511
506.00,0.0475
505.00,0.0447
504.00,0.0426
503.00,0.0409
502.00,0.0396
501.00,0.0386
500.00,0.0375
499.00,0.0366
498.00,0.0360
497.00,0.0354
496.00,0.0348
495.00,0.0342
494.00,0.0338
493.00,0.0334
492.00,0.0330
491.00,0.0327
490.00,0.0323
489.00,0.0320
488.00,0.0315
487.00,0.0310
486.00,0.0307
485.00,0.0304
484.00,0.0301
483.00,0.0297
482.00,0.0296
481.00,0.0296
480.00,0.0295
479.00,0.0294
478.00,0.0294
477.00,0.0293
476.00,0.0291
475.00,0.0290
474.00,0.0292
473.00,0.0292
472.00,0.0290
471.00,0.0288
470.00,0.0288
469.00,0.0288
468.00,0.0289
467.00,0.0290
466.00,0.0293
465.00,0.0295
464.00,0.0295
463.00,0.0294
462.00,0.0296
461.00,0.0298
460.00,0.0299
459.00,0.0299
458.00,0.0300
457.00,0.0300
456.00,0.0301
455.00,0.0304
454.00,0.0311
453.00,0.0321
452.00,0.0330
451.00,0.0341
450.00,0.0356
449.00,0.0374
448.00,0.0396
447.00,0.0425
446.00,0.0465
445.00,0.0515
444.00,0.0574
443.00,0.0639
442.00,0.0703
441.00,0.0755
440.00,0.0788
439.00,0.0801
438.00,0.0800
437.00,0.0789
436.00,0.0768
435.00,0.0742
434.00,0.0713
433.00,0.0684
432.00,0.0660
431.00,0.0653
430.00,0.0668
429.00,0.0704
428.00,0.0759
427.00,0.0830
426.00,0.0910
425.00,0.0980
424.00,0.1021
423.00,0.1021
422.00,0.0988
421.00,0.0929
420.00,0.0845
419.00,0.0748
418.00,0.0661
417.00,0.0599
416.00,0.0555
415.00,0.0518
414.00,0.0487
413.00,0.0458
412.00,0.0428
411.00,0.0403
410.00,0.0389
409.00,0.0382
408.00,0.0372
407.00,0.0359
406.00,0.0350
405.00,0.0343
404.00,0.0334
403.00,0.0324
402.00,0.0321
401.00,0.0322
400.00,0.0322
