Created as New Dataset,Sample 198 By YargerLab Date Saturday, October 04 2025
cm-1,A
4000.00,0.0066
3999.00,0.0066
3998.00,0.0066
3997.00,0.0066
3996.00,0.0066
3995.00,0.0066
3994.00,0.0066
3993.00,0.0066
3992.00,0.0066
3991.00,0.0066
3990.00,0.0066
3989.00,0.0066
3988.00,0.0066
3987.00,0.0066
3986.00,0.0066
3985.00,0.0067
3984.00,0.0067
3983.00,0.0067
3982.00,0.0067
3981.00,0.0067
3980.00,0.0067
3979.00,0.0067
3978.00,0.0067
3977.00,0.0067
3976.00,0.0067
3975.00,0.0066
3974.00,0.0066
3973.00,0.0066
3972.00,0.0066
3971.00,0.0066
3970.00,0.0066
3969.00,0.0066
3968.00,0.0066
3967.00,0.0066
3966.00,0.0066
3965.00,0.0066
3964.00,0.0066
3963.00,0.0066
3962.00,0.0066
3961.00,0.0066
3960.00,0.0066
3959.00,0.0066
3958.00,0.0066
3957.00,0.0066
3956.00,0.0066
3955.00,0.0066
3954.00,0.0066
3953.00,0.0066
3952.00,0.0066
3951.00,0.0066
3950.00,0.0066
3949.00,0.0066
3948.00,0.0066
3947.00,0.0066
3946.00,0.0066
3945.00,0.0066
3944.00,0.0066
3943.00,0.0066
3942.00,0.0066
3941.00,0.0066
3940.00,0.0067
3939.00,0.0067
3938.00,0.0067
3937.00,0.0066
3936.00,0.0066
3935.00,0.0066
3934.00,0.0066
3933.00,0.0066
3932.00,0.0066
3931.00,0.0066
3930.00,0.0067
3929.00,0.0067
3928.00,0.0067
3927.00,0.0066
3926.00,0.0066
3925.00,0.0066
3924.00,0.0066
3923.00,0.0066
3922.00,0.0066
3921.00,0.0066
3920.00,0.0066
3919.00,0.0066
3918.00,0.0066
3917.00,0.0066
3916.00,0.0066
3915.00,0.0066
3914.00,0.0066
3913.00,0.0066
3912.00,0.0066
3911.00,0.0066
3910.00,0.0066
3909.00,0.0066
3908.00,0.0066
3907.00,0.0067
3906.00,0.0067
3905.00,0.0067
3904.00,0.0067
3903.00,0.0067
3902.00,0.0067
3901.00,0.0067
3900.00,0.0067
3899.00,0.0067
3898.00,0.0067
3897.00,0.0068
3896.00,0.0068
3895.00,0.0067
3894.00,0.0067
3893.00,0.0067
3892.00,0.0067
3891.00,0.0067
3890.00,0.0067
3889.00,0.0067
3888.00,0.0067
3887.00,0.0067
3886.00,0.0067
3885.00,0.0067
3884.00,0.0067
3883.00,0.0068
3882.00,0.0068
3881.00,0.0067
3880.00,0.0067
3879.00,0.0067
3878.00,0.0068
3877.00,0.0068
3876.00,0.0068
3875.00,0.0068
3874.00,0.0068
3873.00,0.0068
3872.00,0.0068
3871.00,0.0067
3870.00,0.0067
3869.00,0.0067
3868.00,0.0067
3867.00,0.0067
3866.00,0.0067
3865.00,0.0067
3864.00,0.0067
3863.00,0.0067
3862.00,0.0067
3861.00,0.0067
3860.00,0.0067
3859.00,0.0067
3858.00,0.0067
3857.00,0.0068
3856.00,0.0068
3855.00,0.0069
3854.00,0.0069
3853.00,0.0069
3852.00,0.0069
3851.00,0.0068
3850.00,0.0068
3849.00,0.0068
3848.00,0.0067
3847.00,0.0067
3846.00,0.0067
3845.00,0.0067
3844.00,0.0067
3843.00,0.0067
3842.00,0.0067
3841.00,0.0068
3840.00,0.0068
3839.00,0.0068
3838.00,0.0068
3837.00,0.0068
3836.00,0.0068
3835.00,0.0068
3834.00,0.0068
3833.00,0.0068
3832.00,0.0068
3831.00,0.0068
3830.00,0.0068
3829.00,0.0068
3828.00,0.0068
3827.00,0.0067
3826.00,0.0067
3825.00,0.0068
3824.00,0.0068
3823.00,0.0068
3822.00,0.0068
3821.00,0.0068
3820.00,0.0068
3819.00,0.0068
3818.00,0.0068
3817.00,0.0068
3816.00,0.0068
3815.00,0.0068
3814.00,0.0068
3813.00,0.0068
3812.00,0.0068
3811.00,0.0068
3810.00,0.0068
3809.00,0.0068
3808.00,0.0068
3807.00,0.0068
3806.00,0.0068
3805.00,0.0068
3804.00,0.0068
3803.00,0.0068
3802.00,0.0068
3801.00,0.0067
3800.00,0.0067
3799.00,0.0068
3798.00,0.0067
3797.00,0.0067
3796.00,0.0067
3795.00,0.0067
3794.00,0.0067
3793.00,0.0067
3792.00,0.0067
3791.00,0.0067
3790.00,0.0067
3789.00,0.0067
3788.00,0.0067
3787.00,0.0067
3786.00,0.0067
3785.00,0.0067
3784.00,0.0067
3783.00,0.0067
3782.00,0.0067
3781.00,0.0067
3780.00,0.0067
3779.00,0.0067
3778.00,0.0067
3777.00,0.0067
3776.00,0.0068
3775.00,0.0068
3774.00,0.0068
3773.00,0.0068
3772.00,0.0068
3771.00,0.0068
3770.00,0.0068
3769.00,0.0068
3768.00,0.0068
3767.00,0.0068
3766.00,0.0068
3765.00,0.0068
3764.00,0.0068
3763.00,0.0068
3762.00,0.0068
3761.00,0.0068
3760.00,0.0068
3759.00,0.0068
3758.00,0.0068
3757.00,0.0068
3756.00,0.0068
3755.00,0.0068
3754.00,0.0068
3753.00,0.0068
3752.00,0.0068
3751.00,0.0068
3750.00,0.0068
3749.00,0.0069
3748.00,0.0069
3747.00,0.0069
3746.00,0.0069
3745.00,0.0068
3744.00,0.0068
3743.00,0.0068
3742.00,0.0068
3741.00,0.0068
3740.00,0.0067
3739.00,0.0067
3738.00,0.0067
3737.00,0.0067
3736.00,0.0067
3735.00,0.0067
3734.00,0.0067
3733.00,0.0066
3732.00,0.0066
3731.00,0.0066
3730.00,0.0066
3729.00,0.0066
3728.00,0.0065
3727.00,0.0065
3726.00,0.0065
3725.00,0.0064
3724.00,0.0064
3723.00,0.0064
3722.00,0.0064
3721.00,0.0063
3720.00,0.0063
3719.00,0.0063
3718.00,0.0063
3717.00,0.0064
3716.00,0.0064
3715.00,0.0065
3714.00,0.0065
3713.00,0.0065
3712.00,0.0065
3711.00,0.0065
3710.00,0.0064
3709.00,0.0064
3708.00,0.0064
3707.00,0.0063
3706.00,0.0063
3705.00,0.0063
3704.00,0.0063
3703.00,0.0063
3702.00,0.0063
3701.00,0.0063
3700.00,0.0062
3699.00,0.0062
3698.00,0.0062
3697.00,0.0062
3696.00,0.0062
3695.00,0.0062
3694.00,0.0063
3693.00,0.0063
3692.00,0.0064
3691.00,0.0064
3690.00,0.0064
3689.00,0.0065
3688.00,0.0065
3687.00,0.0066
3686.00,0.0066
3685.00,0.0066
3684.00,0.0065
3683.00,0.0065
3682.00,0.0065
3681.00,0.0065
3680.00,0.0065
3679.00,0.0066
3678.00,0.0066
3677.00,0.0067
3676.00,0.0067
3675.00,0.0067
3674.00,0.0067
3673.00,0.0067
3672.00,0.0068
3671.00,0.0067
3670.00,0.0067
3669.00,0.0067
3668.00,0.0067
3667.00,0.0067
3666.00,0.0067
3665.00,0.0067
3664.00,0.0067
3663.00,0.0067
3662.00,0.0067
3661.00,0.0067
3660.00,0.0067
3659.00,0.0068
3658.00,0.0068
3657.00,0.0068
3656.00,0.0069
3655.00,0.0069
3654.00,0.0070
3653.00,0.0071
3652.00,0.0071
3651.00,0.0071
3650.00,0.0072
3649.00,0.0072
3648.00,0.0072
3647.00,0.0073
3646.00,0.0073
3645.00,0.0073
3644.00,0.0073
3643.00,0.0073
3642.00,0.0074
3641.00,0.0074
3640.00,0.0075
3639.00,0.0075
3638.00,0.0076
3637.00,0.0076
3636.00,0.0076
3635.00,0.0077
3634.00,0.0077
3633.00,0.0078
3632.00,0.0078
3631.00,0.0079
3630.00,0.0079
3629.00,0.0080
3628.00,0.0080
3627.00,0.0081
3626.00,0.0082
3625.00,0.0082
3624.00,0.0082
3623.00,0.0083
3622.00,0.0083
3621.00,0.0084
3620.00,0.0085
3619.00,0.0085
3618.00,0.0086
3617.00,0.0087
3616.00,0.0087
3615.00,0.0088
3614.00,0.0088
3613.00,0.0089
3612.00,0.0090
3611.00,0.0090
3610.00,0.0091
3609.00,0.0091
3608.00,0.0092
3607.00,0.0092
3606.00,0.0093
3605.00,0.0094
3604.00,0.0095
3603.00,0.0096
3602.00,0.0096
3601.00,0.0097
3600.00,0.0098
3599.00,0.0098
3598.00,0.0099
3597.00,0.0100
3596.00,0.0101
3595.00,0.0101
3594.00,0.0102
3593.00,0.0103
3592.00,0.0104
3591.00,0.0105
3590.00,0.0105
3589.00,0.0106
3588.00,0.0107
3587.00,0.0108
3586.00,0.0109
3585.00,0.0110
3584.00,0.0111
3583.00,0.0112
3582.00,0.0113
3581.00,0.0113
3580.00,0.0114
3579.00,0.0116
3578.00,0.0117
3577.00,0.0117
3576.00,0.0118
3575.00,0.0119
3574.00,0.0120
3573.00,0.0121
3572.00,0.0123
3571.00,0.0124
3570.00,0.0125
3569.00,0.0126
3568.00,0.0127
3567.00,0.0128
3566.00,0.0129
3565.00,0.0130
3564.00,0.0131
3563.00,0.0132
3562.00,0.0133
3561.00,0.0133
3560.00,0.0135
3559.00,0.0136
3558.00,0.0137
3557.00,0.0138
3556.00,0.0138
3555.00,0.0139
3554.00,0.0140
3553.00,0.0141
3552.00,0.0142
3551.00,0.0143
3550.00,0.0144
3549.00,0.0144
3548.00,0.0145
3547.00,0.0146
3546.00,0.0147
3545.00,0.0147
3544.00,0.0148
3543.00,0.0149
3542.00,0.0150
3541.00,0.0150
3540.00,0.0151
3539.00,0.0151
3538.00,0.0152
3537.00,0.0152
3536.00,0.0153
3535.00,0.0154
3534.00,0.0154
3533.00,0.0155
3532.00,0.0156
3531.00,0.0157
3530.00,0.0157
3529.00,0.0157
3528.00,0.0157
3527.00,0.0158
3526.00,0.0158
3525.00,0.0159
3524.00,0.0159
3523.00,0.0159
3522.00,0.0160
3521.00,0.0160
3520.00,0.0160
3519.00,0.0161
3518.00,0.0161
3517.00,0.0162
3516.00,0.0162
3515.00,0.0162
3514.00,0.0162
3513.00,0.0163
3512.00,0.0163
3511.00,0.0163
3510.00,0.0163
3509.00,0.0163
3508.00,0.0164
3507.00,0.0164
3506.00,0.0165
3505.00,0.0165
3504.00,0.0165
3503.00,0.0166
3502.00,0.0166
3501.00,0.0166
3500.00,0.0166
3499.00,0.0167
3498.00,0.0167
3497.00,0.0167
3496.00,0.0167
3495.00,0.0167
3494.00,0.0167
3493.00,0.0167
3492.00,0.0168
3491.00,0.0168
3490.00,0.0168
3489.00,0.0168
3488.00,0.0169
3487.00,0.0169
3486.00,0.0169
3485.00,0.0169
3484.00,0.0169
3483.00,0.0170
3482.00,0.0170
3481.00,0.0170
3480.00,0.0170
3479.00,0.0170
3478.00,0.0171
3477.00,0.0171
3476.00,0.0171
3475.00,0.0171
3474.00,0.0171
3473.00,0.0171
3472.00,0.0171
3471.00,0.0171
3470.00,0.0172
3469.00,0.0172
3468.00,0.0172
3467.00,0.0172
3466.00,0.0172
3465.00,0.0172
3464.00,0.0172
3463.00,0.0172
3462.00,0.0172
3461.00,0.0172
3460.00,0.0173
3459.00,0.0173
3458.00,0.0173
3457.00,0.0173
3456.00,0.0173
3455.00,0.0173
3454.00,0.0173
3453.00,0.0173
3452.00,0.0173
3451.00,0.0174
3450.00,0.0174
3449.00,0.0174
3448.00,0.0174
3447.00,0.0174
3446.00,0.0174
3445.00,0.0174
3444.00,0.0173
3443.00,0.0173
3442.00,0.0173
3441.00,0.0173
3440.00,0.0173
3439.00,0.0173
3438.00,0.0173
3437.00,0.0173
3436.00,0.0173
3435.00,0.0173
3434.00,0.0173
3433.00,0.0172
3432.00,0.0172
3431.00,0.0172
3430.00,0.0171
3429.00,0.0171
3428.00,0.0171
3427.00,0.0170
3426.00,0.0170
3425.00,0.0170
3424.00,0.0170
3423.00,0.0169
3422.00,0.0169
3421.00,0.0169
3420.00,0.0169
3419.00,0.0169
3418.00,0.0168
3417.00,0.0168
3416.00,0.0168
3415.00,0.0167
3414.00,0.0167
3413.00,0.0167
3412.00,0.0167
3411.00,0.0167
3410.00,0.0166
3409.00,0.0166
3408.00,0.0166
3407.00,0.0166
3406.00,0.0165
3405.00,0.0165
3404.00,0.0164
3403.00,0.0164
3402.00,0.0164
3401.00,0.0163
3400.00,0.0163
3399.00,0.0162
3398.00,0.0162
3397.00,0.0162
3396.00,0.0161
3395.00,0.0161
3394.00,0.0161
3393.00,0.0160
3392.00,0.0160
3391.00,0.0159
3390.00,0.0159
3389.00,0.0159
3388.00,0.0159
3387.00,0.0159
3386.00,0.0158
3385.00,0.0158
3384.00,0.0157
3383.00,0.0157
3382.00,0.0156
3381.00,0.0156
3380.00,0.0156
3379.00,0.0156
3378.00,0.0156
3377.00,0.0155
3376.00,0.0155
3375.00,0.0154
3374.00,0.0154
3373.00,0.0153
3372.00,0.0152
3371.00,0.0152
3370.00,0.0151
3369.00,0.0151
3368.00,0.0151
3367.00,0.0151
3366.00,0.0151
3365.00,0.0151
3364.00,0.0151
3363.00,0.0151
3362.00,0.0151
3361.00,0.0151
3360.00,0.0151
3359.00,0.0150
3358.00,0.0150
3357.00,0.0150
3356.00,0.0150
3355.00,0.0149
3354.00,0.0148
3353.00,0.0148
3352.00,0.0147
3351.00,0.0147
3350.00,0.0147
3349.00,0.0147
3348.00,0.0147
3347.00,0.0148
3346.00,0.0148
3345.00,0.0147
3344.00,0.0147
3343.00,0.0147
3342.00,0.0146
3341.00,0.0146
3340.00,0.0146
3339.00,0.0145
3338.00,0.0145
3337.00,0.0145
3336.00,0.0146
3335.00,0.0146
3334.00,0.0147
3333.00,0.0147
3332.00,0.0147
3331.00,0.0146
3330.00,0.0145
3329.00,0.0145
3328.00,0.0144
3327.00,0.0143
3326.00,0.0143
3325.00,0.0143
3324.00,0.0143
3323.00,0.0143
3322.00,0.0144
3321.00,0.0144
3320.00,0.0144
3319.00,0.0144
3318.00,0.0144
3317.00,0.0143
3316.00,0.0143
3315.00,0.0143
3314.00,0.0142
3313.00,0.0142
3312.00,0.0141
3311.00,0.0141
3310.00,0.0139
3309.00,0.0138
3308.00,0.0138
3307.00,0.0137
3306.00,0.0137
3305.00,0.0137
3304.00,0.0138
3303.00,0.0139
3302.00,0.0139
3301.00,0.0139
3300.00,0.0139
3299.00,0.0139
3298.00,0.0138
3297.00,0.0137
3296.00,0.0137
3295.00,0.0136
3294.00,0.0136
3293.00,0.0136
3292.00,0.0136
3291.00,0.0137
3290.00,0.0137
3289.00,0.0137
3288.00,0.0137
3287.00,0.0137
3286.00,0.0137
3285.00,0.0136
3284.00,0.0136
3283.00,0.0136
3282.00,0.0135
3281.00,0.0135
3280.00,0.0135
3279.00,0.0135
3278.00,0.0134
3277.00,0.0134
3276.00,0.0133
3275.00,0.0132
3274.00,0.0132
3273.00,0.0131
3272.00,0.0130
3271.00,0.0130
3270.00,0.0130
3269.00,0.0131
3268.00,0.0131
3267.00,0.0131
3266.00,0.0131
3265.00,0.0131
3264.00,0.0130
3263.00,0.0130
3262.00,0.0130
3261.00,0.0129
3260.00,0.0129
3259.00,0.0128
3258.00,0.0127
3257.00,0.0127
3256.00,0.0126
3255.00,0.0126
3254.00,0.0126
3253.00,0.0126
3252.00,0.0126
3251.00,0.0126
3250.00,0.0125
3249.00,0.0125
3248.00,0.0124
3247.00,0.0124
3246.00,0.0123
3245.00,0.0123
3244.00,0.0123
3243.00,0.0123
3242.00,0.0123
3241.00,0.0122
3240.00,0.0122
3239.00,0.0122
3238.00,0.0122
3237.00,0.0121
3236.00,0.0121
3235.00,0.0120
3234.00,0.0119
3233.00,0.0119
3232.00,0.0119
3231.00,0.0119
3230.00,0.0119
3229.00,0.0119
3228.00,0.0119
3227.00,0.0118
3226.00,0.0118
3225.00,0.0118
3224.00,0.0117
3223.00,0.0116
3222.00,0.0116
3221.00,0.0116
3220.00,0.0115
3219.00,0.0115
3218.00,0.0115
3217.00,0.0114
3216.00,0.0114
3215.00,0.0114
3214.00,0.0113
3213.00,0.0113
3212.00,0.0113
3211.00,0.0112
3210.00,0.0112
3209.00,0.0112
3208.00,0.0112
3207.00,0.0112
3206.00,0.0111
3205.00,0.0111
3204.00,0.0111
3203.00,0.0110
3202.00,0.0110
3201.00,0.0110
3200.00,0.0109
3199.00,0.0109
3198.00,0.0109
3197.00,0.0109
3196.00,0.0109
3195.00,0.0108
3194.00,0.0108
3193.00,0.0108
3192.00,0.0107
3191.00,0.0107
3190.00,0.0107
3189.00,0.0106
3188.00,0.0106
3187.00,0.0106
3186.00,0.0106
3185.00,0.0106
3184.00,0.0105
3183.00,0.0105
3182.00,0.0105
3181.00,0.0105
3180.00,0.0105
3179.00,0.0104
3178.00,0.0104
3177.00,0.0104
3176.00,0.0103
3175.00,0.0103
3174.00,0.0103
3173.00,0.0103
3172.00,0.0102
3171.00,0.0102
3170.00,0.0102
3169.00,0.0102
3168.00,0.0102
3167.00,0.0102
3166.00,0.0102
3165.00,0.0101
3164.00,0.0101
3163.00,0.0101
3162.00,0.0101
3161.00,0.0101
3160.00,0.0100
3159.00,0.0100
3158.00,0.0100
3157.00,0.0100
3156.00,0.0099
3155.00,0.0099
3154.00,0.0099
3153.00,0.0099
3152.00,0.0099
3151.00,0.0098
3150.00,0.0098
3149.00,0.0098
3148.00,0.0098
3147.00,0.0098
3146.00,0.0098
3145.00,0.0097
3144.00,0.0097
3143.00,0.0097
3142.00,0.0097
3141.00,0.0097
3140.00,0.0097
3139.00,0.0097
3138.00,0.0097
3137.00,0.0097
3136.00,0.0097
3135.00,0.0097
3134.00,0.0097
3133.00,0.0097
3132.00,0.0097
3131.00,0.0097
3130.00,0.0096
3129.00,0.0096
3128.00,0.0096
3127.00,0.0096
3126.00,0.0096
3125.00,0.0095
3124.00,0.0095
3123.00,0.0095
3122.00,0.0095
3121.00,0.0095
3120.00,0.0095
3119.00,0.0095
3118.00,0.0095
3117.00,0.0095
3116.00,0.0095
3115.00,0.0095
3114.00,0.0095
3113.00,0.0095
3112.00,0.0095
3111.00,0.0094
3110.00,0.0094
3109.00,0.0094
3108.00,0.0094
3107.00,0.0094
3106.00,0.0094
3105.00,0.0094
3104.00,0.0093
3103.00,0.0093
3102.00,0.0093
3101.00,0.0093
3100.00,0.0093
3099.00,0.0093
3098.00,0.0093
3097.00,0.0093
3096.00,0.0093
3095.00,0.0093
3094.00,0.0092
3093.00,0.0092
3092.00,0.0092
3091.00,0.0092
3090.00,0.0091
3089.00,0.0091
3088.00,0.0091
3087.00,0.0091
3086.00,0.0091
3085.00,0.0091
3084.00,0.0091
3083.00,0.0091
3082.00,0.0090
3081.00,0.0090
3080.00,0.0091
3079.00,0.0091
3078.00,0.0090
3077.00,0.0090
3076.00,0.0090
3075.00,0.0090
3074.00,0.0090
3073.00,0.0090
3072.00,0.0090
3071.00,0.0090
3070.00,0.0090
3069.00,0.0089
3068.00,0.0089
3067.00,0.0089
3066.00,0.0089
3065.00,0.0089
3064.00,0.0089
3063.00,0.0089
3062.00,0.0089
3061.00,0.0089
3060.00,0.0089
3059.00,0.0089
3058.00,0.0089
3057.00,0.0089
3056.00,0.0089
3055.00,0.0089
3054.00,0.0089
3053.00,0.0088
3052.00,0.0088
3051.00,0.0088
3050.00,0.0088
3049.00,0.0088
3048.00,0.0088
3047.00,0.0088
3046.00,0.0088
3045.00,0.0088
3044.00,0.0087
3043.00,0.0087
3042.00,0.0087
3041.00,0.0087
3040.00,0.0087
3039.00,0.0087
3038.00,0.0087
3037.00,0.0087
3036.00,0.0087
3035.00,0.0087
3034.00,0.0087
3033.00,0.0087
3032.00,0.0087
3031.00,0.0087
3030.00,0.0087
3029.00,0.0087
3028.00,0.0087
3027.00,0.0087
3026.00,0.0088
3025.00,0.0088
3024.00,0.0088
3023.00,0.0088
3022.00,0.0088
3021.00,0.0088
3020.00,0.0088
3019.00,0.0088
3018.00,0.0089
3017.00,0.0089
3016.00,0.0089
3015.00,0.0090
3014.00,0.0090
3013.00,0.0091
3012.00,0.0092
3011.00,0.0093
3010.00,0.0094
3009.00,0.0095
3008.00,0.0097
3007.00,0.0098
3006.00,0.0099
3005.00,0.0101
3004.00,0.0103
3003.00,0.0105
3002.00,0.0107
3001.00,0.0109
3000.00,0.0111
2999.00,0.0114
2998.00,0.0116
2997.00,0.0118
2996.00,0.0120
2995.00,0.0123
2994.00,0.0125
2993.00,0.0128
2992.00,0.0131
2991.00,0.0134
2990.00,0.0137
2989.00,0.0139
2988.00,0.0142
2987.00,0.0145
2986.00,0.0148
2985.00,0.0150
2984.00,0.0152
2983.00,0.0154
2982.00,0.0157
2981.00,0.0159
2980.00,0.0161
2979.00,0.0163
2978.00,0.0166
2977.00,0.0168
2976.00,0.0169
2975.00,0.0171
2974.00,0.0173
2973.00,0.0175
2972.00,0.0177
2971.00,0.0178
2970.00,0.0180
2969.00,0.0182
2968.00,0.0184
2967.00,0.0186
2966.00,0.0188
2965.00,0.0191
2964.00,0.0193
2963.00,0.0195
2962.00,0.0198
2961.00,0.0200
2960.00,0.0202
2959.00,0.0204
2958.00,0.0206
2957.00,0.0208
2956.00,0.0210
2955.00,0.0211
2954.00,0.0213
2953.00,0.0214
2952.00,0.0215
2951.00,0.0215
2950.00,0.0216
2949.00,0.0216
2948.00,0.0216
2947.00,0.0216
2946.00,0.0215
2945.00,0.0214
2944.00,0.0213
2943.00,0.0212
2942.00,0.0210
2941.00,0.0209
2940.00,0.0208
2939.00,0.0206
2938.00,0.0205
2937.00,0.0205
2936.00,0.0204
2935.00,0.0204
2934.00,0.0204
2933.00,0.0205
2932.00,0.0205
2931.00,0.0206
2930.00,0.0206
2929.00,0.0207
2928.00,0.0208
2927.00,0.0208
2926.00,0.0209
2925.00,0.0209
2924.00,0.0210
2923.00,0.0211
2922.00,0.0211
2921.00,0.0211
2920.00,0.0212
2919.00,0.0212
2918.00,0.0211
2917.00,0.0211
2916.00,0.0210
2915.00,0.0209
2914.00,0.0208
2913.00,0.0206
2912.00,0.0205
2911.00,0.0203
2910.00,0.0201
2909.00,0.0199
2908.00,0.0197
2907.00,0.0196
2906.00,0.0194
2905.00,0.0193
2904.00,0.0192
2903.00,0.0191
2902.00,0.0191
2901.00,0.0191
2900.00,0.0191
2899.00,0.0192
2898.00,0.0192
2897.00,0.0193
2896.00,0.0194
2895.00,0.0194
2894.00,0.0195
2893.00,0.0196
2892.00,0.0197
2891.00,0.0197
2890.00,0.0198
2889.00,0.0198
2888.00,0.0198
2887.00,0.0199
2886.00,0.0199
2885.00,0.0199
2884.00,0.0199
2883.00,0.0200
2882.00,0.0199
2881.00,0.0199
2880.00,0.0199
2879.00,0.0199
2878.00,0.0198
2877.00,0.0198
2876.00,0.0197
2875.00,0.0196
2874.00,0.0195
2873.00,0.0194
2872.00,0.0193
2871.00,0.0192
2870.00,0.0192
2869.00,0.0191
2868.00,0.0190
2867.00,0.0189
2866.00,0.0188
2865.00,0.0186
2864.00,0.0185
2863.00,0.0184
2862.00,0.0183
2861.00,0.0182
2860.00,0.0181
2859.00,0.0180
2858.00,0.0179
2857.00,0.0177
2856.00,0.0176
2855.00,0.0175
2854.00,0.0173
2853.00,0.0172
2852.00,0.0170
2851.00,0.0168
2850.00,0.0165
2849.00,0.0163
2848.00,0.0160
2847.00,0.0158
2846.00,0.0155
2845.00,0.0153
2844.00,0.0151
2843.00,0.0150
2842.00,0.0148
2841.00,0.0147
2840.00,0.0146
2839.00,0.0145
2838.00,0.0144
2837.00,0.0142
2836.00,0.0141
2835.00,0.0140
2834.00,0.0138
2833.00,0.0136
2832.00,0.0135
2831.00,0.0133
2830.00,0.0132
2829.00,0.0130
2828.00,0.0129
2827.00,0.0127
2826.00,0.0126
2825.00,0.0124
2824.00,0.0123
2823.00,0.0122
2822.00,0.0120
2821.00,0.0119
2820.00,0.0118
2819.00,0.0117
2818.00,0.0116
2817.00,0.0115
2816.00,0.0115
2815.00,0.0114
2814.00,0.0113
2813.00,0.0113
2812.00,0.0112
2811.00,0.0112
2810.00,0.0111
2809.00,0.0111
2808.00,0.0111
2807.00,0.0111
2806.00,0.0110
2805.00,0.0110
2804.00,0.0110
2803.00,0.0110
2802.00,0.0109
2801.00,0.0109
2800.00,0.0109
2799.00,0.0109
2798.00,0.0109
2797.00,0.0108
2796.00,0.0108
2795.00,0.0108
2794.00,0.0107
2793.00,0.0107
2792.00,0.0107
2791.00,0.0107
2790.00,0.0107
2789.00,0.0107
2788.00,0.0106
2787.00,0.0106
2786.00,0.0106
2785.00,0.0106
2784.00,0.0105
2783.00,0.0105
2782.00,0.0105
2781.00,0.0105
2780.00,0.0105
2779.00,0.0105
2778.00,0.0105
2777.00,0.0104
2776.00,0.0104
2775.00,0.0104
2774.00,0.0104
2773.00,0.0104
2772.00,0.0104
2771.00,0.0103
2770.00,0.0103
2769.00,0.0103
2768.00,0.0103
2767.00,0.0102
2766.00,0.0102
2765.00,0.0102
2764.00,0.0102
2763.00,0.0102
2762.00,0.0102
2761.00,0.0102
2760.00,0.0102
2759.00,0.0101
2758.00,0.0101
2757.00,0.0101
2756.00,0.0101
2755.00,0.0101
2754.00,0.0101
2753.00,0.0101
2752.00,0.0101
2751.00,0.0101
2750.00,0.0101
2749.00,0.0101
2748.00,0.0101
2747.00,0.0101
2746.00,0.0101
2745.00,0.0101
2744.00,0.0101
2743.00,0.0101
2742.00,0.0101
2741.00,0.0101
2740.00,0.0101
2739.00,0.0101
2738.00,0.0101
2737.00,0.0101
2736.00,0.0101
2735.00,0.0101
2734.00,0.0101
2733.00,0.0101
2732.00,0.0101
2731.00,0.0101
2730.00,0.0101
2729.00,0.0100
2728.00,0.0100
2727.00,0.0100
2726.00,0.0100
2725.00,0.0100
2724.00,0.0100
2723.00,0.0100
2722.00,0.0100
2721.00,0.0100
2720.00,0.0100
2719.00,0.0100
2718.00,0.0100
2717.00,0.0100
2716.00,0.0099
2715.00,0.0099
2714.00,0.0099
2713.00,0.0099
2712.00,0.0099
2711.00,0.0099
2710.00,0.0099
2709.00,0.0099
2708.00,0.0099
2707.00,0.0099
2706.00,0.0099
2705.00,0.0099
2704.00,0.0099
2703.00,0.0099
2702.00,0.0099
2701.00,0.0099
2700.00,0.0098
2699.00,0.0098
2698.00,0.0099
2697.00,0.0099
2696.00,0.0098
2695.00,0.0098
2694.00,0.0098
2693.00,0.0098
2692.00,0.0098
2691.00,0.0098
2690.00,0.0098
2689.00,0.0098
2688.00,0.0098
2687.00,0.0098
2686.00,0.0097
2685.00,0.0097
2684.00,0.0097
2683.00,0.0097
2682.00,0.0097
2681.00,0.0097
2680.00,0.0097
2679.00,0.0097
2678.00,0.0098
2677.00,0.0098
2676.00,0.0098
2675.00,0.0098
2674.00,0.0097
2673.00,0.0097
2672.00,0.0097
2671.00,0.0097
2670.00,0.0097
2669.00,0.0098
2668.00,0.0098
2667.00,0.0098
2666.00,0.0098
2665.00,0.0099
2664.00,0.0099
2663.00,0.0100
2662.00,0.0100
2661.00,0.0101
2660.00,0.0101
2659.00,0.0101
2658.00,0.0101
2657.00,0.0101
2656.00,0.0101
2655.00,0.0101
2654.00,0.0101
2653.00,0.0101
2652.00,0.0101
2651.00,0.0101
2650.00,0.0101
2649.00,0.0101
2648.00,0.0101
2647.00,0.0102
2646.00,0.0102
2645.00,0.0102
2644.00,0.0102
2643.00,0.0102
2642.00,0.0101
2641.00,0.0101
2640.00,0.0101
2639.00,0.0101
2638.00,0.0101
2637.00,0.0101
2636.00,0.0101
2635.00,0.0101
2634.00,0.0101
2633.00,0.0101
2632.00,0.0100
2631.00,0.0100
2630.00,0.0100
2629.00,0.0100
2628.00,0.0100
2627.00,0.0100
2626.00,0.0099
2625.00,0.0099
2624.00,0.0099
2623.00,0.0099
2622.00,0.0099
2621.00,0.0099
2620.00,0.0099
2619.00,0.0099
2618.00,0.0099
2617.00,0.0099
2616.00,0.0099
2615.00,0.0099
2614.00,0.0098
2613.00,0.0098
2612.00,0.0098
2611.00,0.0098
2610.00,0.0098
2609.00,0.0098
2608.00,0.0098
2607.00,0.0098
2606.00,0.0098
2605.00,0.0098
2604.00,0.0098
2603.00,0.0098
2602.00,0.0098
2601.00,0.0098
2600.00,0.0098
2599.00,0.0097
2598.00,0.0097
2597.00,0.0097
2596.00,0.0097
2595.00,0.0097
2594.00,0.0097
2593.00,0.0097
2592.00,0.0097
2591.00,0.0098
2590.00,0.0098
2589.00,0.0098
2588.00,0.0098
2587.00,0.0098
2586.00,0.0098
2585.00,0.0097
2584.00,0.0097
2583.00,0.0097
2582.00,0.0098
2581.00,0.0098
2580.00,0.0098
2579.00,0.0098
2578.00,0.0098
2577.00,0.0098
2576.00,0.0098
2575.00,0.0098
2574.00,0.0098
2573.00,0.0098
2572.00,0.0098
2571.00,0.0097
2570.00,0.0097
2569.00,0.0097
2568.00,0.0097
2567.00,0.0097
2566.00,0.0097
2565.00,0.0097
2564.00,0.0097
2563.00,0.0097
2562.00,0.0097
2561.00,0.0097
2560.00,0.0097
2559.00,0.0097
2558.00,0.0097
2557.00,0.0097
2556.00,0.0096
2555.00,0.0096
2554.00,0.0096
2553.00,0.0096
2552.00,0.0096
2551.00,0.0096
2550.00,0.0096
2549.00,0.0096
2548.00,0.0096
2547.00,0.0096
2546.00,0.0096
2545.00,0.0096
2544.00,0.0096
2543.00,0.0096
2542.00,0.0096
2541.00,0.0096
2540.00,0.0096
2539.00,0.0095
2538.00,0.0095
2537.00,0.0094
2536.00,0.0094
2535.00,0.0094
2534.00,0.0094
2533.00,0.0094
2532.00,0.0095
2531.00,0.0095
2530.00,0.0095
2529.00,0.0095
2528.00,0.0095
2527.00,0.0095
2526.00,0.0094
2525.00,0.0094
2524.00,0.0094
2523.00,0.0094
2522.00,0.0094
2521.00,0.0094
2520.00,0.0094
2519.00,0.0094
2518.00,0.0094
2517.00,0.0094
2516.00,0.0094
2515.00,0.0094
2514.00,0.0093
2513.00,0.0093
2512.00,0.0093
2511.00,0.0093
2510.00,0.0093
2509.00,0.0093
2508.00,0.0093
2507.00,0.0093
2506.00,0.0093
2505.00,0.0093
2504.00,0.0093
2503.00,0.0093
2502.00,0.0093
2501.00,0.0094
2500.00,0.0094
2499.00,0.0095
2498.00,0.0094
2497.00,0.0094
2496.00,0.0094
2495.00,0.0094
2494.00,0.0094
2493.00,0.0094
2492.00,0.0094
2491.00,0.0094
2490.00,0.0094
2489.00,0.0093
2488.00,0.0093
2487.00,0.0093
2486.00,0.0093
2485.00,0.0093
2484.00,0.0093
2483.00,0.0093
2482.00,0.0093
2481.00,0.0093
2480.00,0.0093
2479.00,0.0093
2478.00,0.0093
2477.00,0.0092
2476.00,0.0092
2475.00,0.0092
2474.00,0.0092
2473.00,0.0092
2472.00,0.0093
2471.00,0.0093
2470.00,0.0093
2469.00,0.0093
2468.00,0.0093
2467.00,0.0093
2466.00,0.0093
2465.00,0.0093
2464.00,0.0093
2463.00,0.0093
2462.00,0.0094
2461.00,0.0094
2460.00,0.0094
2459.00,0.0094
2458.00,0.0094
2457.00,0.0094
2456.00,0.0094
2455.00,0.0094
2454.00,0.0094
2453.00,0.0094
2452.00,0.0094
2451.00,0.0094
2450.00,0.0095
2449.00,0.0095
2448.00,0.0095
2447.00,0.0094
2446.00,0.0094
2445.00,0.0094
2444.00,0.0093
2443.00,0.0093
2442.00,0.0093
2441.00,0.0093
2440.00,0.0093
2439.00,0.0093
2438.00,0.0093
2437.00,0.0093
2436.00,0.0093
2435.00,0.0093
2434.00,0.0093
2433.00,0.0093
2432.00,0.0093
2431.00,0.0093
2430.00,0.0093
2429.00,0.0092
2428.00,0.0092
2427.00,0.0092
2426.00,0.0092
2425.00,0.0092
2424.00,0.0092
2423.00,0.0092
2422.00,0.0093
2421.00,0.0093
2420.00,0.0093
2419.00,0.0093
2418.00,0.0093
2417.00,0.0093
2416.00,0.0093
2415.00,0.0093
2414.00,0.0092
2413.00,0.0092
2412.00,0.0093
2411.00,0.0093
2410.00,0.0092
2409.00,0.0092
2408.00,0.0092
2407.00,0.0092
2406.00,0.0091
2405.00,0.0091
2404.00,0.0091
2403.00,0.0091
2402.00,0.0091
2401.00,0.0091
2400.00,0.0091
2399.00,0.0091
2398.00,0.0091
2397.00,0.0091
2396.00,0.0091
2395.00,0.0091
2394.00,0.0091
2393.00,0.0091
2392.00,0.0092
2391.00,0.0092
2390.00,0.0092
2389.00,0.0092
2388.00,0.0092
2387.00,0.0091
2386.00,0.0091
2385.00,0.0090
2384.00,0.0089
2383.00,0.0089
2382.00,0.0088
2381.00,0.0088
2380.00,0.0087
2379.00,0.0087
2378.00,0.0087
2377.00,0.0087
2376.00,0.0087
2375.00,0.0087
2374.00,0.0087
2373.00,0.0087
2372.00,0.0087
2371.00,0.0087
2370.00,0.0087
2369.00,0.0087
2368.00,0.0087
2367.00,0.0087
2366.00,0.0086
2365.00,0.0086
2364.00,0.0086
2363.00,0.0087
2362.00,0.0087
2361.00,0.0087
2360.00,0.0087
2359.00,0.0087
2358.00,0.0087
2357.00,0.0088
2356.00,0.0088
2355.00,0.0089
2354.00,0.0089
2353.00,0.0089
2352.00,0.0088
2351.00,0.0088
2350.00,0.0089
2349.00,0.0089
2348.00,0.0089
2347.00,0.0090
2346.00,0.0089
2345.00,0.0089
2344.00,0.0089
2343.00,0.0090
2342.00,0.0090
2341.00,0.0091
2340.00,0.0091
2339.00,0.0092
2338.00,0.0092
2337.00,0.0093
2336.00,0.0093
2335.00,0.0093
2334.00,0.0093
2333.00,0.0093
2332.00,0.0093
2331.00,0.0093
2330.00,0.0094
2329.00,0.0096
2328.00,0.0098
2327.00,0.0101
2326.00,0.0104
2325.00,0.0105
2324.00,0.0104
2323.00,0.0103
2322.00,0.0101
2321.00,0.0100
2320.00,0.0099
2319.00,0.0099
2318.00,0.0098
2317.00,0.0098
2316.00,0.0098
2315.00,0.0097
2314.00,0.0097
2313.00,0.0097
2312.00,0.0096
2311.00,0.0096
2310.00,0.0096
2309.00,0.0096
2308.00,0.0096
2307.00,0.0096
2306.00,0.0095
2305.00,0.0096
2304.00,0.0096
2303.00,0.0096
2302.00,0.0096
2301.00,0.0096
2300.00,0.0097
2299.00,0.0097
2298.00,0.0097
2297.00,0.0098
2296.00,0.0099
2295.00,0.0100
2294.00,0.0100
2293.00,0.0101
2292.00,0.0101
2291.00,0.0102
2290.00,0.0103
2289.00,0.0103
2288.00,0.0103
2287.00,0.0103
2286.00,0.0103
2285.00,0.0102
2284.00,0.0102
2283.00,0.0101
2282.00,0.0101
2281.00,0.0100
2280.00,0.0100
2279.00,0.0100
2278.00,0.0099
2277.00,0.0098
2276.00,0.0098
2275.00,0.0098
2274.00,0.0099
2273.00,0.0099
2272.00,0.0100
2271.00,0.0100
2270.00,0.0099
2269.00,0.0098
2268.00,0.0098
2267.00,0.0097
2266.00,0.0097
2265.00,0.0097
2264.00,0.0097
2263.00,0.0097
2262.00,0.0097
2261.00,0.0098
2260.00,0.0098
2259.00,0.0099
2258.00,0.0098
2257.00,0.0097
2256.00,0.0095
2255.00,0.0094
2254.00,0.0093
2253.00,0.0093
2252.00,0.0094
2251.00,0.0094
2250.00,0.0095
2249.00,0.0096
2248.00,0.0096
2247.00,0.0096
2246.00,0.0096
2245.00,0.0096
2244.00,0.0096
2243.00,0.0096
2242.00,0.0096
2241.00,0.0097
2240.00,0.0097
2239.00,0.0098
2238.00,0.0098
2237.00,0.0097
2236.00,0.0097
2235.00,0.0097
2234.00,0.0096
2233.00,0.0095
2232.00,0.0095
2231.00,0.0095
2230.00,0.0095
2229.00,0.0096
2228.00,0.0096
2227.00,0.0096
2226.00,0.0095
2225.00,0.0095
2224.00,0.0096
2223.00,0.0096
2222.00,0.0096
2221.00,0.0095
2220.00,0.0094
2219.00,0.0094
2218.00,0.0094
2217.00,0.0094
2216.00,0.0094
2215.00,0.0094
2214.00,0.0093
2213.00,0.0093
2212.00,0.0093
2211.00,0.0093
2210.00,0.0093
2209.00,0.0093
2208.00,0.0093
2207.00,0.0094
2206.00,0.0095
2205.00,0.0096
2204.00,0.0097
2203.00,0.0097
2202.00,0.0096
2201.00,0.0095
2200.00,0.0096
2199.00,0.0097
2198.00,0.0097
2197.00,0.0097
2196.00,0.0097
2195.00,0.0096
2194.00,0.0095
2193.00,0.0094
2192.00,0.0095
2191.00,0.0095
2190.00,0.0095
2189.00,0.0097
2188.00,0.0098
2187.00,0.0100
2186.00,0.0100
2185.00,0.0099
2184.00,0.0096
2183.00,0.0094
2182.00,0.0093
2181.00,0.0093
2180.00,0.0095
2179.00,0.0096
2178.00,0.0095
2177.00,0.0094
2176.00,0.0093
2175.00,0.0093
2174.00,0.0095
2173.00,0.0097
2172.00,0.0099
2171.00,0.0102
2170.00,0.0104
2169.00,0.0105
2168.00,0.0106
2167.00,0.0106
2166.00,0.0105
2165.00,0.0105
2164.00,0.0105
2163.00,0.0106
2162.00,0.0103
2161.00,0.0095
2160.00,0.0085
2159.00,0.0076
2158.00,0.0070
2157.00,0.0069
2156.00,0.0070
2155.00,0.0073
2154.00,0.0076
2153.00,0.0079
2152.00,0.0081
2151.00,0.0082
2150.00,0.0081
2149.00,0.0081
2148.00,0.0081
2147.00,0.0080
2146.00,0.0081
2145.00,0.0082
2144.00,0.0083
2143.00,0.0083
2142.00,0.0083
2141.00,0.0083
2140.00,0.0083
2139.00,0.0082
2138.00,0.0081
2137.00,0.0079
2136.00,0.0077
2135.00,0.0076
2134.00,0.0076
2133.00,0.0077
2132.00,0.0079
2131.00,0.0081
2130.00,0.0082
2129.00,0.0083
2128.00,0.0084
2127.00,0.0086
2126.00,0.0086
2125.00,0.0087
2124.00,0.0088
2123.00,0.0089
2122.00,0.0090
2121.00,0.0091
2120.00,0.0092
2119.00,0.0094
2118.00,0.0094
2117.00,0.0095
2116.00,0.0095
2115.00,0.0096
2114.00,0.0096
2113.00,0.0096
2112.00,0.0096
2111.00,0.0096
2110.00,0.0095
2109.00,0.0095
2108.00,0.0094
2107.00,0.0094
2106.00,0.0094
2105.00,0.0094
2104.00,0.0094
2103.00,0.0094
2102.00,0.0093
2101.00,0.0093
2100.00,0.0093
2099.00,0.0093
2098.00,0.0093
2097.00,0.0092
2096.00,0.0091
2095.00,0.0090
2094.00,0.0090
2093.00,0.0091
2092.00,0.0092
2091.00,0.0093
2090.00,0.0093
2089.00,0.0093
2088.00,0.0094
2087.00,0.0094
2086.00,0.0094
2085.00,0.0094
2084.00,0.0094
2083.00,0.0095
2082.00,0.0095
2081.00,0.0096
2080.00,0.0096
2079.00,0.0096
2078.00,0.0096
2077.00,0.0095
2076.00,0.0095
2075.00,0.0094
2074.00,0.0094
2073.00,0.0094
2072.00,0.0093
2071.00,0.0093
2070.00,0.0092
2069.00,0.0092
2068.00,0.0093
2067.00,0.0093
2066.00,0.0093
2065.00,0.0093
2064.00,0.0092
2063.00,0.0091
2062.00,0.0091
2061.00,0.0090
2060.00,0.0090
2059.00,0.0090
2058.00,0.0090
2057.00,0.0090
2056.00,0.0090
2055.00,0.0090
2054.00,0.0092
2053.00,0.0096
2052.00,0.0100
2051.00,0.0101
2050.00,0.0098
2049.00,0.0095
2048.00,0.0092
2047.00,0.0091
2046.00,0.0091
2045.00,0.0091
2044.00,0.0092
2043.00,0.0092
2042.00,0.0092
2041.00,0.0093
2040.00,0.0094
2039.00,0.0096
2038.00,0.0097
2037.00,0.0097
2036.00,0.0096
2035.00,0.0093
2034.00,0.0090
2033.00,0.0088
2032.00,0.0087
2031.00,0.0086
2030.00,0.0086
2029.00,0.0085
2028.00,0.0085
2027.00,0.0085
2026.00,0.0086
2025.00,0.0087
2024.00,0.0088
2023.00,0.0089
2022.00,0.0088
2021.00,0.0086
2020.00,0.0086
2019.00,0.0086
2018.00,0.0085
2017.00,0.0084
2016.00,0.0083
2015.00,0.0082
2014.00,0.0081
2013.00,0.0081
2012.00,0.0083
2011.00,0.0084
2010.00,0.0084
2009.00,0.0082
2008.00,0.0081
2007.00,0.0079
2006.00,0.0078
2005.00,0.0078
2004.00,0.0079
2003.00,0.0080
2002.00,0.0082
2001.00,0.0083
2000.00,0.0084
1999.00,0.0085
1998.00,0.0085
1997.00,0.0085
1996.00,0.0085
1995.00,0.0086
1994.00,0.0087
1993.00,0.0088
1992.00,0.0088
1991.00,0.0088
1990.00,0.0087
1989.00,0.0088
1988.00,0.0089
1987.00,0.0091
1986.00,0.0091
1985.00,0.0092
1984.00,0.0094
1983.00,0.0096
1982.00,0.0098
1981.00,0.0098
1980.00,0.0096
1979.00,0.0091
1978.00,0.0084
1977.00,0.0079
1976.00,0.0078
1975.00,0.0078
1974.00,0.0078
1973.00,0.0078
1972.00,0.0078
1971.00,0.0077
1970.00,0.0076
1969.00,0.0076
1968.00,0.0077
1967.00,0.0077
1966.00,0.0077
1965.00,0.0077
1964.00,0.0078
1963.00,0.0078
1962.00,0.0077
1961.00,0.0074
1960.00,0.0072
1959.00,0.0072
1958.00,0.0072
1957.00,0.0073
1956.00,0.0074
1955.00,0.0076
1954.00,0.0076
1953.00,0.0076
1952.00,0.0076
1951.00,0.0076
1950.00,0.0075
1949.00,0.0075
1948.00,0.0076
1947.00,0.0077
1946.00,0.0078
1945.00,0.0078
1944.00,0.0078
1943.00,0.0078
1942.00,0.0077
1941.00,0.0077
1940.00,0.0076
1939.00,0.0077
1938.00,0.0077
1937.00,0.0078
1936.00,0.0079
1935.00,0.0079
1934.00,0.0078
1933.00,0.0078
1932.00,0.0078
1931.00,0.0078
1930.00,0.0078
1929.00,0.0079
1928.00,0.0080
1927.00,0.0080
1926.00,0.0080
1925.00,0.0080
1924.00,0.0080
1923.00,0.0080
1922.00,0.0080
1921.00,0.0080
1920.00,0.0080
1919.00,0.0081
1918.00,0.0080
1917.00,0.0080
1916.00,0.0080
1915.00,0.0080
1914.00,0.0080
1913.00,0.0080
1912.00,0.0080
1911.00,0.0080
1910.00,0.0080
1909.00,0.0080
1908.00,0.0081
1907.00,0.0080
1906.00,0.0080
1905.00,0.0079
1904.00,0.0079
1903.00,0.0079
1902.00,0.0079
1901.00,0.0079
1900.00,0.0079
1899.00,0.0080
1898.00,0.0080
1897.00,0.0079
1896.00,0.0079
1895.00,0.0078
1894.00,0.0078
1893.00,0.0079
1892.00,0.0079
1891.00,0.0080
1890.00,0.0080
1889.00,0.0079
1888.00,0.0079
1887.00,0.0079
1886.00,0.0078
1885.00,0.0078
1884.00,0.0079
1883.00,0.0079
1882.00,0.0079
1881.00,0.0078
1880.00,0.0078
1879.00,0.0078
1878.00,0.0078
1877.00,0.0078
1876.00,0.0079
1875.00,0.0079
1874.00,0.0078
1873.00,0.0078
1872.00,0.0077
1871.00,0.0077
1870.00,0.0077
1869.00,0.0077
1868.00,0.0078
1867.00,0.0078
1866.00,0.0078
1865.00,0.0078
1864.00,0.0078
1863.00,0.0078
1862.00,0.0077
1861.00,0.0077
1860.00,0.0077
1859.00,0.0077
1858.00,0.0077
1857.00,0.0077
1856.00,0.0077
1855.00,0.0076
1854.00,0.0076
1853.00,0.0076
1852.00,0.0076
1851.00,0.0076
1850.00,0.0077
1849.00,0.0077
1848.00,0.0078
1847.00,0.0078
1846.00,0.0079
1845.00,0.0078
1844.00,0.0078
1843.00,0.0077
1842.00,0.0076
1841.00,0.0076
1840.00,0.0076
1839.00,0.0076
1838.00,0.0076
1837.00,0.0075
1836.00,0.0075
1835.00,0.0075
1834.00,0.0075
1833.00,0.0075
1832.00,0.0075
1831.00,0.0075
1830.00,0.0075
1829.00,0.0075
1828.00,0.0075
1827.00,0.0076
1826.00,0.0075
1825.00,0.0075
1824.00,0.0075
1823.00,0.0075
1822.00,0.0074
1821.00,0.0073
1820.00,0.0072
1819.00,0.0071
1818.00,0.0071
1817.00,0.0070
1816.00,0.0070
1815.00,0.0071
1814.00,0.0071
1813.00,0.0071
1812.00,0.0071
1811.00,0.0072
1810.00,0.0072
1809.00,0.0072
1808.00,0.0072
1807.00,0.0072
1806.00,0.0071
1805.00,0.0071
1804.00,0.0071
1803.00,0.0071
1802.00,0.0072
1801.00,0.0072
1800.00,0.0072
1799.00,0.0072
1798.00,0.0071
1797.00,0.0071
1796.00,0.0071
1795.00,0.0071
1794.00,0.0071
1793.00,0.0071
1792.00,0.0071
1791.00,0.0071
1790.00,0.0071
1789.00,0.0070
1788.00,0.0070
1787.00,0.0070
1786.00,0.0070
1785.00,0.0070
1784.00,0.0070
1783.00,0.0070
1782.00,0.0070
1781.00,0.0070
1780.00,0.0070
1779.00,0.0069
1778.00,0.0069
1777.00,0.0069
1776.00,0.0069
1775.00,0.0069
1774.00,0.0069
1773.00,0.0069
1772.00,0.0069
1771.00,0.0069
1770.00,0.0069
1769.00,0.0069
1768.00,0.0069
1767.00,0.0069
1766.00,0.0068
1765.00,0.0068
1764.00,0.0068
1763.00,0.0068
1762.00,0.0068
1761.00,0.0068
1760.00,0.0068
1759.00,0.0069
1758.00,0.0069
1757.00,0.0069
1756.00,0.0069
1755.00,0.0069
1754.00,0.0069
1753.00,0.0070
1752.00,0.0070
1751.00,0.0071
1750.00,0.0071
1749.00,0.0071
1748.00,0.0071
1747.00,0.0072
1746.00,0.0071
1745.00,0.0071
1744.00,0.0072
1743.00,0.0072
1742.00,0.0072
1741.00,0.0072
1740.00,0.0072
1739.00,0.0073
1738.00,0.0073
1737.00,0.0074
1736.00,0.0075
1735.00,0.0075
1734.00,0.0075
1733.00,0.0075
1732.00,0.0076
1731.00,0.0076
1730.00,0.0077
1729.00,0.0077
1728.00,0.0078
1727.00,0.0079
1726.00,0.0079
1725.00,0.0080
1724.00,0.0082
1723.00,0.0084
1722.00,0.0085
1721.00,0.0087
1720.00,0.0090
1719.00,0.0093
1718.00,0.0096
1717.00,0.0099
1716.00,0.0103
1715.00,0.0106
1714.00,0.0109
1713.00,0.0112
1712.00,0.0117
1711.00,0.0123
1710.00,0.0129
1709.00,0.0136
1708.00,0.0144
1707.00,0.0154
1706.00,0.0165
1705.00,0.0177
1704.00,0.0191
1703.00,0.0204
1702.00,0.0219
1701.00,0.0239
1700.00,0.0264
1699.00,0.0288
1698.00,0.0309
1697.00,0.0332
1696.00,0.0362
1695.00,0.0394
1694.00,0.0423
1693.00,0.0449
1692.00,0.0478
1691.00,0.0509
1690.00,0.0543
1689.00,0.0577
1688.00,0.0610
1687.00,0.0642
1686.00,0.0675
1685.00,0.0713
1684.00,0.0755
1683.00,0.0793
1682.00,0.0824
1681.00,0.0853
1680.00,0.0883
1679.00,0.0914
1678.00,0.0942
1677.00,0.0971
1676.00,0.1000
1675.00,0.1027
1674.00,0.1050
1673.00,0.1072
1672.00,0.1094
1671.00,0.1115
1670.00,0.1133
1669.00,0.1149
1668.00,0.1164
1667.00,0.1178
1666.00,0.1192
1665.00,0.1207
1664.00,0.1220
1663.00,0.1231
1662.00,0.1238
1661.00,0.1245
1660.00,0.1254
1659.00,0.1262
1658.00,0.1269
1657.00,0.1277
1656.00,0.1286
1655.00,0.1293
1654.00,0.1288
1653.00,0.1268
1652.00,0.1247
1651.00,0.1237
1650.00,0.1232
1649.00,0.1225
1648.00,0.1209
1647.00,0.1181
1646.00,0.1146
1645.00,0.1114
1644.00,0.1086
1643.00,0.1061
1642.00,0.1033
1641.00,0.1004
1640.00,0.0975
1639.00,0.0947
1638.00,0.0920
1637.00,0.0890
1636.00,0.0853
1635.00,0.0816
1634.00,0.0786
1633.00,0.0762
1632.00,0.0741
1631.00,0.0721
1630.00,0.0699
1629.00,0.0677
1628.00,0.0655
1627.00,0.0635
1626.00,0.0617
1625.00,0.0600
1624.00,0.0582
1623.00,0.0563
1622.00,0.0547
1621.00,0.0532
1620.00,0.0519
1619.00,0.0507
1618.00,0.0494
1617.00,0.0479
1616.00,0.0464
1615.00,0.0451
1614.00,0.0441
1613.00,0.0431
1612.00,0.0420
1611.00,0.0410
1610.00,0.0400
1609.00,0.0391
1608.00,0.0382
1607.00,0.0374
1606.00,0.0366
1605.00,0.0358
1604.00,0.0350
1603.00,0.0343
1602.00,0.0336
1601.00,0.0330
1600.00,0.0323
1599.00,0.0317
1598.00,0.0312
1597.00,0.0306
1596.00,0.0301
1595.00,0.0296
1594.00,0.0291
1593.00,0.0287
1592.00,0.0282
1591.00,0.0278
1590.00,0.0274
1589.00,0.0270
1588.00,0.0266
1587.00,0.0262
1586.00,0.0259
1585.00,0.0255
1584.00,0.0252
1583.00,0.0248
1582.00,0.0245
1581.00,0.0243
1580.00,0.0240
1579.00,0.0238
1578.00,0.0236
1577.00,0.0233
1576.00,0.0230
1575.00,0.0228
1574.00,0.0226
1573.00,0.0224
1572.00,0.0221
1571.00,0.0219
1570.00,0.0216
1569.00,0.0215
1568.00,0.0213
1567.00,0.0211
1566.00,0.0210
1565.00,0.0208
1564.00,0.0206
1563.00,0.0204
1562.00,0.0204
1561.00,0.0203
1560.00,0.0202
1559.00,0.0200
1558.00,0.0200
1557.00,0.0199
1556.00,0.0197
1555.00,0.0196
1554.00,0.0194
1553.00,0.0192
1552.00,0.0191
1551.00,0.0189
1550.00,0.0189
1549.00,0.0188
1548.00,0.0187
1547.00,0.0186
1546.00,0.0185
1545.00,0.0184
1544.00,0.0183
1543.00,0.0182
1542.00,0.0181
1541.00,0.0180
1540.00,0.0179
1539.00,0.0178
1538.00,0.0177
1537.00,0.0176
1536.00,0.0175
1535.00,0.0174
1534.00,0.0173
1533.00,0.0172
1532.00,0.0171
1531.00,0.0170
1530.00,0.0169
1529.00,0.0168
1528.00,0.0168
1527.00,0.0167
1526.00,0.0167
1525.00,0.0167
1524.00,0.0166
1523.00,0.0165
1522.00,0.0165
1521.00,0.0165
1520.00,0.0164
1519.00,0.0164
1518.00,0.0164
1517.00,0.0164
1516.00,0.0164
1515.00,0.0164
1514.00,0.0164
1513.00,0.0165
1512.00,0.0166
1511.00,0.0167
1510.00,0.0169
1509.00,0.0173
1508.00,0.0177
1507.00,0.0184
1506.00,0.0191
1505.00,0.0198
1504.00,0.0204
1503.00,0.0211
1502.00,0.0220
1501.00,0.0231
1500.00,0.0242
1499.00,0.0254
1498.00,0.0267
1497.00,0.0279
1496.00,0.0290
1495.00,0.0299
1494.00,0.0305
1493.00,0.0308
1492.00,0.0309
1491.00,0.0307
1490.00,0.0302
1489.00,0.0294
1488.00,0.0284
1487.00,0.0272
1486.00,0.0261
1485.00,0.0250
1484.00,0.0239
1483.00,0.0230
1482.00,0.0221
1481.00,0.0214
1480.00,0.0208
1479.00,0.0204
1478.00,0.0203
1477.00,0.0203
1476.00,0.0205
1475.00,0.0209
1474.00,0.0215
1473.00,0.0226
1472.00,0.0241
1471.00,0.0258
1470.00,0.0275
1469.00,0.0295
1468.00,0.0318
1467.00,0.0344
1466.00,0.0373
1465.00,0.0406
1464.00,0.0437
1463.00,0.0462
1462.00,0.0480
1461.00,0.0493
1460.00,0.0500
1459.00,0.0500
1458.00,0.0490
1457.00,0.0470
1456.00,0.0445
1455.00,0.0423
1454.00,0.0406
1453.00,0.0391
1452.00,0.0379
1451.00,0.0371
1450.00,0.0366
1449.00,0.0366
1448.00,0.0371
1447.00,0.0379
1446.00,0.0391
1445.00,0.0407
1444.00,0.0425
1443.00,0.0447
1442.00,0.0470
1441.00,0.0494
1440.00,0.0518
1439.00,0.0541
1438.00,0.0564
1437.00,0.0587
1436.00,0.0608
1435.00,0.0625
1434.00,0.0637
1433.00,0.0647
1432.00,0.0657
1431.00,0.0667
1430.00,0.0679
1429.00,0.0694
1428.00,0.0712
1427.00,0.0734
1426.00,0.0758
1425.00,0.0785
1424.00,0.0813
1423.00,0.0836
1422.00,0.0853
1421.00,0.0862
1420.00,0.0860
1419.00,0.0843
1418.00,0.0816
1417.00,0.0784
1416.00,0.0747
1415.00,0.0707
1414.00,0.0665
1413.00,0.0623
1412.00,0.0582
1411.00,0.0542
1410.00,0.0506
1409.00,0.0475
1408.00,0.0447
1407.00,0.0423
1406.00,0.0401
1405.00,0.0381
1404.00,0.0364
1403.00,0.0349
1402.00,0.0337
1401.00,0.0327
1400.00,0.0317
1399.00,0.0308
1398.00,0.0301
1397.00,0.0296
1396.00,0.0291
1395.00,0.0286
1394.00,0.0283
1393.00,0.0281
1392.00,0.0279
1391.00,0.0278
1390.00,0.0279
1389.00,0.0280
1388.00,0.0283
1387.00,0.0286
1386.00,0.0290
1385.00,0.0295
1384.00,0.0299
1383.00,0.0305
1382.00,0.0311
1381.00,0.0318
1380.00,0.0325
1379.00,0.0331
1378.00,0.0338
1377.00,0.0345
1376.00,0.0351
1375.00,0.0355
1374.00,0.0359
1373.00,0.0361
1372.00,0.0362
1371.00,0.0361
1370.00,0.0359
1369.00,0.0356
1368.00,0.0351
1367.00,0.0346
1366.00,0.0340
1365.00,0.0333
1364.00,0.0325
1363.00,0.0317
1362.00,0.0308
1361.00,0.0299
1360.00,0.0291
1359.00,0.0284
1358.00,0.0277
1357.00,0.0271
1356.00,0.0266
1355.00,0.0260
1354.00,0.0256
1353.00,0.0252
1352.00,0.0247
1351.00,0.0244
1350.00,0.0240
1349.00,0.0237
1348.00,0.0233
1347.00,0.0230
1346.00,0.0228
1345.00,0.0226
1344.00,0.0224
1343.00,0.0222
1342.00,0.0222
1341.00,0.0221
1340.00,0.0221
1339.00,0.0221
1338.00,0.0221
1337.00,0.0222
1336.00,0.0222
1335.00,0.0223
1334.00,0.0225
1333.00,0.0227
1332.00,0.0230
1331.00,0.0234
1330.00,0.0240
1329.00,0.0246
1328.00,0.0253
1327.00,0.0260
1326.00,0.0269
1325.00,0.0278
1324.00,0.0288
1323.00,0.0298
1322.00,0.0308
1321.00,0.0319
1320.00,0.0329
1319.00,0.0337
1318.00,0.0345
1317.00,0.0350
1316.00,0.0353
1315.00,0.0353
1314.00,0.0352
1313.00,0.0348
1312.00,0.0342
1311.00,0.0336
1310.00,0.0329
1309.00,0.0323
1308.00,0.0318
1307.00,0.0314
1306.00,0.0312
1305.00,0.0312
1304.00,0.0314
1303.00,0.0320
1302.00,0.0328
1301.00,0.0341
1300.00,0.0357
1299.00,0.0379
1298.00,0.0406
1297.00,0.0438
1296.00,0.0476
1295.00,0.0519
1294.00,0.0565
1293.00,0.0615
1292.00,0.0665
1291.00,0.0715
1290.00,0.0763
1289.00,0.0806
1288.00,0.0844
1287.00,0.0874
1286.00,0.0896
1285.00,0.0910
1284.00,0.0914
1283.00,0.0911
1282.00,0.0902
1281.00,0.0890
1280.00,0.0877
1279.00,0.0866
1278.00,0.0859
1277.00,0.0857
1276.00,0.0859
1275.00,0.0866
1274.00,0.0875
1273.00,0.0886
1272.00,0.0895
1271.00,0.0902
1270.00,0.0905
1269.00,0.0903
1268.00,0.0896
1267.00,0.0884
1266.00,0.0867
1265.00,0.0846
1264.00,0.0822
1263.00,0.0797
1262.00,0.0770
1261.00,0.0742
1260.00,0.0715
1259.00,0.0689
1258.00,0.0664
1257.00,0.0641
1256.00,0.0619
1255.00,0.0599
1254.00,0.0580
1253.00,0.0563
1252.00,0.0547
1251.00,0.0534
1250.00,0.0521
1249.00,0.0511
1248.00,0.0502
1247.00,0.0494
1246.00,0.0488
1245.00,0.0483
1244.00,0.0479
1243.00,0.0476
1242.00,0.0474
1241.00,0.0473
1240.00,0.0474
1239.00,0.0475
1238.00,0.0478
1237.00,0.0481
1236.00,0.0485
1235.00,0.0490
1234.00,0.0494
1233.00,0.0499
1232.00,0.0503
1231.00,0.0507
1230.00,0.0510
1229.00,0.0512
1228.00,0.0513
1227.00,0.0513
1226.00,0.0512
1225.00,0.0511
1224.00,0.0508
1223.00,0.0505
1222.00,0.0502
1221.00,0.0499
1220.00,0.0495
1219.00,0.0492
1218.00,0.0488
1217.00,0.0484
1216.00,0.0479
1215.00,0.0474
1214.00,0.0468
1213.00,0.0462
1212.00,0.0455
1211.00,0.0448
1210.00,0.0442
1209.00,0.0436
1208.00,0.0430
1207.00,0.0424
1206.00,0.0419
1205.00,0.0415
1204.00,0.0410
1203.00,0.0406
1202.00,0.0401
1201.00,0.0398
1200.00,0.0394
1199.00,0.0390
1198.00,0.0387
1197.00,0.0383
1196.00,0.0380
1195.00,0.0376
1194.00,0.0374
1193.00,0.0371
1192.00,0.0369
1191.00,0.0366
1190.00,0.0364
1189.00,0.0362
1188.00,0.0361
1187.00,0.0359
1186.00,0.0358
1185.00,0.0358
1184.00,0.0357
1183.00,0.0357
1182.00,0.0357
1181.00,0.0358
1180.00,0.0358
1179.00,0.0360
1178.00,0.0362
1177.00,0.0364
1176.00,0.0367
1175.00,0.0370
1174.00,0.0374
1173.00,0.0378
1172.00,0.0382
1171.00,0.0386
1170.00,0.0389
1169.00,0.0392
1168.00,0.0393
1167.00,0.0394
1166.00,0.0393
1165.00,0.0391
1164.00,0.0388
1163.00,0.0384
1162.00,0.0380
1161.00,0.0375
1160.00,0.0370
1159.00,0.0365
1158.00,0.0360
1157.00,0.0355
1156.00,0.0350
1155.00,0.0345
1154.00,0.0341
1153.00,0.0338
1152.00,0.0333
1151.00,0.0329
1150.00,0.0326
1149.00,0.0322
1148.00,0.0319
1147.00,0.0315
1146.00,0.0312
1145.00,0.0309
1144.00,0.0305
1143.00,0.0302
1142.00,0.0299
1141.00,0.0296
1140.00,0.0293
1139.00,0.0290
1138.00,0.0287
1137.00,0.0285
1136.00,0.0283
1135.00,0.0281
1134.00,0.0280
1133.00,0.0279
1132.00,0.0278
1131.00,0.0278
1130.00,0.0279
1129.00,0.0279
1128.00,0.0280
1127.00,0.0280
1126.00,0.0281
1125.00,0.0282
1124.00,0.0282
1123.00,0.0283
1122.00,0.0283
1121.00,0.0284
1120.00,0.0284
1119.00,0.0284
1118.00,0.0285
1117.00,0.0286
1116.00,0.0286
1115.00,0.0286
1114.00,0.0287
1113.00,0.0287
1112.00,0.0287
1111.00,0.0287
1110.00,0.0287
1109.00,0.0287
1108.00,0.0287
1107.00,0.0288
1106.00,0.0288
1105.00,0.0289
1104.00,0.0288
1103.00,0.0288
1102.00,0.0288
1101.00,0.0289
1100.00,0.0288
1099.00,0.0288
1098.00,0.0288
1097.00,0.0288
1096.00,0.0288
1095.00,0.0288
1094.00,0.0289
1093.00,0.0289
1092.00,0.0289
1091.00,0.0289
1090.00,0.0289
1089.00,0.0289
1088.00,0.0289
1087.00,0.0289
1086.00,0.0289
1085.00,0.0290
1084.00,0.0290
1083.00,0.0290
1082.00,0.0291
1081.00,0.0293
1080.00,0.0294
1079.00,0.0295
1078.00,0.0297
1077.00,0.0299
1076.00,0.0300
1075.00,0.0301
1074.00,0.0302
1073.00,0.0302
1072.00,0.0300
1071.00,0.0298
1070.00,0.0296
1069.00,0.0293
1068.00,0.0290
1067.00,0.0286
1066.00,0.0283
1065.00,0.0281
1064.00,0.0278
1063.00,0.0276
1062.00,0.0274
1061.00,0.0272
1060.00,0.0269
1059.00,0.0267
1058.00,0.0265
1057.00,0.0264
1056.00,0.0262
1055.00,0.0261
1054.00,0.0261
1053.00,0.0261
1052.00,0.0260
1051.00,0.0260
1050.00,0.0261
1049.00,0.0261
1048.00,0.0261
1047.00,0.0262
1046.00,0.0263
1045.00,0.0265
1044.00,0.0265
1043.00,0.0266
1042.00,0.0267
1041.00,0.0269
1040.00,0.0269
1039.00,0.0270
1038.00,0.0270
1037.00,0.0268
1036.00,0.0262
1035.00,0.0254
1034.00,0.0247
1033.00,0.0246
1032.00,0.0250
1031.00,0.0259
1030.00,0.0268
1029.00,0.0273
1028.00,0.0277
1027.00,0.0280
1026.00,0.0283
1025.00,0.0287
1024.00,0.0290
1023.00,0.0294
1022.00,0.0298
1021.00,0.0301
1020.00,0.0304
1019.00,0.0306
1018.00,0.0308
1017.00,0.0309
1016.00,0.0308
1015.00,0.0305
1014.00,0.0301
1013.00,0.0297
1012.00,0.0291
1011.00,0.0286
1010.00,0.0282
1009.00,0.0278
1008.00,0.0276
1007.00,0.0276
1006.00,0.0278
1005.00,0.0280
1004.00,0.0283
1003.00,0.0286
1002.00,0.0289
1001.00,0.0290
1000.00,0.0291
999.00,0.0291
998.00,0.0290
997.00,0.0288
996.00,0.0285
995.00,0.0282
994.00,0.0280
993.00,0.0277
992.00,0.0275
991.00,0.0272
990.00,0.0270
989.00,0.0268
988.00,0.0266
987.00,0.0264
986.00,0.0263
985.00,0.0261
984.00,0.0259
983.00,0.0258
982.00,0.0257
981.00,0.0256
980.00,0.0255
979.00,0.0254
978.00,0.0253
977.00,0.0252
976.00,0.0251
975.00,0.0250
974.00,0.0249
973.00,0.0249
972.00,0.0247
971.00,0.0246
970.00,0.0245
969.00,0.0244
968.00,0.0243
967.00,0.0242
966.00,0.0242
965.00,0.0242
964.00,0.0241
963.00,0.0240
962.00,0.0239
961.00,0.0238
960.00,0.0237
959.00,0.0236
958.00,0.0236
957.00,0.0235
956.00,0.0233
955.00,0.0232
954.00,0.0232
953.00,0.0231
952.00,0.0231
951.00,0.0230
950.00,0.0230
949.00,0.0230
948.00,0.0229
947.00,0.0229
946.00,0.0230
945.00,0.0231
944.00,0.0231
943.00,0.0232
942.00,0.0235
941.00,0.0237
940.00,0.0240
939.00,0.0244
938.00,0.0249
937.00,0.0254
936.00,0.0259
935.00,0.0263
934.00,0.0268
933.00,0.0271
932.00,0.0271
931.00,0.0270
930.00,0.0267
929.00,0.0264
928.00,0.0261
927.00,0.0258
926.00,0.0256
925.00,0.0255
924.00,0.0253
923.00,0.0251
922.00,0.0250
921.00,0.0248
920.00,0.0246
919.00,0.0244
918.00,0.0243
917.00,0.0242
916.00,0.0240
915.00,0.0239
914.00,0.0238
913.00,0.0237
912.00,0.0236
911.00,0.0235
910.00,0.0235
909.00,0.0235
908.00,0.0235
907.00,0.0235
906.00,0.0237
905.00,0.0239
904.00,0.0240
903.00,0.0242
902.00,0.0245
901.00,0.0248
900.00,0.0250
899.00,0.0252
898.00,0.0255
897.00,0.0257
896.00,0.0258
895.00,0.0259
894.00,0.0259
893.00,0.0259
892.00,0.0258
891.00,0.0256
890.00,0.0254
889.00,0.0252
888.00,0.0249
887.00,0.0247
886.00,0.0246
885.00,0.0244
884.00,0.0242
883.00,0.0240
882.00,0.0239
881.00,0.0238
880.00,0.0237
879.00,0.0236
878.00,0.0236
877.00,0.0235
876.00,0.0234
875.00,0.0234
874.00,0.0234
873.00,0.0235
872.00,0.0235
871.00,0.0235
870.00,0.0236
869.00,0.0237
868.00,0.0238
867.00,0.0238
866.00,0.0240
865.00,0.0242
864.00,0.0244
863.00,0.0247
862.00,0.0250
861.00,0.0254
860.00,0.0258
859.00,0.0262
858.00,0.0268
857.00,0.0274
856.00,0.0279
855.00,0.0286
854.00,0.0293
853.00,0.0300
852.00,0.0307
851.00,0.0314
850.00,0.0321
849.00,0.0327
848.00,0.0332
847.00,0.0337
846.00,0.0341
845.00,0.0344
844.00,0.0345
843.00,0.0345
842.00,0.0345
841.00,0.0344
840.00,0.0341
839.00,0.0338
838.00,0.0335
837.00,0.0331
836.00,0.0326
835.00,0.0322
834.00,0.0318
833.00,0.0313
832.00,0.0308
831.00,0.0303
830.00,0.0299
829.00,0.0294
828.00,0.0290
827.00,0.0285
826.00,0.0281
825.00,0.0277
824.00,0.0273
823.00,0.0269
822.00,0.0267
821.00,0.0264
820.00,0.0261
819.00,0.0258
818.00,0.0256
817.00,0.0254
816.00,0.0251
815.00,0.0250
814.00,0.0249
813.00,0.0249
812.00,0.0247
811.00,0.0246
810.00,0.0245
809.00,0.0243
808.00,0.0241
807.00,0.0240
806.00,0.0239
805.00,0.0238
804.00,0.0237
803.00,0.0235
802.00,0.0235
801.00,0.0235
800.00,0.0234
799.00,0.0234
798.00,0.0234
797.00,0.0234
796.00,0.0233
795.00,0.0233
794.00,0.0233
793.00,0.0234
792.00,0.0234
791.00,0.0234
790.00,0.0234
789.00,0.0234
788.00,0.0233
787.00,0.0233
786.00,0.0234
785.00,0.0234
784.00,0.0233
783.00,0.0232
782.00,0.0232
781.00,0.0233
780.00,0.0233
779.00,0.0234
778.00,0.0235
777.00,0.0235
776.00,0.0235
775.00,0.0236
774.00,0.0237
773.00,0.0238
772.00,0.0239
771.00,0.0240
770.00,0.0243
769.00,0.0245
768.00,0.0247
767.00,0.0249
766.00,0.0251
765.00,0.0252
764.00,0.0254
763.00,0.0256
762.00,0.0259
761.00,0.0263
760.00,0.0266
759.00,0.0269
758.00,0.0273
757.00,0.0277
756.00,0.0280
755.00,0.0284
754.00,0.0288
753.00,0.0292
752.00,0.0295
751.00,0.0299
750.00,0.0303
749.00,0.0308
748.00,0.0312
747.00,0.0316
746.00,0.0320
745.00,0.0324
744.00,0.0327
743.00,0.0330
742.00,0.0334
741.00,0.0338
740.00,0.0341
739.00,0.0345
738.00,0.0349
737.00,0.0354
736.00,0.0357
735.00,0.0360
734.00,0.0363
733.00,0.0364
732.00,0.0363
731.00,0.0360
730.00,0.0357
729.00,0.0353
728.00,0.0348
727.00,0.0342
726.00,0.0338
725.00,0.0333
724.00,0.0327
723.00,0.0322
722.00,0.0318
721.00,0.0314
720.00,0.0310
719.00,0.0306
718.00,0.0305
717.00,0.0303
716.00,0.0301
715.00,0.0300
714.00,0.0299
713.00,0.0298
712.00,0.0297
711.00,0.0295
710.00,0.0295
709.00,0.0296
708.00,0.0296
707.00,0.0296
706.00,0.0297
705.00,0.0297
704.00,0.0297
703.00,0.0296
702.00,0.0297
701.00,0.0299
700.00,0.0301
699.00,0.0302
698.00,0.0304
697.00,0.0306
696.00,0.0307
695.00,0.0310
694.00,0.0313
693.00,0.0315
692.00,0.0317
691.00,0.0319
690.00,0.0321
689.00,0.0324
688.00,0.0327
687.00,0.0330
686.00,0.0333
685.00,0.0337
684.00,0.0339
683.00,0.0342
682.00,0.0345
681.00,0.0349
680.00,0.0352
679.00,0.0355
678.00,0.0359
677.00,0.0363
676.00,0.0366
675.00,0.0369
674.00,0.0373
673.00,0.0377
672.00,0.0381
671.00,0.0385
670.00,0.0391
669.00,0.0399
668.00,0.0407
667.00,0.0415
666.00,0.0420
665.00,0.0423
664.00,0.0428
663.00,0.0435
662.00,0.0444
661.00,0.0453
660.00,0.0462
659.00,0.0471
658.00,0.0480
657.00,0.0490
656.00,0.0498
655.00,0.0508
654.00,0.0518
653.00,0.0528
652.00,0.0535
651.00,0.0541
650.00,0.0547
649.00,0.0552
648.00,0.0555
647.00,0.0556
646.00,0.0558
645.00,0.0557
644.00,0.0554
643.00,0.0550
642.00,0.0546
641.00,0.0540
640.00,0.0534
639.00,0.0528
638.00,0.0523
637.00,0.0518
636.00,0.0512
635.00,0.0506
634.00,0.0501
633.00,0.0497
632.00,0.0493
631.00,0.0489
630.00,0.0486
629.00,0.0482
628.00,0.0478
627.00,0.0475
626.00,0.0474
625.00,0.0472
624.00,0.0469
623.00,0.0466
622.00,0.0464
621.00,0.0462
620.00,0.0459
619.00,0.0458
618.00,0.0458
617.00,0.0458
616.00,0.0458
615.00,0.0458
614.00,0.0459
613.00,0.0460
612.00,0.0458
611.00,0.0456
610.00,0.0456
609.00,0.0457
608.00,0.0458
607.00,0.0459
606.00,0.0461
605.00,0.0462
604.00,0.0462
603.00,0.0462
602.00,0.0464
601.00,0.0466
600.00,0.0466
599.00,0.0467
598.00,0.0470
597.00,0.0473
596.00,0.0476
595.00,0.0477
594.00,0.0481
593.00,0.0484
592.00,0.0487
591.00,0.0492
590.00,0.0499
589.00,0.0505
588.00,0.0510
587.00,0.0516
586.00,0.0524
585.00,0.0533
584.00,0.0542
583.00,0.0550
582.00,0.0560
581.00,0.0570
580.00,0.0578
579.00,0.0586
578.00,0.0594
577.00,0.0601
576.00,0.0605
575.00,0.0610
574.00,0.0617
573.00,0.0622
572.00,0.0626
571.00,0.0629
570.00,0.0632
569.00,0.0633
568.00,0.0631
567.00,0.0627
566.00,0.0624
565.00,0.0620
564.00,0.0613
563.00,0.0607
562.00,0.0602
561.00,0.0596
560.00,0.0590
559.00,0.0585
558.00,0.0582
557.00,0.0579
556.00,0.0573
555.00,0.0567
554.00,0.0562
553.00,0.0560
552.00,0.0557
551.00,0.0555
550.00,0.0555
549.00,0.0554
548.00,0.0551
547.00,0.0548
546.00,0.0546
545.00,0.0544
544.00,0.0539
543.00,0.0536
542.00,0.0534
541.00,0.0534
540.00,0.0532
539.00,0.0531
538.00,0.0532
537.00,0.0532
536.00,0.0531
535.00,0.0530
534.00,0.0532
533.00,0.0533
532.00,0.0531
531.00,0.0529
530.00,0.0531
529.00,0.0532
528.00,0.0531
527.00,0.0530
526.00,0.0531
525.00,0.0531
524.00,0.0529
523.00,0.0529
522.00,0.0531
521.00,0.0532
520.00,0.0531
519.00,0.0528
518.00,0.0529
517.00,0.0531
516.00,0.0531
515.00,0.0532
514.00,0.0534
513.00,0.0535
512.00,0.0533
511.00,0.0532
510.00,0.0535
509.00,0.0537
508.00,0.0537
507.00,0.0535
506.00,0.0536
505.00,0.0537
504.00,0.0538
503.00,0.0540
502.00,0.0542
501.00,0.0543
500.00,0.0541
499.00,0.0541
498.00,0.0544
497.00,0.0547
496.00,0.0546
495.00,0.0545
494.00,0.0547
493.00,0.0548
492.00,0.0546
491.00,0.0544
490.00,0.0547
489.00,0.0550
488.00,0.0552
487.00,0.0553
486.00,0.0557
485.00,0.0560
484.00,0.0561
483.00,0.0562
482.00,0.0565
481.00,0.0567
480.00,0.0564
479.00,0.0563
478.00,0.0567
477.00,0.0574
476.00,0.0577
475.00,0.0582
474.00,0.0589
473.00,0.0593
472.00,0.0591
471.00,0.0591
470.00,0.0594
469.00,0.0597
468.00,0.0594
467.00,0.0589
466.00,0.0587
465.00,0.0583
464.00,0.0576
463.00,0.0570
462.00,0.0570
461.00,0.0571
460.00,0.0568
459.00,0.0566
458.00,0.0569
457.00,0.0571
456.00,0.0569
455.00,0.0566
454.00,0.0567
453.00,0.0565
452.00,0.0558
451.00,0.0554
450.00,0.0555
449.00,0.0557
448.00,0.0554
447.00,0.0551
446.00,0.0552
445.00,0.0552
444.00,0.0548
443.00,0.0545
442.00,0.0548
441.00,0.0548
440.00,0.0541
439.00,0.0533
438.00,0.0531
437.00,0.0528
436.00,0.0522
435.00,0.0518
434.00,0.0521
433.00,0.0522
432.00,0.0517
431.00,0.0512
430.00,0.0514
429.00,0.0515
428.00,0.0510
427.00,0.0506
426.00,0.0508
425.00,0.0510
424.00,0.0507
423.00,0.0507
422.00,0.0514
421.00,0.0517
420.00,0.0506
419.00,0.0491
418.00,0.0487
417.00,0.0485
416.00,0.0475
415.00,0.0468
414.00,0.0472
413.00,0.0478
412.00,0.0477
411.00,0.0478
410.00,0.0489
409.00,0.0498
408.00,0.0497
407.00,0.0497
406.00,0.0504
405.00,0.0500
404.00,0.0477
403.00,0.0457
402.00,0.0462
401.00,0.0474
400.00,0.0473
