Created as New Dataset,Sample 207 By YargerLab Date Monday, June 10 2024
cm-1,A
4000.00,0.0025
3999.00,0.0025
3998.00,0.0024
3997.00,0.0024
3996.00,0.0024
3995.00,0.0024
3994.00,0.0024
3993.00,0.0024
3992.00,0.0024
3991.00,0.0024
3990.00,0.0024
3989.00,0.0024
3988.00,0.0024
3987.00,0.0024
3986.00,0.0024
3985.00,0.0024
3984.00,0.0024
3983.00,0.0024
3982.00,0.0024
3981.00,0.0024
3980.00,0.0024
3979.00,0.0024
3978.00,0.0024
3977.00,0.0024
3976.00,0.0024
3975.00,0.0024
3974.00,0.0024
3973.00,0.0024
3972.00,0.0024
3971.00,0.0024
3970.00,0.0024
3969.00,0.0024
3968.00,0.0024
3967.00,0.0024
3966.00,0.0024
3965.00,0.0024
3964.00,0.0024
3963.00,0.0024
3962.00,0.0024
3961.00,0.0024
3960.00,0.0024
3959.00,0.0024
3958.00,0.0024
3957.00,0.0024
3956.00,0.0024
3955.00,0.0024
3954.00,0.0024
3953.00,0.0024
3952.00,0.0024
3951.00,0.0024
3950.00,0.0024
3949.00,0.0024
3948.00,0.0025
3947.00,0.0025
3946.00,0.0025
3945.00,0.0024
3944.00,0.0024
3943.00,0.0024
3942.00,0.0024
3941.00,0.0024
3940.00,0.0024
3939.00,0.0024
3938.00,0.0024
3937.00,0.0024
3936.00,0.0024
3935.00,0.0025
3934.00,0.0025
3933.00,0.0025
3932.00,0.0025
3931.00,0.0025
3930.00,0.0024
3929.00,0.0024
3928.00,0.0024
3927.00,0.0024
3926.00,0.0024
3925.00,0.0024
3924.00,0.0024
3923.00,0.0024
3922.00,0.0024
3921.00,0.0025
3920.00,0.0025
3919.00,0.0025
3918.00,0.0025
3917.00,0.0025
3916.00,0.0025
3915.00,0.0024
3914.00,0.0024
3913.00,0.0024
3912.00,0.0024
3911.00,0.0024
3910.00,0.0024
3909.00,0.0024
3908.00,0.0024
3907.00,0.0024
3906.00,0.0024
3905.00,0.0025
3904.00,0.0025
3903.00,0.0026
3902.00,0.0026
3901.00,0.0026
3900.00,0.0026
3899.00,0.0025
3898.00,0.0025
3897.00,0.0025
3896.00,0.0025
3895.00,0.0025
3894.00,0.0024
3893.00,0.0024
3892.00,0.0024
3891.00,0.0024
3890.00,0.0024
3889.00,0.0025
3888.00,0.0025
3887.00,0.0025
3886.00,0.0025
3885.00,0.0025
3884.00,0.0025
3883.00,0.0025
3882.00,0.0025
3881.00,0.0025
3880.00,0.0025
3879.00,0.0025
3878.00,0.0025
3877.00,0.0025
3876.00,0.0025
3875.00,0.0025
3874.00,0.0025
3873.00,0.0025
3872.00,0.0025
3871.00,0.0025
3870.00,0.0026
3869.00,0.0025
3868.00,0.0025
3867.00,0.0025
3866.00,0.0025
3865.00,0.0025
3864.00,0.0025
3863.00,0.0025
3862.00,0.0025
3861.00,0.0025
3860.00,0.0025
3859.00,0.0025
3858.00,0.0024
3857.00,0.0023
3856.00,0.0023
3855.00,0.0023
3854.00,0.0023
3853.00,0.0024
3852.00,0.0024
3851.00,0.0024
3850.00,0.0025
3849.00,0.0025
3848.00,0.0025
3847.00,0.0025
3846.00,0.0025
3845.00,0.0025
3844.00,0.0025
3843.00,0.0025
3842.00,0.0025
3841.00,0.0025
3840.00,0.0025
3839.00,0.0025
3838.00,0.0025
3837.00,0.0025
3836.00,0.0024
3835.00,0.0024
3834.00,0.0024
3833.00,0.0025
3832.00,0.0025
3831.00,0.0024
3830.00,0.0024
3829.00,0.0024
3828.00,0.0025
3827.00,0.0025
3826.00,0.0024
3825.00,0.0024
3824.00,0.0025
3823.00,0.0025
3822.00,0.0025
3821.00,0.0025
3820.00,0.0024
3819.00,0.0024
3818.00,0.0025
3817.00,0.0025
3816.00,0.0025
3815.00,0.0025
3814.00,0.0024
3813.00,0.0024
3812.00,0.0024
3811.00,0.0024
3810.00,0.0023
3809.00,0.0023
3808.00,0.0024
3807.00,0.0024
3806.00,0.0024
3805.00,0.0024
3804.00,0.0024
3803.00,0.0025
3802.00,0.0025
3801.00,0.0024
3800.00,0.0024
3799.00,0.0024
3798.00,0.0024
3797.00,0.0024
3796.00,0.0024
3795.00,0.0023
3794.00,0.0023
3793.00,0.0023
3792.00,0.0023
3791.00,0.0023
3790.00,0.0022
3789.00,0.0022
3788.00,0.0022
3787.00,0.0023
3786.00,0.0023
3785.00,0.0023
3784.00,0.0023
3783.00,0.0023
3782.00,0.0023
3781.00,0.0023
3780.00,0.0023
3779.00,0.0023
3778.00,0.0023
3777.00,0.0023
3776.00,0.0022
3775.00,0.0022
3774.00,0.0022
3773.00,0.0022
3772.00,0.0022
3771.00,0.0022
3770.00,0.0023
3769.00,0.0023
3768.00,0.0023
3767.00,0.0023
3766.00,0.0023
3765.00,0.0023
3764.00,0.0023
3763.00,0.0023
3762.00,0.0023
3761.00,0.0023
3760.00,0.0023
3759.00,0.0023
3758.00,0.0023
3757.00,0.0023
3756.00,0.0023
3755.00,0.0024
3754.00,0.0024
3753.00,0.0024
3752.00,0.0024
3751.00,0.0024
3750.00,0.0025
3749.00,0.0025
3748.00,0.0024
3747.00,0.0024
3746.00,0.0025
3745.00,0.0025
3744.00,0.0025
3743.00,0.0025
3742.00,0.0025
3741.00,0.0025
3740.00,0.0025
3739.00,0.0026
3738.00,0.0026
3737.00,0.0026
3736.00,0.0026
3735.00,0.0025
3734.00,0.0025
3733.00,0.0025
3732.00,0.0025
3731.00,0.0025
3730.00,0.0024
3729.00,0.0024
3728.00,0.0024
3727.00,0.0024
3726.00,0.0024
3725.00,0.0024
3724.00,0.0024
3723.00,0.0024
3722.00,0.0024
3721.00,0.0023
3720.00,0.0023
3719.00,0.0023
3718.00,0.0023
3717.00,0.0023
3716.00,0.0023
3715.00,0.0023
3714.00,0.0023
3713.00,0.0024
3712.00,0.0024
3711.00,0.0024
3710.00,0.0024
3709.00,0.0024
3708.00,0.0024
3707.00,0.0024
3706.00,0.0023
3705.00,0.0023
3704.00,0.0023
3703.00,0.0023
3702.00,0.0023
3701.00,0.0023
3700.00,0.0023
3699.00,0.0023
3698.00,0.0023
3697.00,0.0024
3696.00,0.0024
3695.00,0.0024
3694.00,0.0024
3693.00,0.0025
3692.00,0.0025
3691.00,0.0026
3690.00,0.0027
3689.00,0.0028
3688.00,0.0029
3687.00,0.0030
3686.00,0.0031
3685.00,0.0032
3684.00,0.0033
3683.00,0.0034
3682.00,0.0036
3681.00,0.0037
3680.00,0.0039
3679.00,0.0040
3678.00,0.0042
3677.00,0.0045
3676.00,0.0047
3675.00,0.0049
3674.00,0.0051
3673.00,0.0052
3672.00,0.0053
3671.00,0.0054
3670.00,0.0055
3669.00,0.0055
3668.00,0.0056
3667.00,0.0056
3666.00,0.0057
3665.00,0.0058
3664.00,0.0058
3663.00,0.0059
3662.00,0.0060
3661.00,0.0060
3660.00,0.0061
3659.00,0.0061
3658.00,0.0061
3657.00,0.0062
3656.00,0.0062
3655.00,0.0062
3654.00,0.0061
3653.00,0.0062
3652.00,0.0062
3651.00,0.0062
3650.00,0.0062
3649.00,0.0062
3648.00,0.0062
3647.00,0.0061
3646.00,0.0060
3645.00,0.0059
3644.00,0.0057
3643.00,0.0056
3642.00,0.0055
3641.00,0.0054
3640.00,0.0053
3639.00,0.0054
3638.00,0.0054
3637.00,0.0053
3636.00,0.0052
3635.00,0.0049
3634.00,0.0046
3633.00,0.0044
3632.00,0.0043
3631.00,0.0042
3630.00,0.0042
3629.00,0.0041
3628.00,0.0041
3627.00,0.0040
3626.00,0.0040
3625.00,0.0040
3624.00,0.0040
3623.00,0.0040
3622.00,0.0039
3621.00,0.0039
3620.00,0.0039
3619.00,0.0039
3618.00,0.0039
3617.00,0.0039
3616.00,0.0039
3615.00,0.0040
3614.00,0.0039
3613.00,0.0039
3612.00,0.0039
3611.00,0.0040
3610.00,0.0040
3609.00,0.0039
3608.00,0.0039
3607.00,0.0039
3606.00,0.0039
3605.00,0.0039
3604.00,0.0039
3603.00,0.0039
3602.00,0.0039
3601.00,0.0040
3600.00,0.0040
3599.00,0.0040
3598.00,0.0041
3597.00,0.0041
3596.00,0.0041
3595.00,0.0041
3594.00,0.0041
3593.00,0.0042
3592.00,0.0042
3591.00,0.0043
3590.00,0.0043
3589.00,0.0043
3588.00,0.0043
3587.00,0.0043
3586.00,0.0043
3585.00,0.0043
3584.00,0.0044
3583.00,0.0044
3582.00,0.0044
3581.00,0.0044
3580.00,0.0044
3579.00,0.0045
3578.00,0.0045
3577.00,0.0045
3576.00,0.0045
3575.00,0.0046
3574.00,0.0046
3573.00,0.0047
3572.00,0.0048
3571.00,0.0048
3570.00,0.0049
3569.00,0.0050
3568.00,0.0050
3567.00,0.0050
3566.00,0.0050
3565.00,0.0050
3564.00,0.0050
3563.00,0.0051
3562.00,0.0051
3561.00,0.0051
3560.00,0.0051
3559.00,0.0052
3558.00,0.0052
3557.00,0.0052
3556.00,0.0052
3555.00,0.0053
3554.00,0.0053
3553.00,0.0053
3552.00,0.0054
3551.00,0.0054
3550.00,0.0055
3549.00,0.0055
3548.00,0.0056
3547.00,0.0056
3546.00,0.0057
3545.00,0.0057
3544.00,0.0057
3543.00,0.0057
3542.00,0.0057
3541.00,0.0058
3540.00,0.0058
3539.00,0.0058
3538.00,0.0058
3537.00,0.0058
3536.00,0.0059
3535.00,0.0059
3534.00,0.0059
3533.00,0.0060
3532.00,0.0060
3531.00,0.0060
3530.00,0.0061
3529.00,0.0061
3528.00,0.0062
3527.00,0.0062
3526.00,0.0063
3525.00,0.0063
3524.00,0.0063
3523.00,0.0063
3522.00,0.0063
3521.00,0.0063
3520.00,0.0063
3519.00,0.0064
3518.00,0.0064
3517.00,0.0064
3516.00,0.0065
3515.00,0.0065
3514.00,0.0066
3513.00,0.0066
3512.00,0.0066
3511.00,0.0066
3510.00,0.0066
3509.00,0.0067
3508.00,0.0067
3507.00,0.0068
3506.00,0.0068
3505.00,0.0069
3504.00,0.0069
3503.00,0.0069
3502.00,0.0069
3501.00,0.0070
3500.00,0.0070
3499.00,0.0070
3498.00,0.0070
3497.00,0.0071
3496.00,0.0071
3495.00,0.0071
3494.00,0.0071
3493.00,0.0072
3492.00,0.0072
3491.00,0.0072
3490.00,0.0073
3489.00,0.0073
3488.00,0.0073
3487.00,0.0073
3486.00,0.0074
3485.00,0.0074
3484.00,0.0075
3483.00,0.0075
3482.00,0.0075
3481.00,0.0076
3480.00,0.0076
3479.00,0.0076
3478.00,0.0077
3477.00,0.0077
3476.00,0.0077
3475.00,0.0077
3474.00,0.0077
3473.00,0.0078
3472.00,0.0078
3471.00,0.0079
3470.00,0.0079
3469.00,0.0079
3468.00,0.0080
3467.00,0.0080
3466.00,0.0080
3465.00,0.0080
3464.00,0.0080
3463.00,0.0080
3462.00,0.0081
3461.00,0.0081
3460.00,0.0081
3459.00,0.0081
3458.00,0.0082
3457.00,0.0082
3456.00,0.0082
3455.00,0.0082
3454.00,0.0083
3453.00,0.0083
3452.00,0.0084
3451.00,0.0084
3450.00,0.0084
3449.00,0.0085
3448.00,0.0085
3447.00,0.0085
3446.00,0.0085
3445.00,0.0085
3444.00,0.0086
3443.00,0.0086
3442.00,0.0086
3441.00,0.0087
3440.00,0.0087
3439.00,0.0088
3438.00,0.0088
3437.00,0.0088
3436.00,0.0089
3435.00,0.0089
3434.00,0.0090
3433.00,0.0090
3432.00,0.0090
3431.00,0.0090
3430.00,0.0091
3429.00,0.0091
3428.00,0.0092
3427.00,0.0092
3426.00,0.0092
3425.00,0.0093
3424.00,0.0093
3423.00,0.0094
3422.00,0.0094
3421.00,0.0095
3420.00,0.0095
3419.00,0.0095
3418.00,0.0096
3417.00,0.0096
3416.00,0.0097
3415.00,0.0097
3414.00,0.0098
3413.00,0.0098
3412.00,0.0099
3411.00,0.0099
3410.00,0.0099
3409.00,0.0100
3408.00,0.0100
3407.00,0.0100
3406.00,0.0101
3405.00,0.0101
3404.00,0.0102
3403.00,0.0102
3402.00,0.0103
3401.00,0.0103
3400.00,0.0104
3399.00,0.0104
3398.00,0.0104
3397.00,0.0105
3396.00,0.0105
3395.00,0.0106
3394.00,0.0106
3393.00,0.0106
3392.00,0.0107
3391.00,0.0107
3390.00,0.0108
3389.00,0.0108
3388.00,0.0108
3387.00,0.0109
3386.00,0.0109
3385.00,0.0110
3384.00,0.0110
3383.00,0.0111
3382.00,0.0111
3381.00,0.0112
3380.00,0.0112
3379.00,0.0113
3378.00,0.0113
3377.00,0.0114
3376.00,0.0114
3375.00,0.0115
3374.00,0.0115
3373.00,0.0116
3372.00,0.0117
3371.00,0.0118
3370.00,0.0119
3369.00,0.0119
3368.00,0.0120
3367.00,0.0120
3366.00,0.0121
3365.00,0.0122
3364.00,0.0122
3363.00,0.0123
3362.00,0.0124
3361.00,0.0125
3360.00,0.0126
3359.00,0.0126
3358.00,0.0127
3357.00,0.0128
3356.00,0.0128
3355.00,0.0129
3354.00,0.0130
3353.00,0.0131
3352.00,0.0132
3351.00,0.0133
3350.00,0.0134
3349.00,0.0135
3348.00,0.0136
3347.00,0.0137
3346.00,0.0138
3345.00,0.0140
3344.00,0.0141
3343.00,0.0142
3342.00,0.0143
3341.00,0.0144
3340.00,0.0145
3339.00,0.0146
3338.00,0.0147
3337.00,0.0149
3336.00,0.0150
3335.00,0.0151
3334.00,0.0152
3333.00,0.0153
3332.00,0.0155
3331.00,0.0156
3330.00,0.0157
3329.00,0.0159
3328.00,0.0160
3327.00,0.0162
3326.00,0.0163
3325.00,0.0164
3324.00,0.0165
3323.00,0.0167
3322.00,0.0168
3321.00,0.0170
3320.00,0.0171
3319.00,0.0173
3318.00,0.0174
3317.00,0.0176
3316.00,0.0178
3315.00,0.0179
3314.00,0.0181
3313.00,0.0183
3312.00,0.0184
3311.00,0.0186
3310.00,0.0188
3309.00,0.0189
3308.00,0.0191
3307.00,0.0192
3306.00,0.0194
3305.00,0.0195
3304.00,0.0197
3303.00,0.0198
3302.00,0.0199
3301.00,0.0201
3300.00,0.0202
3299.00,0.0203
3298.00,0.0205
3297.00,0.0206
3296.00,0.0207
3295.00,0.0208
3294.00,0.0209
3293.00,0.0210
3292.00,0.0211
3291.00,0.0211
3290.00,0.0212
3289.00,0.0212
3288.00,0.0213
3287.00,0.0213
3286.00,0.0213
3285.00,0.0214
3284.00,0.0214
3283.00,0.0214
3282.00,0.0213
3281.00,0.0213
3280.00,0.0213
3279.00,0.0212
3278.00,0.0212
3277.00,0.0211
3276.00,0.0210
3275.00,0.0209
3274.00,0.0209
3273.00,0.0207
3272.00,0.0206
3271.00,0.0205
3270.00,0.0204
3269.00,0.0203
3268.00,0.0201
3267.00,0.0200
3266.00,0.0198
3265.00,0.0197
3264.00,0.0195
3263.00,0.0194
3262.00,0.0192
3261.00,0.0191
3260.00,0.0190
3259.00,0.0188
3258.00,0.0187
3257.00,0.0185
3256.00,0.0184
3255.00,0.0182
3254.00,0.0181
3253.00,0.0180
3252.00,0.0178
3251.00,0.0177
3250.00,0.0176
3249.00,0.0175
3248.00,0.0174
3247.00,0.0173
3246.00,0.0172
3245.00,0.0170
3244.00,0.0169
3243.00,0.0168
3242.00,0.0167
3241.00,0.0166
3240.00,0.0165
3239.00,0.0164
3238.00,0.0163
3237.00,0.0162
3236.00,0.0161
3235.00,0.0161
3234.00,0.0160
3233.00,0.0159
3232.00,0.0158
3231.00,0.0157
3230.00,0.0156
3229.00,0.0155
3228.00,0.0154
3227.00,0.0153
3226.00,0.0153
3225.00,0.0152
3224.00,0.0151
3223.00,0.0151
3222.00,0.0150
3221.00,0.0149
3220.00,0.0148
3219.00,0.0147
3218.00,0.0147
3217.00,0.0146
3216.00,0.0145
3215.00,0.0145
3214.00,0.0144
3213.00,0.0143
3212.00,0.0142
3211.00,0.0141
3210.00,0.0141
3209.00,0.0140
3208.00,0.0139
3207.00,0.0139
3206.00,0.0138
3205.00,0.0137
3204.00,0.0137
3203.00,0.0136
3202.00,0.0136
3201.00,0.0135
3200.00,0.0134
3199.00,0.0133
3198.00,0.0133
3197.00,0.0132
3196.00,0.0131
3195.00,0.0130
3194.00,0.0129
3193.00,0.0128
3192.00,0.0127
3191.00,0.0127
3190.00,0.0126
3189.00,0.0125
3188.00,0.0125
3187.00,0.0124
3186.00,0.0123
3185.00,0.0122
3184.00,0.0121
3183.00,0.0120
3182.00,0.0120
3181.00,0.0119
3180.00,0.0118
3179.00,0.0117
3178.00,0.0116
3177.00,0.0115
3176.00,0.0115
3175.00,0.0114
3174.00,0.0113
3173.00,0.0112
3172.00,0.0111
3171.00,0.0110
3170.00,0.0110
3169.00,0.0109
3168.00,0.0108
3167.00,0.0107
3166.00,0.0106
3165.00,0.0105
3164.00,0.0105
3163.00,0.0104
3162.00,0.0103
3161.00,0.0103
3160.00,0.0102
3159.00,0.0101
3158.00,0.0101
3157.00,0.0100
3156.00,0.0099
3155.00,0.0099
3154.00,0.0098
3153.00,0.0097
3152.00,0.0097
3151.00,0.0096
3150.00,0.0095
3149.00,0.0095
3148.00,0.0094
3147.00,0.0094
3146.00,0.0093
3145.00,0.0093
3144.00,0.0092
3143.00,0.0092
3142.00,0.0091
3141.00,0.0091
3140.00,0.0091
3139.00,0.0090
3138.00,0.0090
3137.00,0.0089
3136.00,0.0089
3135.00,0.0089
3134.00,0.0088
3133.00,0.0088
3132.00,0.0088
3131.00,0.0087
3130.00,0.0087
3129.00,0.0087
3128.00,0.0086
3127.00,0.0086
3126.00,0.0086
3125.00,0.0086
3124.00,0.0086
3123.00,0.0086
3122.00,0.0086
3121.00,0.0086
3120.00,0.0086
3119.00,0.0086
3118.00,0.0086
3117.00,0.0086
3116.00,0.0086
3115.00,0.0085
3114.00,0.0085
3113.00,0.0085
3112.00,0.0085
3111.00,0.0086
3110.00,0.0086
3109.00,0.0086
3108.00,0.0086
3107.00,0.0086
3106.00,0.0086
3105.00,0.0086
3104.00,0.0086
3103.00,0.0086
3102.00,0.0086
3101.00,0.0086
3100.00,0.0087
3099.00,0.0087
3098.00,0.0087
3097.00,0.0087
3096.00,0.0087
3095.00,0.0087
3094.00,0.0088
3093.00,0.0088
3092.00,0.0088
3091.00,0.0088
3090.00,0.0088
3089.00,0.0089
3088.00,0.0089
3087.00,0.0089
3086.00,0.0090
3085.00,0.0090
3084.00,0.0090
3083.00,0.0090
3082.00,0.0090
3081.00,0.0090
3080.00,0.0090
3079.00,0.0090
3078.00,0.0091
3077.00,0.0091
3076.00,0.0091
3075.00,0.0091
3074.00,0.0091
3073.00,0.0091
3072.00,0.0091
3071.00,0.0091
3070.00,0.0091
3069.00,0.0091
3068.00,0.0091
3067.00,0.0091
3066.00,0.0090
3065.00,0.0090
3064.00,0.0090
3063.00,0.0089
3062.00,0.0089
3061.00,0.0089
3060.00,0.0089
3059.00,0.0089
3058.00,0.0088
3057.00,0.0088
3056.00,0.0088
3055.00,0.0087
3054.00,0.0087
3053.00,0.0086
3052.00,0.0086
3051.00,0.0086
3050.00,0.0085
3049.00,0.0085
3048.00,0.0084
3047.00,0.0084
3046.00,0.0083
3045.00,0.0083
3044.00,0.0082
3043.00,0.0082
3042.00,0.0081
3041.00,0.0081
3040.00,0.0080
3039.00,0.0080
3038.00,0.0079
3037.00,0.0079
3036.00,0.0079
3035.00,0.0078
3034.00,0.0078
3033.00,0.0078
3032.00,0.0078
3031.00,0.0077
3030.00,0.0077
3029.00,0.0077
3028.00,0.0077
3027.00,0.0077
3026.00,0.0077
3025.00,0.0077
3024.00,0.0077
3023.00,0.0078
3022.00,0.0078
3021.00,0.0079
3020.00,0.0080
3019.00,0.0082
3018.00,0.0084
3017.00,0.0086
3016.00,0.0089
3015.00,0.0092
3014.00,0.0096
3013.00,0.0101
3012.00,0.0106
3011.00,0.0112
3010.00,0.0119
3009.00,0.0127
3008.00,0.0135
3007.00,0.0144
3006.00,0.0153
3005.00,0.0163
3004.00,0.0174
3003.00,0.0184
3002.00,0.0194
3001.00,0.0204
3000.00,0.0214
2999.00,0.0223
2998.00,0.0231
2997.00,0.0238
2996.00,0.0245
2995.00,0.0251
2994.00,0.0257
2993.00,0.0263
2992.00,0.0268
2991.00,0.0273
2990.00,0.0278
2989.00,0.0284
2988.00,0.0291
2987.00,0.0300
2986.00,0.0316
2985.00,0.0340
2984.00,0.0371
2983.00,0.0402
2982.00,0.0424
2981.00,0.0432
2980.00,0.0426
2979.00,0.0411
2978.00,0.0394
2977.00,0.0379
2976.00,0.0368
2975.00,0.0363
2974.00,0.0364
2973.00,0.0367
2972.00,0.0370
2971.00,0.0367
2970.00,0.0358
2969.00,0.0345
2968.00,0.0332
2967.00,0.0320
2966.00,0.0311
2965.00,0.0302
2964.00,0.0294
2963.00,0.0287
2962.00,0.0280
2961.00,0.0274
2960.00,0.0268
2959.00,0.0262
2958.00,0.0257
2957.00,0.0251
2956.00,0.0246
2955.00,0.0240
2954.00,0.0234
2953.00,0.0228
2952.00,0.0222
2951.00,0.0217
2950.00,0.0212
2949.00,0.0207
2948.00,0.0203
2947.00,0.0198
2946.00,0.0193
2945.00,0.0189
2944.00,0.0185
2943.00,0.0182
2942.00,0.0180
2941.00,0.0180
2940.00,0.0179
2939.00,0.0180
2938.00,0.0180
2937.00,0.0180
2936.00,0.0180
2935.00,0.0181
2934.00,0.0182
2933.00,0.0184
2932.00,0.0185
2931.00,0.0186
2930.00,0.0186
2929.00,0.0185
2928.00,0.0184
2927.00,0.0183
2926.00,0.0181
2925.00,0.0180
2924.00,0.0179
2923.00,0.0178
2922.00,0.0177
2921.00,0.0177
2920.00,0.0176
2919.00,0.0176
2918.00,0.0175
2917.00,0.0174
2916.00,0.0173
2915.00,0.0172
2914.00,0.0171
2913.00,0.0170
2912.00,0.0169
2911.00,0.0169
2910.00,0.0169
2909.00,0.0169
2908.00,0.0169
2907.00,0.0169
2906.00,0.0169
2905.00,0.0169
2904.00,0.0169
2903.00,0.0169
2902.00,0.0169
2901.00,0.0168
2900.00,0.0168
2899.00,0.0168
2898.00,0.0169
2897.00,0.0169
2896.00,0.0170
2895.00,0.0171
2894.00,0.0173
2893.00,0.0175
2892.00,0.0177
2891.00,0.0179
2890.00,0.0180
2889.00,0.0180
2888.00,0.0179
2887.00,0.0178
2886.00,0.0178
2885.00,0.0177
2884.00,0.0176
2883.00,0.0174
2882.00,0.0170
2881.00,0.0164
2880.00,0.0158
2879.00,0.0153
2878.00,0.0149
2877.00,0.0146
2876.00,0.0143
2875.00,0.0141
2874.00,0.0139
2873.00,0.0137
2872.00,0.0135
2871.00,0.0133
2870.00,0.0131
2869.00,0.0128
2868.00,0.0126
2867.00,0.0123
2866.00,0.0120
2865.00,0.0118
2864.00,0.0115
2863.00,0.0113
2862.00,0.0111
2861.00,0.0109
2860.00,0.0107
2859.00,0.0105
2858.00,0.0104
2857.00,0.0103
2856.00,0.0102
2855.00,0.0101
2854.00,0.0100
2853.00,0.0100
2852.00,0.0098
2851.00,0.0096
2850.00,0.0094
2849.00,0.0091
2848.00,0.0088
2847.00,0.0085
2846.00,0.0082
2845.00,0.0079
2844.00,0.0077
2843.00,0.0075
2842.00,0.0073
2841.00,0.0072
2840.00,0.0070
2839.00,0.0069
2838.00,0.0069
2837.00,0.0068
2836.00,0.0067
2835.00,0.0066
2834.00,0.0066
2833.00,0.0065
2832.00,0.0065
2831.00,0.0064
2830.00,0.0064
2829.00,0.0063
2828.00,0.0063
2827.00,0.0063
2826.00,0.0062
2825.00,0.0062
2824.00,0.0061
2823.00,0.0061
2822.00,0.0061
2821.00,0.0060
2820.00,0.0060
2819.00,0.0059
2818.00,0.0059
2817.00,0.0059
2816.00,0.0058
2815.00,0.0058
2814.00,0.0058
2813.00,0.0057
2812.00,0.0057
2811.00,0.0057
2810.00,0.0056
2809.00,0.0056
2808.00,0.0056
2807.00,0.0055
2806.00,0.0055
2805.00,0.0055
2804.00,0.0055
2803.00,0.0054
2802.00,0.0054
2801.00,0.0054
2800.00,0.0054
2799.00,0.0054
2798.00,0.0053
2797.00,0.0053
2796.00,0.0053
2795.00,0.0053
2794.00,0.0052
2793.00,0.0052
2792.00,0.0052
2791.00,0.0052
2790.00,0.0051
2789.00,0.0051
2788.00,0.0051
2787.00,0.0051
2786.00,0.0051
2785.00,0.0050
2784.00,0.0050
2783.00,0.0050
2782.00,0.0050
2781.00,0.0049
2780.00,0.0049
2779.00,0.0049
2778.00,0.0048
2777.00,0.0048
2776.00,0.0048
2775.00,0.0048
2774.00,0.0048
2773.00,0.0048
2772.00,0.0048
2771.00,0.0047
2770.00,0.0047
2769.00,0.0047
2768.00,0.0046
2767.00,0.0046
2766.00,0.0046
2765.00,0.0046
2764.00,0.0046
2763.00,0.0046
2762.00,0.0045
2761.00,0.0045
2760.00,0.0045
2759.00,0.0045
2758.00,0.0044
2757.00,0.0044
2756.00,0.0044
2755.00,0.0044
2754.00,0.0044
2753.00,0.0044
2752.00,0.0043
2751.00,0.0043
2750.00,0.0043
2749.00,0.0043
2748.00,0.0043
2747.00,0.0043
2746.00,0.0042
2745.00,0.0042
2744.00,0.0042
2743.00,0.0042
2742.00,0.0042
2741.00,0.0042
2740.00,0.0042
2739.00,0.0042
2738.00,0.0041
2737.00,0.0041
2736.00,0.0041
2735.00,0.0041
2734.00,0.0041
2733.00,0.0041
2732.00,0.0040
2731.00,0.0040
2730.00,0.0040
2729.00,0.0040
2728.00,0.0039
2727.00,0.0039
2726.00,0.0039
2725.00,0.0039
2724.00,0.0039
2723.00,0.0039
2722.00,0.0039
2721.00,0.0038
2720.00,0.0038
2719.00,0.0038
2718.00,0.0038
2717.00,0.0038
2716.00,0.0038
2715.00,0.0037
2714.00,0.0037
2713.00,0.0037
2712.00,0.0037
2711.00,0.0036
2710.00,0.0036
2709.00,0.0036
2708.00,0.0036
2707.00,0.0036
2706.00,0.0036
2705.00,0.0036
2704.00,0.0036
2703.00,0.0035
2702.00,0.0035
2701.00,0.0035
2700.00,0.0035
2699.00,0.0035
2698.00,0.0035
2697.00,0.0035
2696.00,0.0035
2695.00,0.0035
2694.00,0.0035
2693.00,0.0035
2692.00,0.0035
2691.00,0.0035
2690.00,0.0035
2689.00,0.0035
2688.00,0.0035
2687.00,0.0035
2686.00,0.0035
2685.00,0.0035
2684.00,0.0035
2683.00,0.0035
2682.00,0.0035
2681.00,0.0035
2680.00,0.0035
2679.00,0.0035
2678.00,0.0035
2677.00,0.0035
2676.00,0.0035
2675.00,0.0035
2674.00,0.0035
2673.00,0.0035
2672.00,0.0036
2671.00,0.0036
2670.00,0.0036
2669.00,0.0036
2668.00,0.0036
2667.00,0.0036
2666.00,0.0036
2665.00,0.0036
2664.00,0.0036
2663.00,0.0036
2662.00,0.0036
2661.00,0.0036
2660.00,0.0036
2659.00,0.0035
2658.00,0.0035
2657.00,0.0035
2656.00,0.0035
2655.00,0.0035
2654.00,0.0035
2653.00,0.0035
2652.00,0.0035
2651.00,0.0035
2650.00,0.0035
2649.00,0.0035
2648.00,0.0035
2647.00,0.0035
2646.00,0.0035
2645.00,0.0035
2644.00,0.0035
2643.00,0.0035
2642.00,0.0035
2641.00,0.0035
2640.00,0.0035
2639.00,0.0035
2638.00,0.0035
2637.00,0.0035
2636.00,0.0034
2635.00,0.0034
2634.00,0.0034
2633.00,0.0034
2632.00,0.0033
2631.00,0.0033
2630.00,0.0033
2629.00,0.0033
2628.00,0.0033
2627.00,0.0033
2626.00,0.0033
2625.00,0.0033
2624.00,0.0033
2623.00,0.0033
2622.00,0.0033
2621.00,0.0032
2620.00,0.0032
2619.00,0.0032
2618.00,0.0032
2617.00,0.0032
2616.00,0.0032
2615.00,0.0032
2614.00,0.0032
2613.00,0.0032
2612.00,0.0032
2611.00,0.0032
2610.00,0.0032
2609.00,0.0032
2608.00,0.0032
2607.00,0.0031
2606.00,0.0031
2605.00,0.0031
2604.00,0.0031
2603.00,0.0031
2602.00,0.0030
2601.00,0.0030
2600.00,0.0030
2599.00,0.0030
2598.00,0.0030
2597.00,0.0030
2596.00,0.0030
2595.00,0.0030
2594.00,0.0030
2593.00,0.0030
2592.00,0.0029
2591.00,0.0029
2590.00,0.0029
2589.00,0.0029
2588.00,0.0029
2587.00,0.0029
2586.00,0.0029
2585.00,0.0029
2584.00,0.0029
2583.00,0.0029
2582.00,0.0028
2581.00,0.0028
2580.00,0.0028
2579.00,0.0028
2578.00,0.0028
2577.00,0.0028
2576.00,0.0028
2575.00,0.0028
2574.00,0.0028
2573.00,0.0028
2572.00,0.0027
2571.00,0.0027
2570.00,0.0027
2569.00,0.0027
2568.00,0.0027
2567.00,0.0027
2566.00,0.0027
2565.00,0.0027
2564.00,0.0027
2563.00,0.0027
2562.00,0.0027
2561.00,0.0027
2560.00,0.0027
2559.00,0.0027
2558.00,0.0026
2557.00,0.0026
2556.00,0.0026
2555.00,0.0027
2554.00,0.0027
2553.00,0.0027
2552.00,0.0027
2551.00,0.0026
2550.00,0.0026
2549.00,0.0026
2548.00,0.0026
2547.00,0.0026
2546.00,0.0026
2545.00,0.0026
2544.00,0.0026
2543.00,0.0026
2542.00,0.0026
2541.00,0.0026
2540.00,0.0026
2539.00,0.0026
2538.00,0.0026
2537.00,0.0026
2536.00,0.0026
2535.00,0.0026
2534.00,0.0026
2533.00,0.0026
2532.00,0.0026
2531.00,0.0026
2530.00,0.0026
2529.00,0.0026
2528.00,0.0026
2527.00,0.0026
2526.00,0.0026
2525.00,0.0026
2524.00,0.0026
2523.00,0.0026
2522.00,0.0025
2521.00,0.0026
2520.00,0.0026
2519.00,0.0026
2518.00,0.0025
2517.00,0.0025
2516.00,0.0025
2515.00,0.0025
2514.00,0.0025
2513.00,0.0025
2512.00,0.0025
2511.00,0.0026
2510.00,0.0026
2509.00,0.0026
2508.00,0.0026
2507.00,0.0026
2506.00,0.0026
2505.00,0.0025
2504.00,0.0025
2503.00,0.0025
2502.00,0.0025
2501.00,0.0025
2500.00,0.0025
2499.00,0.0025
2498.00,0.0025
2497.00,0.0025
2496.00,0.0025
2495.00,0.0025
2494.00,0.0025
2493.00,0.0024
2492.00,0.0024
2491.00,0.0024
2490.00,0.0025
2489.00,0.0025
2488.00,0.0025
2487.00,0.0025
2486.00,0.0024
2485.00,0.0024
2484.00,0.0024
2483.00,0.0024
2482.00,0.0024
2481.00,0.0024
2480.00,0.0024
2479.00,0.0024
2478.00,0.0024
2477.00,0.0024
2476.00,0.0024
2475.00,0.0024
2474.00,0.0024
2473.00,0.0024
2472.00,0.0024
2471.00,0.0024
2470.00,0.0024
2469.00,0.0023
2468.00,0.0023
2467.00,0.0023
2466.00,0.0023
2465.00,0.0023
2464.00,0.0023
2463.00,0.0023
2462.00,0.0023
2461.00,0.0023
2460.00,0.0023
2459.00,0.0023
2458.00,0.0023
2457.00,0.0023
2456.00,0.0023
2455.00,0.0023
2454.00,0.0023
2453.00,0.0023
2452.00,0.0023
2451.00,0.0022
2450.00,0.0022
2449.00,0.0022
2448.00,0.0022
2447.00,0.0023
2446.00,0.0022
2445.00,0.0022
2444.00,0.0022
2443.00,0.0022
2442.00,0.0022
2441.00,0.0022
2440.00,0.0022
2439.00,0.0022
2438.00,0.0022
2437.00,0.0022
2436.00,0.0022
2435.00,0.0021
2434.00,0.0021
2433.00,0.0021
2432.00,0.0021
2431.00,0.0021
2430.00,0.0021
2429.00,0.0021
2428.00,0.0021
2427.00,0.0021
2426.00,0.0021
2425.00,0.0021
2424.00,0.0021
2423.00,0.0021
2422.00,0.0021
2421.00,0.0021
2420.00,0.0021
2419.00,0.0021
2418.00,0.0021
2417.00,0.0021
2416.00,0.0021
2415.00,0.0021
2414.00,0.0020
2413.00,0.0020
2412.00,0.0020
2411.00,0.0020
2410.00,0.0020
2409.00,0.0020
2408.00,0.0020
2407.00,0.0020
2406.00,0.0020
2405.00,0.0020
2404.00,0.0020
2403.00,0.0020
2402.00,0.0020
2401.00,0.0020
2400.00,0.0020
2399.00,0.0020
2398.00,0.0020
2397.00,0.0020
2396.00,0.0020
2395.00,0.0020
2394.00,0.0020
2393.00,0.0020
2392.00,0.0019
2391.00,0.0019
2390.00,0.0019
2389.00,0.0019
2388.00,0.0019
2387.00,0.0019
2386.00,0.0019
2385.00,0.0019
2384.00,0.0018
2383.00,0.0018
2382.00,0.0018
2381.00,0.0018
2380.00,0.0018
2379.00,0.0019
2378.00,0.0019
2377.00,0.0019
2376.00,0.0019
2375.00,0.0019
2374.00,0.0019
2373.00,0.0019
2372.00,0.0019
2371.00,0.0018
2370.00,0.0018
2369.00,0.0018
2368.00,0.0018
2367.00,0.0018
2366.00,0.0018
2365.00,0.0018
2364.00,0.0019
2363.00,0.0019
2362.00,0.0019
2361.00,0.0019
2360.00,0.0019
2359.00,0.0019
2358.00,0.0019
2357.00,0.0019
2356.00,0.0019
2355.00,0.0018
2354.00,0.0019
2353.00,0.0019
2352.00,0.0019
2351.00,0.0018
2350.00,0.0018
2349.00,0.0019
2348.00,0.0019
2347.00,0.0019
2346.00,0.0019
2345.00,0.0019
2344.00,0.0019
2343.00,0.0019
2342.00,0.0019
2341.00,0.0019
2340.00,0.0019
2339.00,0.0019
2338.00,0.0019
2337.00,0.0019
2336.00,0.0018
2335.00,0.0018
2334.00,0.0018
2333.00,0.0018
2332.00,0.0018
2331.00,0.0018
2330.00,0.0018
2329.00,0.0018
2328.00,0.0019
2327.00,0.0019
2326.00,0.0019
2325.00,0.0019
2324.00,0.0019
2323.00,0.0018
2322.00,0.0018
2321.00,0.0018
2320.00,0.0019
2319.00,0.0019
2318.00,0.0019
2317.00,0.0019
2316.00,0.0019
2315.00,0.0019
2314.00,0.0019
2313.00,0.0019
2312.00,0.0019
2311.00,0.0019
2310.00,0.0019
2309.00,0.0018
2308.00,0.0018
2307.00,0.0018
2306.00,0.0018
2305.00,0.0018
2304.00,0.0018
2303.00,0.0018
2302.00,0.0018
2301.00,0.0018
2300.00,0.0018
2299.00,0.0018
2298.00,0.0018
2297.00,0.0018
2296.00,0.0018
2295.00,0.0018
2294.00,0.0018
2293.00,0.0018
2292.00,0.0018
2291.00,0.0018
2290.00,0.0017
2289.00,0.0017
2288.00,0.0017
2287.00,0.0017
2286.00,0.0017
2285.00,0.0017
2284.00,0.0017
2283.00,0.0017
2282.00,0.0017
2281.00,0.0017
2280.00,0.0017
2279.00,0.0017
2278.00,0.0017
2277.00,0.0017
2276.00,0.0017
2275.00,0.0017
2274.00,0.0016
2273.00,0.0016
2272.00,0.0016
2271.00,0.0016
2270.00,0.0016
2269.00,0.0017
2268.00,0.0017
2267.00,0.0017
2266.00,0.0017
2265.00,0.0017
2264.00,0.0017
2263.00,0.0016
2262.00,0.0016
2261.00,0.0016
2260.00,0.0016
2259.00,0.0016
2258.00,0.0016
2257.00,0.0016
2256.00,0.0016
2255.00,0.0016
2254.00,0.0016
2253.00,0.0016
2252.00,0.0016
2251.00,0.0016
2250.00,0.0016
2249.00,0.0016
2248.00,0.0016
2247.00,0.0016
2246.00,0.0016
2245.00,0.0015
2244.00,0.0015
2243.00,0.0015
2242.00,0.0015
2241.00,0.0015
2240.00,0.0016
2239.00,0.0016
2238.00,0.0016
2237.00,0.0016
2236.00,0.0015
2235.00,0.0015
2234.00,0.0015
2233.00,0.0016
2232.00,0.0016
2231.00,0.0016
2230.00,0.0016
2229.00,0.0015
2228.00,0.0015
2227.00,0.0015
2226.00,0.0015
2225.00,0.0015
2224.00,0.0014
2223.00,0.0014
2222.00,0.0014
2221.00,0.0014
2220.00,0.0015
2219.00,0.0015
2218.00,0.0015
2217.00,0.0016
2216.00,0.0016
2215.00,0.0016
2214.00,0.0016
2213.00,0.0016
2212.00,0.0016
2211.00,0.0016
2210.00,0.0016
2209.00,0.0016
2208.00,0.0017
2207.00,0.0017
2206.00,0.0017
2205.00,0.0016
2204.00,0.0016
2203.00,0.0016
2202.00,0.0015
2201.00,0.0015
2200.00,0.0016
2199.00,0.0016
2198.00,0.0017
2197.00,0.0017
2196.00,0.0018
2195.00,0.0017
2194.00,0.0016
2193.00,0.0015
2192.00,0.0015
2191.00,0.0015
2190.00,0.0015
2189.00,0.0015
2188.00,0.0015
2187.00,0.0014
2186.00,0.0014
2185.00,0.0014
2184.00,0.0013
2183.00,0.0014
2182.00,0.0014
2181.00,0.0014
2180.00,0.0014
2179.00,0.0014
2178.00,0.0014
2177.00,0.0014
2176.00,0.0014
2175.00,0.0014
2174.00,0.0014
2173.00,0.0014
2172.00,0.0014
2171.00,0.0014
2170.00,0.0014
2169.00,0.0014
2168.00,0.0014
2167.00,0.0014
2166.00,0.0014
2165.00,0.0014
2164.00,0.0014
2163.00,0.0014
2162.00,0.0014
2161.00,0.0013
2160.00,0.0012
2159.00,0.0012
2158.00,0.0012
2157.00,0.0013
2156.00,0.0013
2155.00,0.0013
2154.00,0.0013
2153.00,0.0013
2152.00,0.0013
2151.00,0.0013
2150.00,0.0012
2149.00,0.0012
2148.00,0.0012
2147.00,0.0012
2146.00,0.0013
2145.00,0.0013
2144.00,0.0014
2143.00,0.0014
2142.00,0.0013
2141.00,0.0013
2140.00,0.0012
2139.00,0.0012
2138.00,0.0012
2137.00,0.0012
2136.00,0.0013
2135.00,0.0013
2134.00,0.0013
2133.00,0.0013
2132.00,0.0014
2131.00,0.0014
2130.00,0.0014
2129.00,0.0014
2128.00,0.0013
2127.00,0.0013
2126.00,0.0013
2125.00,0.0013
2124.00,0.0013
2123.00,0.0013
2122.00,0.0013
2121.00,0.0013
2120.00,0.0013
2119.00,0.0014
2118.00,0.0014
2117.00,0.0014
2116.00,0.0014
2115.00,0.0014
2114.00,0.0014
2113.00,0.0014
2112.00,0.0014
2111.00,0.0014
2110.00,0.0014
2109.00,0.0014
2108.00,0.0014
2107.00,0.0014
2106.00,0.0014
2105.00,0.0013
2104.00,0.0013
2103.00,0.0013
2102.00,0.0013
2101.00,0.0014
2100.00,0.0014
2099.00,0.0014
2098.00,0.0015
2097.00,0.0014
2096.00,0.0014
2095.00,0.0014
2094.00,0.0014
2093.00,0.0014
2092.00,0.0014
2091.00,0.0014
2090.00,0.0014
2089.00,0.0014
2088.00,0.0014
2087.00,0.0014
2086.00,0.0014
2085.00,0.0014
2084.00,0.0014
2083.00,0.0014
2082.00,0.0013
2081.00,0.0013
2080.00,0.0013
2079.00,0.0013
2078.00,0.0013
2077.00,0.0013
2076.00,0.0013
2075.00,0.0013
2074.00,0.0013
2073.00,0.0013
2072.00,0.0013
2071.00,0.0013
2070.00,0.0013
2069.00,0.0013
2068.00,0.0013
2067.00,0.0013
2066.00,0.0013
2065.00,0.0013
2064.00,0.0012
2063.00,0.0013
2062.00,0.0013
2061.00,0.0013
2060.00,0.0013
2059.00,0.0013
2058.00,0.0013
2057.00,0.0013
2056.00,0.0013
2055.00,0.0012
2054.00,0.0012
2053.00,0.0012
2052.00,0.0012
2051.00,0.0013
2050.00,0.0013
2049.00,0.0013
2048.00,0.0013
2047.00,0.0013
2046.00,0.0012
2045.00,0.0012
2044.00,0.0012
2043.00,0.0012
2042.00,0.0012
2041.00,0.0012
2040.00,0.0012
2039.00,0.0012
2038.00,0.0011
2037.00,0.0011
2036.00,0.0011
2035.00,0.0012
2034.00,0.0012
2033.00,0.0012
2032.00,0.0011
2031.00,0.0011
2030.00,0.0011
2029.00,0.0012
2028.00,0.0012
2027.00,0.0012
2026.00,0.0012
2025.00,0.0012
2024.00,0.0012
2023.00,0.0012
2022.00,0.0012
2021.00,0.0012
2020.00,0.0011
2019.00,0.0010
2018.00,0.0010
2017.00,0.0009
2016.00,0.0010
2015.00,0.0010
2014.00,0.0011
2013.00,0.0010
2012.00,0.0010
2011.00,0.0009
2010.00,0.0009
2009.00,0.0009
2008.00,0.0010
2007.00,0.0010
2006.00,0.0010
2005.00,0.0010
2004.00,0.0010
2003.00,0.0009
2002.00,0.0009
2001.00,0.0009
2000.00,0.0010
1999.00,0.0010
1998.00,0.0010
1997.00,0.0010
1996.00,0.0010
1995.00,0.0010
1994.00,0.0010
1993.00,0.0010
1992.00,0.0010
1991.00,0.0010
1990.00,0.0009
1989.00,0.0009
1988.00,0.0009
1987.00,0.0009
1986.00,0.0010
1985.00,0.0010
1984.00,0.0010
1983.00,0.0011
1982.00,0.0010
1981.00,0.0010
1980.00,0.0009
1979.00,0.0009
1978.00,0.0009
1977.00,0.0009
1976.00,0.0010
1975.00,0.0010
1974.00,0.0010
1973.00,0.0010
1972.00,0.0010
1971.00,0.0009
1970.00,0.0008
1969.00,0.0008
1968.00,0.0008
1967.00,0.0009
1966.00,0.0009
1965.00,0.0009
1964.00,0.0009
1963.00,0.0008
1962.00,0.0008
1961.00,0.0007
1960.00,0.0007
1959.00,0.0007
1958.00,0.0007
1957.00,0.0007
1956.00,0.0008
1955.00,0.0008
1954.00,0.0008
1953.00,0.0007
1952.00,0.0007
1951.00,0.0007
1950.00,0.0007
1949.00,0.0007
1948.00,0.0007
1947.00,0.0007
1946.00,0.0007
1945.00,0.0006
1944.00,0.0006
1943.00,0.0006
1942.00,0.0005
1941.00,0.0006
1940.00,0.0006
1939.00,0.0006
1938.00,0.0006
1937.00,0.0006
1936.00,0.0006
1935.00,0.0006
1934.00,0.0006
1933.00,0.0006
1932.00,0.0006
1931.00,0.0006
1930.00,0.0006
1929.00,0.0007
1928.00,0.0007
1927.00,0.0007
1926.00,0.0007
1925.00,0.0006
1924.00,0.0005
1923.00,0.0005
1922.00,0.0005
1921.00,0.0005
1920.00,0.0005
1919.00,0.0006
1918.00,0.0006
1917.00,0.0006
1916.00,0.0007
1915.00,0.0007
1914.00,0.0007
1913.00,0.0007
1912.00,0.0006
1911.00,0.0006
1910.00,0.0006
1909.00,0.0006
1908.00,0.0006
1907.00,0.0006
1906.00,0.0006
1905.00,0.0006
1904.00,0.0006
1903.00,0.0006
1902.00,0.0006
1901.00,0.0006
1900.00,0.0006
1899.00,0.0006
1898.00,0.0006
1897.00,0.0006
1896.00,0.0005
1895.00,0.0005
1894.00,0.0006
1893.00,0.0006
1892.00,0.0006
1891.00,0.0005
1890.00,0.0005
1889.00,0.0005
1888.00,0.0005
1887.00,0.0006
1886.00,0.0006
1885.00,0.0006
1884.00,0.0006
1883.00,0.0006
1882.00,0.0006
1881.00,0.0006
1880.00,0.0005
1879.00,0.0005
1878.00,0.0005
1877.00,0.0005
1876.00,0.0005
1875.00,0.0005
1874.00,0.0005
1873.00,0.0005
1872.00,0.0004
1871.00,0.0003
1870.00,0.0002
1869.00,0.0002
1868.00,0.0003
1867.00,0.0004
1866.00,0.0004
1865.00,0.0005
1864.00,0.0005
1863.00,0.0005
1862.00,0.0004
1861.00,0.0004
1860.00,0.0004
1859.00,0.0004
1858.00,0.0004
1857.00,0.0004
1856.00,0.0004
1855.00,0.0004
1854.00,0.0004
1853.00,0.0004
1852.00,0.0004
1851.00,0.0004
1850.00,0.0004
1849.00,0.0004
1848.00,0.0003
1847.00,0.0003
1846.00,0.0003
1845.00,0.0003
1844.00,0.0005
1843.00,0.0006
1842.00,0.0006
1841.00,0.0005
1840.00,0.0004
1839.00,0.0004
1838.00,0.0003
1837.00,0.0003
1836.00,0.0003
1835.00,0.0004
1834.00,0.0003
1833.00,0.0003
1832.00,0.0002
1831.00,0.0001
1830.00,0.0000
1829.00,0.0001
1828.00,0.0002
1827.00,0.0002
1826.00,0.0001
1825.00,0.0002
1824.00,0.0002
1823.00,0.0003
1822.00,0.0003
1821.00,0.0003
1820.00,0.0003
1819.00,0.0002
1818.00,0.0002
1817.00,0.0002
1816.00,0.0002
1815.00,0.0002
1814.00,0.0002
1813.00,0.0002
1812.00,0.0001
1811.00,0.0001
1810.00,0.0001
1809.00,0.0002
1808.00,0.0002
1807.00,0.0002
1806.00,0.0002
1805.00,0.0001
1804.00,0.0001
1803.00,0.0000
1802.00,-0.0000
1801.00,-0.0000
1800.00,0.0000
1799.00,0.0001
1798.00,0.0001
1797.00,0.0001
1796.00,0.0001
1795.00,0.0001
1794.00,0.0001
1793.00,0.0001
1792.00,0.0002
1791.00,0.0003
1790.00,0.0003
1789.00,0.0004
1788.00,0.0004
1787.00,0.0003
1786.00,0.0003
1785.00,0.0003
1784.00,0.0004
1783.00,0.0003
1782.00,0.0003
1781.00,0.0002
1780.00,0.0003
1779.00,0.0003
1778.00,0.0004
1777.00,0.0003
1776.00,0.0003
1775.00,0.0003
1774.00,0.0004
1773.00,0.0005
1772.00,0.0006
1771.00,0.0006
1770.00,0.0005
1769.00,0.0005
1768.00,0.0006
1767.00,0.0006
1766.00,0.0006
1765.00,0.0005
1764.00,0.0005
1763.00,0.0004
1762.00,0.0004
1761.00,0.0005
1760.00,0.0006
1759.00,0.0006
1758.00,0.0006
1757.00,0.0006
1756.00,0.0007
1755.00,0.0008
1754.00,0.0009
1753.00,0.0010
1752.00,0.0011
1751.00,0.0012
1750.00,0.0011
1749.00,0.0010
1748.00,0.0010
1747.00,0.0011
1746.00,0.0011
1745.00,0.0011
1744.00,0.0011
1743.00,0.0011
1742.00,0.0011
1741.00,0.0012
1740.00,0.0013
1739.00,0.0014
1738.00,0.0015
1737.00,0.0015
1736.00,0.0017
1735.00,0.0020
1734.00,0.0023
1733.00,0.0024
1732.00,0.0023
1731.00,0.0019
1730.00,0.0016
1729.00,0.0016
1728.00,0.0017
1727.00,0.0018
1726.00,0.0018
1725.00,0.0018
1724.00,0.0019
1723.00,0.0020
1722.00,0.0020
1721.00,0.0020
1720.00,0.0022
1719.00,0.0025
1718.00,0.0028
1717.00,0.0032
1716.00,0.0033
1715.00,0.0034
1714.00,0.0034
1713.00,0.0036
1712.00,0.0039
1711.00,0.0042
1710.00,0.0045
1709.00,0.0049
1708.00,0.0054
1707.00,0.0059
1706.00,0.0065
1705.00,0.0073
1704.00,0.0082
1703.00,0.0092
1702.00,0.0102
1701.00,0.0113
1700.00,0.0124
1699.00,0.0133
1698.00,0.0140
1697.00,0.0145
1696.00,0.0149
1695.00,0.0151
1694.00,0.0153
1693.00,0.0153
1692.00,0.0155
1691.00,0.0158
1690.00,0.0162
1689.00,0.0166
1688.00,0.0172
1687.00,0.0181
1686.00,0.0189
1685.00,0.0194
1684.00,0.0196
1683.00,0.0199
1682.00,0.0202
1681.00,0.0207
1680.00,0.0213
1679.00,0.0220
1678.00,0.0227
1677.00,0.0234
1676.00,0.0240
1675.00,0.0246
1674.00,0.0252
1673.00,0.0259
1672.00,0.0266
1671.00,0.0272
1670.00,0.0277
1669.00,0.0282
1668.00,0.0290
1667.00,0.0298
1666.00,0.0307
1665.00,0.0316
1664.00,0.0323
1663.00,0.0329
1662.00,0.0335
1661.00,0.0343
1660.00,0.0351
1659.00,0.0360
1658.00,0.0368
1657.00,0.0378
1656.00,0.0390
1655.00,0.0402
1654.00,0.0407
1653.00,0.0403
1652.00,0.0403
1651.00,0.0406
1650.00,0.0410
1649.00,0.0414
1648.00,0.0417
1647.00,0.0416
1646.00,0.0415
1645.00,0.0417
1644.00,0.0421
1643.00,0.0424
1642.00,0.0428
1641.00,0.0431
1640.00,0.0435
1639.00,0.0440
1638.00,0.0444
1637.00,0.0446
1636.00,0.0442
1635.00,0.0437
1634.00,0.0436
1633.00,0.0438
1632.00,0.0442
1631.00,0.0446
1630.00,0.0447
1629.00,0.0446
1628.00,0.0443
1627.00,0.0441
1626.00,0.0440
1625.00,0.0438
1624.00,0.0431
1623.00,0.0422
1622.00,0.0413
1621.00,0.0407
1620.00,0.0404
1619.00,0.0402
1618.00,0.0395
1617.00,0.0381
1616.00,0.0364
1615.00,0.0349
1614.00,0.0338
1613.00,0.0329
1612.00,0.0319
1611.00,0.0309
1610.00,0.0297
1609.00,0.0285
1608.00,0.0274
1607.00,0.0263
1606.00,0.0253
1605.00,0.0244
1604.00,0.0236
1603.00,0.0227
1602.00,0.0220
1601.00,0.0213
1600.00,0.0207
1599.00,0.0201
1598.00,0.0197
1597.00,0.0192
1596.00,0.0187
1595.00,0.0183
1594.00,0.0178
1593.00,0.0175
1592.00,0.0171
1591.00,0.0168
1590.00,0.0164
1589.00,0.0162
1588.00,0.0159
1587.00,0.0157
1586.00,0.0156
1585.00,0.0155
1584.00,0.0154
1583.00,0.0154
1582.00,0.0153
1581.00,0.0154
1580.00,0.0155
1579.00,0.0158
1578.00,0.0162
1577.00,0.0167
1576.00,0.0169
1575.00,0.0170
1574.00,0.0170
1573.00,0.0171
1572.00,0.0173
1571.00,0.0177
1570.00,0.0180
1569.00,0.0184
1568.00,0.0189
1567.00,0.0194
1566.00,0.0199
1565.00,0.0204
1564.00,0.0210
1563.00,0.0218
1562.00,0.0228
1561.00,0.0237
1560.00,0.0243
1559.00,0.0243
1558.00,0.0246
1557.00,0.0253
1556.00,0.0259
1555.00,0.0265
1554.00,0.0272
1553.00,0.0278
1552.00,0.0284
1551.00,0.0288
1550.00,0.0293
1549.00,0.0299
1548.00,0.0306
1547.00,0.0313
1546.00,0.0319
1545.00,0.0323
1544.00,0.0328
1543.00,0.0333
1542.00,0.0340
1541.00,0.0345
1540.00,0.0346
1539.00,0.0347
1538.00,0.0350
1537.00,0.0354
1536.00,0.0358
1535.00,0.0361
1534.00,0.0362
1533.00,0.0363
1532.00,0.0365
1531.00,0.0371
1530.00,0.0376
1529.00,0.0381
1528.00,0.0384
1527.00,0.0386
1526.00,0.0389
1525.00,0.0393
1524.00,0.0398
1523.00,0.0404
1522.00,0.0406
1521.00,0.0407
1520.00,0.0409
1519.00,0.0412
1518.00,0.0414
1517.00,0.0416
1516.00,0.0416
1515.00,0.0418
1514.00,0.0420
1513.00,0.0420
1512.00,0.0417
1511.00,0.0414
1510.00,0.0412
1509.00,0.0411
1508.00,0.0405
1507.00,0.0391
1506.00,0.0377
1505.00,0.0370
1504.00,0.0365
1503.00,0.0361
1502.00,0.0356
1501.00,0.0351
1500.00,0.0345
1499.00,0.0338
1498.00,0.0331
1497.00,0.0322
1496.00,0.0313
1495.00,0.0305
1494.00,0.0298
1493.00,0.0292
1492.00,0.0285
1491.00,0.0277
1490.00,0.0266
1489.00,0.0257
1488.00,0.0250
1487.00,0.0245
1486.00,0.0240
1485.00,0.0236
1484.00,0.0233
1483.00,0.0229
1482.00,0.0224
1481.00,0.0220
1480.00,0.0217
1479.00,0.0215
1478.00,0.0214
1477.00,0.0213
1476.00,0.0215
1475.00,0.0219
1474.00,0.0223
1473.00,0.0224
1472.00,0.0221
1471.00,0.0217
1470.00,0.0213
1469.00,0.0211
1468.00,0.0210
1467.00,0.0211
1466.00,0.0214
1465.00,0.0219
1464.00,0.0224
1463.00,0.0228
1462.00,0.0230
1461.00,0.0230
1460.00,0.0231
1459.00,0.0231
1458.00,0.0232
1457.00,0.0232
1456.00,0.0233
1455.00,0.0234
1454.00,0.0234
1453.00,0.0234
1452.00,0.0235
1451.00,0.0237
1450.00,0.0237
1449.00,0.0237
1448.00,0.0235
1447.00,0.0234
1446.00,0.0233
1445.00,0.0232
1444.00,0.0231
1443.00,0.0228
1442.00,0.0226
1441.00,0.0223
1440.00,0.0221
1439.00,0.0219
1438.00,0.0216
1437.00,0.0210
1436.00,0.0204
1435.00,0.0199
1434.00,0.0196
1433.00,0.0193
1432.00,0.0190
1431.00,0.0186
1430.00,0.0183
1429.00,0.0180
1428.00,0.0179
1427.00,0.0179
1426.00,0.0178
1425.00,0.0178
1424.00,0.0178
1423.00,0.0179
1422.00,0.0181
1421.00,0.0184
1420.00,0.0185
1419.00,0.0186
1418.00,0.0187
1417.00,0.0189
1416.00,0.0192
1415.00,0.0195
1414.00,0.0198
1413.00,0.0202
1412.00,0.0205
1411.00,0.0208
1410.00,0.0211
1409.00,0.0214
1408.00,0.0218
1407.00,0.0221
1406.00,0.0224
1405.00,0.0227
1404.00,0.0232
1403.00,0.0237
1402.00,0.0242
1401.00,0.0248
1400.00,0.0253
1399.00,0.0258
1398.00,0.0264
1397.00,0.0269
1396.00,0.0275
1395.00,0.0279
1394.00,0.0283
1393.00,0.0286
1392.00,0.0288
1391.00,0.0289
1390.00,0.0289
1389.00,0.0290
1388.00,0.0290
1387.00,0.0291
1386.00,0.0292
1385.00,0.0293
1384.00,0.0295
1383.00,0.0296
1382.00,0.0295
1381.00,0.0293
1380.00,0.0290
1379.00,0.0285
1378.00,0.0279
1377.00,0.0274
1376.00,0.0268
1375.00,0.0263
1374.00,0.0257
1373.00,0.0251
1372.00,0.0247
1371.00,0.0242
1370.00,0.0236
1369.00,0.0230
1368.00,0.0224
1367.00,0.0218
1366.00,0.0213
1365.00,0.0207
1364.00,0.0201
1363.00,0.0195
1362.00,0.0190
1361.00,0.0187
1360.00,0.0184
1359.00,0.0182
1358.00,0.0180
1357.00,0.0177
1356.00,0.0175
1355.00,0.0172
1354.00,0.0170
1353.00,0.0168
1352.00,0.0167
1351.00,0.0165
1350.00,0.0164
1349.00,0.0164
1348.00,0.0164
1347.00,0.0163
1346.00,0.0163
1345.00,0.0164
1344.00,0.0164
1343.00,0.0164
1342.00,0.0164
1341.00,0.0163
1340.00,0.0162
1339.00,0.0161
1338.00,0.0161
1337.00,0.0161
1336.00,0.0160
1335.00,0.0160
1334.00,0.0159
1333.00,0.0158
1332.00,0.0156
1331.00,0.0154
1330.00,0.0153
1329.00,0.0151
1328.00,0.0149
1327.00,0.0148
1326.00,0.0146
1325.00,0.0145
1324.00,0.0143
1323.00,0.0142
1322.00,0.0141
1321.00,0.0140
1320.00,0.0140
1319.00,0.0139
1318.00,0.0139
1317.00,0.0139
1316.00,0.0139
1315.00,0.0139
1314.00,0.0139
1313.00,0.0139
1312.00,0.0139
1311.00,0.0139
1310.00,0.0139
1309.00,0.0140
1308.00,0.0140
1307.00,0.0140
1306.00,0.0140
1305.00,0.0140
1304.00,0.0141
1303.00,0.0141
1302.00,0.0141
1301.00,0.0141
1300.00,0.0142
1299.00,0.0142
1298.00,0.0143
1297.00,0.0143
1296.00,0.0144
1295.00,0.0144
1294.00,0.0145
1293.00,0.0146
1292.00,0.0147
1291.00,0.0148
1290.00,0.0149
1289.00,0.0151
1288.00,0.0152
1287.00,0.0154
1286.00,0.0156
1285.00,0.0158
1284.00,0.0160
1283.00,0.0162
1282.00,0.0164
1281.00,0.0167
1280.00,0.0169
1279.00,0.0173
1278.00,0.0176
1277.00,0.0180
1276.00,0.0185
1275.00,0.0189
1274.00,0.0194
1273.00,0.0200
1272.00,0.0205
1271.00,0.0211
1270.00,0.0217
1269.00,0.0222
1268.00,0.0228
1267.00,0.0233
1266.00,0.0238
1265.00,0.0243
1264.00,0.0247
1263.00,0.0250
1262.00,0.0252
1261.00,0.0254
1260.00,0.0255
1259.00,0.0256
1258.00,0.0258
1257.00,0.0261
1256.00,0.0263
1255.00,0.0267
1254.00,0.0270
1253.00,0.0273
1252.00,0.0275
1251.00,0.0277
1250.00,0.0277
1249.00,0.0276
1248.00,0.0275
1247.00,0.0274
1246.00,0.0273
1245.00,0.0273
1244.00,0.0275
1243.00,0.0276
1242.00,0.0277
1241.00,0.0279
1240.00,0.0280
1239.00,0.0281
1238.00,0.0281
1237.00,0.0281
1236.00,0.0280
1235.00,0.0279
1234.00,0.0277
1233.00,0.0275
1232.00,0.0273
1231.00,0.0270
1230.00,0.0267
1229.00,0.0263
1228.00,0.0259
1227.00,0.0255
1226.00,0.0250
1225.00,0.0245
1224.00,0.0241
1223.00,0.0236
1222.00,0.0231
1221.00,0.0227
1220.00,0.0222
1219.00,0.0217
1218.00,0.0212
1217.00,0.0208
1216.00,0.0203
1215.00,0.0199
1214.00,0.0194
1213.00,0.0189
1212.00,0.0185
1211.00,0.0181
1210.00,0.0177
1209.00,0.0173
1208.00,0.0169
1207.00,0.0165
1206.00,0.0161
1205.00,0.0158
1204.00,0.0154
1203.00,0.0151
1202.00,0.0148
1201.00,0.0145
1200.00,0.0143
1199.00,0.0141
1198.00,0.0139
1197.00,0.0137
1196.00,0.0136
1195.00,0.0135
1194.00,0.0135
1193.00,0.0135
1192.00,0.0135
1191.00,0.0136
1190.00,0.0137
1189.00,0.0139
1188.00,0.0141
1187.00,0.0143
1186.00,0.0146
1185.00,0.0149
1184.00,0.0153
1183.00,0.0157
1182.00,0.0161
1181.00,0.0165
1180.00,0.0170
1179.00,0.0175
1178.00,0.0181
1177.00,0.0186
1176.00,0.0191
1175.00,0.0196
1174.00,0.0202
1173.00,0.0207
1172.00,0.0212
1171.00,0.0217
1170.00,0.0221
1169.00,0.0225
1168.00,0.0228
1167.00,0.0231
1166.00,0.0234
1165.00,0.0237
1164.00,0.0239
1163.00,0.0241
1162.00,0.0242
1161.00,0.0243
1160.00,0.0244
1159.00,0.0244
1158.00,0.0245
1157.00,0.0245
1156.00,0.0245
1155.00,0.0244
1154.00,0.0243
1153.00,0.0242
1152.00,0.0240
1151.00,0.0238
1150.00,0.0235
1149.00,0.0232
1148.00,0.0228
1147.00,0.0224
1146.00,0.0219
1145.00,0.0215
1144.00,0.0211
1143.00,0.0207
1142.00,0.0204
1141.00,0.0201
1140.00,0.0198
1139.00,0.0196
1138.00,0.0194
1137.00,0.0191
1136.00,0.0189
1135.00,0.0186
1134.00,0.0183
1133.00,0.0182
1132.00,0.0180
1131.00,0.0179
1130.00,0.0178
1129.00,0.0177
1128.00,0.0175
1127.00,0.0173
1126.00,0.0172
1125.00,0.0170
1124.00,0.0168
1123.00,0.0167
1122.00,0.0165
1121.00,0.0163
1120.00,0.0161
1119.00,0.0160
1118.00,0.0158
1117.00,0.0156
1116.00,0.0155
1115.00,0.0153
1114.00,0.0152
1113.00,0.0151
1112.00,0.0149
1111.00,0.0149
1110.00,0.0148
1109.00,0.0148
1108.00,0.0148
1107.00,0.0149
1106.00,0.0150
1105.00,0.0150
1104.00,0.0152
1103.00,0.0153
1102.00,0.0154
1101.00,0.0156
1100.00,0.0157
1099.00,0.0159
1098.00,0.0162
1097.00,0.0164
1096.00,0.0167
1095.00,0.0170
1094.00,0.0173
1093.00,0.0177
1092.00,0.0181
1091.00,0.0184
1090.00,0.0187
1089.00,0.0190
1088.00,0.0192
1087.00,0.0194
1086.00,0.0196
1085.00,0.0198
1084.00,0.0200
1083.00,0.0202
1082.00,0.0204
1081.00,0.0206
1080.00,0.0207
1079.00,0.0209
1078.00,0.0210
1077.00,0.0211
1076.00,0.0212
1075.00,0.0213
1074.00,0.0215
1073.00,0.0216
1072.00,0.0216
1071.00,0.0215
1070.00,0.0213
1069.00,0.0211
1068.00,0.0207
1067.00,0.0204
1066.00,0.0200
1065.00,0.0197
1064.00,0.0194
1063.00,0.0192
1062.00,0.0190
1061.00,0.0188
1060.00,0.0185
1059.00,0.0182
1058.00,0.0178
1057.00,0.0175
1056.00,0.0171
1055.00,0.0167
1054.00,0.0164
1053.00,0.0160
1052.00,0.0156
1051.00,0.0152
1050.00,0.0148
1049.00,0.0144
1048.00,0.0140
1047.00,0.0137
1046.00,0.0133
1045.00,0.0130
1044.00,0.0126
1043.00,0.0123
1042.00,0.0120
1041.00,0.0117
1040.00,0.0115
1039.00,0.0113
1038.00,0.0111
1037.00,0.0109
1036.00,0.0108
1035.00,0.0106
1034.00,0.0105
1033.00,0.0104
1032.00,0.0103
1031.00,0.0103
1030.00,0.0102
1029.00,0.0101
1028.00,0.0100
1027.00,0.0100
1026.00,0.0100
1025.00,0.0100
1024.00,0.0100
1023.00,0.0101
1022.00,0.0102
1021.00,0.0103
1020.00,0.0104
1019.00,0.0106
1018.00,0.0107
1017.00,0.0107
1016.00,0.0107
1015.00,0.0107
1014.00,0.0107
1013.00,0.0105
1012.00,0.0104
1011.00,0.0102
1010.00,0.0101
1009.00,0.0099
1008.00,0.0098
1007.00,0.0097
1006.00,0.0096
1005.00,0.0095
1004.00,0.0095
1003.00,0.0094
1002.00,0.0094
1001.00,0.0093
1000.00,0.0092
999.00,0.0092
998.00,0.0091
997.00,0.0090
996.00,0.0088
995.00,0.0087
994.00,0.0085
993.00,0.0084
992.00,0.0082
991.00,0.0081
990.00,0.0080
989.00,0.0080
988.00,0.0079
987.00,0.0079
986.00,0.0080
985.00,0.0081
984.00,0.0083
983.00,0.0086
982.00,0.0089
981.00,0.0093
980.00,0.0097
979.00,0.0102
978.00,0.0107
977.00,0.0113
976.00,0.0119
975.00,0.0126
974.00,0.0133
973.00,0.0140
972.00,0.0147
971.00,0.0153
970.00,0.0158
969.00,0.0162
968.00,0.0165
967.00,0.0166
966.00,0.0167
965.00,0.0166
964.00,0.0165
963.00,0.0163
962.00,0.0162
961.00,0.0163
960.00,0.0165
959.00,0.0169
958.00,0.0173
957.00,0.0175
956.00,0.0176
955.00,0.0176
954.00,0.0176
953.00,0.0175
952.00,0.0173
951.00,0.0170
950.00,0.0167
949.00,0.0163
948.00,0.0159
947.00,0.0157
946.00,0.0155
945.00,0.0153
944.00,0.0152
943.00,0.0150
942.00,0.0147
941.00,0.0145
940.00,0.0141
939.00,0.0138
938.00,0.0133
937.00,0.0129
936.00,0.0124
935.00,0.0118
934.00,0.0113
933.00,0.0107
932.00,0.0102
931.00,0.0097
930.00,0.0092
929.00,0.0088
928.00,0.0083
927.00,0.0079
926.00,0.0075
925.00,0.0072
924.00,0.0069
923.00,0.0066
922.00,0.0063
921.00,0.0061
920.00,0.0058
919.00,0.0056
918.00,0.0054
917.00,0.0052
916.00,0.0051
915.00,0.0049
914.00,0.0048
913.00,0.0047
912.00,0.0046
911.00,0.0045
910.00,0.0044
909.00,0.0044
908.00,0.0043
907.00,0.0043
906.00,0.0042
905.00,0.0042
904.00,0.0042
903.00,0.0042
902.00,0.0041
901.00,0.0041
900.00,0.0041
899.00,0.0041
898.00,0.0041
897.00,0.0041
896.00,0.0041
895.00,0.0040
894.00,0.0040
893.00,0.0039
892.00,0.0039
891.00,0.0039
890.00,0.0039
889.00,0.0039
888.00,0.0038
887.00,0.0038
886.00,0.0037
885.00,0.0037
884.00,0.0037
883.00,0.0037
882.00,0.0037
881.00,0.0037
880.00,0.0038
879.00,0.0038
878.00,0.0038
877.00,0.0038
876.00,0.0039
875.00,0.0039
874.00,0.0040
873.00,0.0040
872.00,0.0041
871.00,0.0041
870.00,0.0040
869.00,0.0040
868.00,0.0040
867.00,0.0041
866.00,0.0041
865.00,0.0041
864.00,0.0042
863.00,0.0042
862.00,0.0043
861.00,0.0044
860.00,0.0044
859.00,0.0046
858.00,0.0047
857.00,0.0048
856.00,0.0049
855.00,0.0050
854.00,0.0051
853.00,0.0052
852.00,0.0053
851.00,0.0054
850.00,0.0054
849.00,0.0054
848.00,0.0055
847.00,0.0055
846.00,0.0055
845.00,0.0056
844.00,0.0056
843.00,0.0057
842.00,0.0058
841.00,0.0059
840.00,0.0060
839.00,0.0061
838.00,0.0063
837.00,0.0065
836.00,0.0067
835.00,0.0069
834.00,0.0071
833.00,0.0073
832.00,0.0075
831.00,0.0076
830.00,0.0077
829.00,0.0078
828.00,0.0078
827.00,0.0078
826.00,0.0078
825.00,0.0078
824.00,0.0078
823.00,0.0078
822.00,0.0079
821.00,0.0080
820.00,0.0080
819.00,0.0081
818.00,0.0082
817.00,0.0083
816.00,0.0084
815.00,0.0084
814.00,0.0084
813.00,0.0084
812.00,0.0084
811.00,0.0084
810.00,0.0085
809.00,0.0086
808.00,0.0086
807.00,0.0087
806.00,0.0087
805.00,0.0087
804.00,0.0087
803.00,0.0088
802.00,0.0087
801.00,0.0087
800.00,0.0087
799.00,0.0086
798.00,0.0085
797.00,0.0085
796.00,0.0084
795.00,0.0084
794.00,0.0084
793.00,0.0084
792.00,0.0084
791.00,0.0084
790.00,0.0084
789.00,0.0084
788.00,0.0084
787.00,0.0084
786.00,0.0084
785.00,0.0084
784.00,0.0085
783.00,0.0085
782.00,0.0085
781.00,0.0086
780.00,0.0086
779.00,0.0087
778.00,0.0087
777.00,0.0088
776.00,0.0089
775.00,0.0090
774.00,0.0091
773.00,0.0092
772.00,0.0092
771.00,0.0093
770.00,0.0094
769.00,0.0095
768.00,0.0096
767.00,0.0097
766.00,0.0098
765.00,0.0099
764.00,0.0099
763.00,0.0100
762.00,0.0101
761.00,0.0101
760.00,0.0102
759.00,0.0103
758.00,0.0104
757.00,0.0105
756.00,0.0106
755.00,0.0108
754.00,0.0109
753.00,0.0110
752.00,0.0111
751.00,0.0112
750.00,0.0113
749.00,0.0115
748.00,0.0116
747.00,0.0117
746.00,0.0119
745.00,0.0120
744.00,0.0121
743.00,0.0123
742.00,0.0124
741.00,0.0126
740.00,0.0127
739.00,0.0129
738.00,0.0131
737.00,0.0134
736.00,0.0136
735.00,0.0139
734.00,0.0141
733.00,0.0144
732.00,0.0147
731.00,0.0149
730.00,0.0152
729.00,0.0155
728.00,0.0158
727.00,0.0160
726.00,0.0163
725.00,0.0166
724.00,0.0168
723.00,0.0170
722.00,0.0172
721.00,0.0173
720.00,0.0174
719.00,0.0175
718.00,0.0176
717.00,0.0177
716.00,0.0178
715.00,0.0178
714.00,0.0179
713.00,0.0181
712.00,0.0182
711.00,0.0183
710.00,0.0184
709.00,0.0186
708.00,0.0187
707.00,0.0189
706.00,0.0190
705.00,0.0192
704.00,0.0194
703.00,0.0195
702.00,0.0197
701.00,0.0198
700.00,0.0199
699.00,0.0200
698.00,0.0201
697.00,0.0201
696.00,0.0201
695.00,0.0202
694.00,0.0203
693.00,0.0204
692.00,0.0205
691.00,0.0206
690.00,0.0207
689.00,0.0207
688.00,0.0208
687.00,0.0208
686.00,0.0208
685.00,0.0209
684.00,0.0210
683.00,0.0211
682.00,0.0211
681.00,0.0212
680.00,0.0212
679.00,0.0213
678.00,0.0214
677.00,0.0214
676.00,0.0215
675.00,0.0215
674.00,0.0215
673.00,0.0216
672.00,0.0217
671.00,0.0218
670.00,0.0220
669.00,0.0220
668.00,0.0219
667.00,0.0218
666.00,0.0218
665.00,0.0219
664.00,0.0221
663.00,0.0222
662.00,0.0222
661.00,0.0223
660.00,0.0223
659.00,0.0224
658.00,0.0224
657.00,0.0225
656.00,0.0226
655.00,0.0227
654.00,0.0227
653.00,0.0227
652.00,0.0228
651.00,0.0228
650.00,0.0229
649.00,0.0229
648.00,0.0229
647.00,0.0230
646.00,0.0230
645.00,0.0230
644.00,0.0230
643.00,0.0230
642.00,0.0230
641.00,0.0231
640.00,0.0231
639.00,0.0232
638.00,0.0232
637.00,0.0233
636.00,0.0233
635.00,0.0233
634.00,0.0234
633.00,0.0234
632.00,0.0235
631.00,0.0235
630.00,0.0235
629.00,0.0235
628.00,0.0235
627.00,0.0235
626.00,0.0235
625.00,0.0235
624.00,0.0236
623.00,0.0236
622.00,0.0236
621.00,0.0237
620.00,0.0237
619.00,0.0238
618.00,0.0238
617.00,0.0239
616.00,0.0239
615.00,0.0240
614.00,0.0240
613.00,0.0240
612.00,0.0240
611.00,0.0240
610.00,0.0240
609.00,0.0239
608.00,0.0238
607.00,0.0237
606.00,0.0236
605.00,0.0235
604.00,0.0235
603.00,0.0235
602.00,0.0235
601.00,0.0234
600.00,0.0234
599.00,0.0233
598.00,0.0232
597.00,0.0232
596.00,0.0231
595.00,0.0231
594.00,0.0231
593.00,0.0231
592.00,0.0232
591.00,0.0232
590.00,0.0232
589.00,0.0232
588.00,0.0232
587.00,0.0233
586.00,0.0233
585.00,0.0234
584.00,0.0234
583.00,0.0234
582.00,0.0235
581.00,0.0235
580.00,0.0235
579.00,0.0236
578.00,0.0237
577.00,0.0237
576.00,0.0238
575.00,0.0239
574.00,0.0239
573.00,0.0240
572.00,0.0241
571.00,0.0242
570.00,0.0243
569.00,0.0244
568.00,0.0246
567.00,0.0247
566.00,0.0248
565.00,0.0249
564.00,0.0251
563.00,0.0252
562.00,0.0254
561.00,0.0256
560.00,0.0258
559.00,0.0260
558.00,0.0262
557.00,0.0264
556.00,0.0265
555.00,0.0266
554.00,0.0267
553.00,0.0267
552.00,0.0267
551.00,0.0268
550.00,0.0268
549.00,0.0267
548.00,0.0267
547.00,0.0267
546.00,0.0266
545.00,0.0266
544.00,0.0266
543.00,0.0266
542.00,0.0265
541.00,0.0264
540.00,0.0263
539.00,0.0263
538.00,0.0262
537.00,0.0261
536.00,0.0260
535.00,0.0260
534.00,0.0259
533.00,0.0259
532.00,0.0259
531.00,0.0258
530.00,0.0257
529.00,0.0257
528.00,0.0256
527.00,0.0256
526.00,0.0256
525.00,0.0256
524.00,0.0257
523.00,0.0257
522.00,0.0257
521.00,0.0256
520.00,0.0255
519.00,0.0255
518.00,0.0254
517.00,0.0255
516.00,0.0255
515.00,0.0255
514.00,0.0255
513.00,0.0254
512.00,0.0254
511.00,0.0253
510.00,0.0252
509.00,0.0251
508.00,0.0251
507.00,0.0251
506.00,0.0252
505.00,0.0253
504.00,0.0253
503.00,0.0253
502.00,0.0252
501.00,0.0251
500.00,0.0251
499.00,0.0251
498.00,0.0251
497.00,0.0251
496.00,0.0252
495.00,0.0252
494.00,0.0253
493.00,0.0253
492.00,0.0253
491.00,0.0253
490.00,0.0252
489.00,0.0251
488.00,0.0250
487.00,0.0250
486.00,0.0250
485.00,0.0250
484.00,0.0249
483.00,0.0249
482.00,0.0248
481.00,0.0248
480.00,0.0248
479.00,0.0248
478.00,0.0247
477.00,0.0246
476.00,0.0245
475.00,0.0245
474.00,0.0244
473.00,0.0243
472.00,0.0241
471.00,0.0239
470.00,0.0237
469.00,0.0235
468.00,0.0234
467.00,0.0234
466.00,0.0233
465.00,0.0234
464.00,0.0235
463.00,0.0234
462.00,0.0233
461.00,0.0232
460.00,0.0233
459.00,0.0234
458.00,0.0233
457.00,0.0231
456.00,0.0229
455.00,0.0228
454.00,0.0227
453.00,0.0226
452.00,0.0226
451.00,0.0225
450.00,0.0224
449.00,0.0223
448.00,0.0223
447.00,0.0222
446.00,0.0219
445.00,0.0216
444.00,0.0215
443.00,0.0215
442.00,0.0215
441.00,0.0216
440.00,0.0216
439.00,0.0216
438.00,0.0216
437.00,0.0216
436.00,0.0217
435.00,0.0217
434.00,0.0218
433.00,0.0218
432.00,0.0219
431.00,0.0220
430.00,0.0220
429.00,0.0219
428.00,0.0220
427.00,0.0220
426.00,0.0221
425.00,0.0221
424.00,0.0221
423.00,0.0221
422.00,0.0222
421.00,0.0224
420.00,0.0225
419.00,0.0225
418.00,0.0220
417.00,0.0215
416.00,0.0212
415.00,0.0210
414.00,0.0210
413.00,0.0210
412.00,0.0209
411.00,0.0206
410.00,0.0202
409.00,0.0196
408.00,0.0192
407.00,0.0189
406.00,0.0186
405.00,0.0185
404.00,0.0185
403.00,0.0188
402.00,0.0197
401.00,0.0211
400.00,0.0229
