Created as New Dataset,Sample 016 By YargerLab Date Friday, November 01 2024
cm-1,A
4000.00,0.0059
3999.00,0.0059
3998.00,0.0059
3997.00,0.0058
3996.00,0.0058
3995.00,0.0058
3994.00,0.0058
3993.00,0.0058
3992.00,0.0058
3991.00,0.0058
3990.00,0.0058
3989.00,0.0058
3988.00,0.0058
3987.00,0.0058
3986.00,0.0058
3985.00,0.0058
3984.00,0.0058
3983.00,0.0057
3982.00,0.0057
3981.00,0.0057
3980.00,0.0057
3979.00,0.0057
3978.00,0.0057
3977.00,0.0057
3976.00,0.0057
3975.00,0.0057
3974.00,0.0057
3973.00,0.0057
3972.00,0.0057
3971.00,0.0057
3970.00,0.0057
3969.00,0.0057
3968.00,0.0057
3967.00,0.0057
3966.00,0.0057
3965.00,0.0057
3964.00,0.0058
3963.00,0.0058
3962.00,0.0058
3961.00,0.0058
3960.00,0.0058
3959.00,0.0058
3958.00,0.0058
3957.00,0.0058
3956.00,0.0058
3955.00,0.0058
3954.00,0.0058
3953.00,0.0058
3952.00,0.0058
3951.00,0.0058
3950.00,0.0058
3949.00,0.0058
3948.00,0.0058
3947.00,0.0058
3946.00,0.0058
3945.00,0.0058
3944.00,0.0058
3943.00,0.0058
3942.00,0.0058
3941.00,0.0058
3940.00,0.0058
3939.00,0.0058
3938.00,0.0058
3937.00,0.0058
3936.00,0.0058
3935.00,0.0058
3934.00,0.0058
3933.00,0.0059
3932.00,0.0059
3931.00,0.0059
3930.00,0.0059
3929.00,0.0059
3928.00,0.0059
3927.00,0.0059
3926.00,0.0059
3925.00,0.0059
3924.00,0.0059
3923.00,0.0059
3922.00,0.0059
3921.00,0.0059
3920.00,0.0059
3919.00,0.0059
3918.00,0.0060
3917.00,0.0060
3916.00,0.0060
3915.00,0.0060
3914.00,0.0060
3913.00,0.0060
3912.00,0.0060
3911.00,0.0060
3910.00,0.0060
3909.00,0.0060
3908.00,0.0060
3907.00,0.0060
3906.00,0.0060
3905.00,0.0060
3904.00,0.0060
3903.00,0.0060
3902.00,0.0061
3901.00,0.0061
3900.00,0.0061
3899.00,0.0061
3898.00,0.0061
3897.00,0.0061
3896.00,0.0061
3895.00,0.0061
3894.00,0.0060
3893.00,0.0060
3892.00,0.0060
3891.00,0.0060
3890.00,0.0060
3889.00,0.0060
3888.00,0.0060
3887.00,0.0060
3886.00,0.0060
3885.00,0.0060
3884.00,0.0060
3883.00,0.0060
3882.00,0.0060
3881.00,0.0060
3880.00,0.0060
3879.00,0.0060
3878.00,0.0060
3877.00,0.0061
3876.00,0.0060
3875.00,0.0060
3874.00,0.0060
3873.00,0.0061
3872.00,0.0061
3871.00,0.0061
3870.00,0.0061
3869.00,0.0061
3868.00,0.0062
3867.00,0.0062
3866.00,0.0061
3865.00,0.0061
3864.00,0.0060
3863.00,0.0060
3862.00,0.0060
3861.00,0.0060
3860.00,0.0060
3859.00,0.0060
3858.00,0.0060
3857.00,0.0061
3856.00,0.0061
3855.00,0.0061
3854.00,0.0061
3853.00,0.0061
3852.00,0.0062
3851.00,0.0062
3850.00,0.0061
3849.00,0.0061
3848.00,0.0061
3847.00,0.0060
3846.00,0.0060
3845.00,0.0060
3844.00,0.0060
3843.00,0.0060
3842.00,0.0061
3841.00,0.0061
3840.00,0.0061
3839.00,0.0062
3838.00,0.0062
3837.00,0.0061
3836.00,0.0061
3835.00,0.0061
3834.00,0.0061
3833.00,0.0060
3832.00,0.0060
3831.00,0.0060
3830.00,0.0060
3829.00,0.0060
3828.00,0.0060
3827.00,0.0060
3826.00,0.0059
3825.00,0.0060
3824.00,0.0060
3823.00,0.0060
3822.00,0.0060
3821.00,0.0060
3820.00,0.0060
3819.00,0.0060
3818.00,0.0061
3817.00,0.0061
3816.00,0.0060
3815.00,0.0060
3814.00,0.0060
3813.00,0.0060
3812.00,0.0060
3811.00,0.0060
3810.00,0.0060
3809.00,0.0060
3808.00,0.0060
3807.00,0.0060
3806.00,0.0060
3805.00,0.0060
3804.00,0.0060
3803.00,0.0060
3802.00,0.0060
3801.00,0.0060
3800.00,0.0060
3799.00,0.0060
3798.00,0.0060
3797.00,0.0059
3796.00,0.0059
3795.00,0.0058
3794.00,0.0058
3793.00,0.0058
3792.00,0.0058
3791.00,0.0058
3790.00,0.0058
3789.00,0.0058
3788.00,0.0058
3787.00,0.0058
3786.00,0.0058
3785.00,0.0057
3784.00,0.0057
3783.00,0.0057
3782.00,0.0057
3781.00,0.0057
3780.00,0.0057
3779.00,0.0057
3778.00,0.0057
3777.00,0.0057
3776.00,0.0057
3775.00,0.0057
3774.00,0.0056
3773.00,0.0056
3772.00,0.0056
3771.00,0.0056
3770.00,0.0056
3769.00,0.0056
3768.00,0.0056
3767.00,0.0056
3766.00,0.0056
3765.00,0.0056
3764.00,0.0056
3763.00,0.0056
3762.00,0.0057
3761.00,0.0057
3760.00,0.0057
3759.00,0.0057
3758.00,0.0056
3757.00,0.0056
3756.00,0.0056
3755.00,0.0057
3754.00,0.0057
3753.00,0.0057
3752.00,0.0057
3751.00,0.0057
3750.00,0.0057
3749.00,0.0057
3748.00,0.0057
3747.00,0.0056
3746.00,0.0056
3745.00,0.0056
3744.00,0.0055
3743.00,0.0055
3742.00,0.0055
3741.00,0.0055
3740.00,0.0054
3739.00,0.0054
3738.00,0.0054
3737.00,0.0054
3736.00,0.0055
3735.00,0.0055
3734.00,0.0055
3733.00,0.0055
3732.00,0.0054
3731.00,0.0054
3730.00,0.0054
3729.00,0.0054
3728.00,0.0054
3727.00,0.0054
3726.00,0.0055
3725.00,0.0055
3724.00,0.0055
3723.00,0.0055
3722.00,0.0055
3721.00,0.0055
3720.00,0.0054
3719.00,0.0054
3718.00,0.0054
3717.00,0.0055
3716.00,0.0055
3715.00,0.0056
3714.00,0.0056
3713.00,0.0056
3712.00,0.0056
3711.00,0.0055
3710.00,0.0055
3709.00,0.0055
3708.00,0.0055
3707.00,0.0055
3706.00,0.0055
3705.00,0.0055
3704.00,0.0055
3703.00,0.0055
3702.00,0.0055
3701.00,0.0055
3700.00,0.0055
3699.00,0.0056
3698.00,0.0056
3697.00,0.0056
3696.00,0.0057
3695.00,0.0057
3694.00,0.0058
3693.00,0.0059
3692.00,0.0060
3691.00,0.0062
3690.00,0.0063
3689.00,0.0065
3688.00,0.0067
3687.00,0.0069
3686.00,0.0071
3685.00,0.0073
3684.00,0.0075
3683.00,0.0078
3682.00,0.0082
3681.00,0.0085
3680.00,0.0089
3679.00,0.0093
3678.00,0.0097
3677.00,0.0102
3676.00,0.0106
3675.00,0.0110
3674.00,0.0114
3673.00,0.0117
3672.00,0.0119
3671.00,0.0121
3670.00,0.0122
3669.00,0.0123
3668.00,0.0124
3667.00,0.0124
3666.00,0.0125
3665.00,0.0126
3664.00,0.0128
3663.00,0.0130
3662.00,0.0131
3661.00,0.0132
3660.00,0.0133
3659.00,0.0134
3658.00,0.0134
3657.00,0.0134
3656.00,0.0133
3655.00,0.0132
3654.00,0.0131
3653.00,0.0130
3652.00,0.0129
3651.00,0.0128
3650.00,0.0128
3649.00,0.0127
3648.00,0.0125
3647.00,0.0124
3646.00,0.0122
3645.00,0.0119
3644.00,0.0116
3643.00,0.0113
3642.00,0.0111
3641.00,0.0108
3640.00,0.0107
3639.00,0.0107
3638.00,0.0106
3637.00,0.0105
3636.00,0.0101
3635.00,0.0094
3634.00,0.0087
3633.00,0.0082
3632.00,0.0078
3631.00,0.0076
3630.00,0.0074
3629.00,0.0072
3628.00,0.0071
3627.00,0.0070
3626.00,0.0069
3625.00,0.0068
3624.00,0.0067
3623.00,0.0066
3622.00,0.0065
3621.00,0.0065
3620.00,0.0064
3619.00,0.0063
3618.00,0.0062
3617.00,0.0061
3616.00,0.0060
3615.00,0.0060
3614.00,0.0059
3613.00,0.0059
3612.00,0.0058
3611.00,0.0058
3610.00,0.0057
3609.00,0.0057
3608.00,0.0056
3607.00,0.0056
3606.00,0.0055
3605.00,0.0055
3604.00,0.0054
3603.00,0.0054
3602.00,0.0054
3601.00,0.0053
3600.00,0.0053
3599.00,0.0053
3598.00,0.0053
3597.00,0.0053
3596.00,0.0053
3595.00,0.0053
3594.00,0.0053
3593.00,0.0053
3592.00,0.0053
3591.00,0.0054
3590.00,0.0054
3589.00,0.0054
3588.00,0.0054
3587.00,0.0054
3586.00,0.0053
3585.00,0.0053
3584.00,0.0053
3583.00,0.0053
3582.00,0.0053
3581.00,0.0053
3580.00,0.0053
3579.00,0.0053
3578.00,0.0053
3577.00,0.0053
3576.00,0.0053
3575.00,0.0053
3574.00,0.0053
3573.00,0.0053
3572.00,0.0053
3571.00,0.0054
3570.00,0.0054
3569.00,0.0054
3568.00,0.0054
3567.00,0.0055
3566.00,0.0055
3565.00,0.0055
3564.00,0.0054
3563.00,0.0054
3562.00,0.0054
3561.00,0.0054
3560.00,0.0054
3559.00,0.0054
3558.00,0.0054
3557.00,0.0054
3556.00,0.0054
3555.00,0.0054
3554.00,0.0054
3553.00,0.0054
3552.00,0.0054
3551.00,0.0053
3550.00,0.0053
3549.00,0.0054
3548.00,0.0054
3547.00,0.0054
3546.00,0.0054
3545.00,0.0054
3544.00,0.0054
3543.00,0.0054
3542.00,0.0054
3541.00,0.0054
3540.00,0.0054
3539.00,0.0054
3538.00,0.0053
3537.00,0.0053
3536.00,0.0053
3535.00,0.0053
3534.00,0.0054
3533.00,0.0054
3532.00,0.0054
3531.00,0.0054
3530.00,0.0054
3529.00,0.0054
3528.00,0.0054
3527.00,0.0053
3526.00,0.0053
3525.00,0.0053
3524.00,0.0053
3523.00,0.0054
3522.00,0.0054
3521.00,0.0054
3520.00,0.0054
3519.00,0.0054
3518.00,0.0053
3517.00,0.0053
3516.00,0.0053
3515.00,0.0053
3514.00,0.0053
3513.00,0.0053
3512.00,0.0053
3511.00,0.0053
3510.00,0.0053
3509.00,0.0053
3508.00,0.0053
3507.00,0.0053
3506.00,0.0053
3505.00,0.0053
3504.00,0.0053
3503.00,0.0053
3502.00,0.0053
3501.00,0.0053
3500.00,0.0053
3499.00,0.0054
3498.00,0.0054
3497.00,0.0054
3496.00,0.0054
3495.00,0.0053
3494.00,0.0053
3493.00,0.0053
3492.00,0.0053
3491.00,0.0054
3490.00,0.0054
3489.00,0.0054
3488.00,0.0054
3487.00,0.0054
3486.00,0.0054
3485.00,0.0054
3484.00,0.0054
3483.00,0.0054
3482.00,0.0054
3481.00,0.0054
3480.00,0.0055
3479.00,0.0055
3478.00,0.0055
3477.00,0.0055
3476.00,0.0055
3475.00,0.0055
3474.00,0.0055
3473.00,0.0055
3472.00,0.0055
3471.00,0.0055
3470.00,0.0055
3469.00,0.0055
3468.00,0.0055
3467.00,0.0055
3466.00,0.0056
3465.00,0.0056
3464.00,0.0056
3463.00,0.0056
3462.00,0.0056
3461.00,0.0056
3460.00,0.0056
3459.00,0.0056
3458.00,0.0056
3457.00,0.0056
3456.00,0.0056
3455.00,0.0056
3454.00,0.0056
3453.00,0.0056
3452.00,0.0056
3451.00,0.0056
3450.00,0.0056
3449.00,0.0056
3448.00,0.0056
3447.00,0.0056
3446.00,0.0056
3445.00,0.0056
3444.00,0.0056
3443.00,0.0056
3442.00,0.0056
3441.00,0.0056
3440.00,0.0056
3439.00,0.0056
3438.00,0.0056
3437.00,0.0055
3436.00,0.0055
3435.00,0.0055
3434.00,0.0055
3433.00,0.0055
3432.00,0.0055
3431.00,0.0055
3430.00,0.0055
3429.00,0.0055
3428.00,0.0055
3427.00,0.0055
3426.00,0.0055
3425.00,0.0055
3424.00,0.0055
3423.00,0.0055
3422.00,0.0055
3421.00,0.0055
3420.00,0.0055
3419.00,0.0055
3418.00,0.0055
3417.00,0.0055
3416.00,0.0055
3415.00,0.0055
3414.00,0.0054
3413.00,0.0054
3412.00,0.0054
3411.00,0.0054
3410.00,0.0054
3409.00,0.0054
3408.00,0.0054
3407.00,0.0054
3406.00,0.0054
3405.00,0.0054
3404.00,0.0054
3403.00,0.0053
3402.00,0.0053
3401.00,0.0053
3400.00,0.0053
3399.00,0.0053
3398.00,0.0053
3397.00,0.0053
3396.00,0.0053
3395.00,0.0053
3394.00,0.0053
3393.00,0.0053
3392.00,0.0053
3391.00,0.0053
3390.00,0.0053
3389.00,0.0053
3388.00,0.0053
3387.00,0.0053
3386.00,0.0053
3385.00,0.0053
3384.00,0.0053
3383.00,0.0053
3382.00,0.0053
3381.00,0.0053
3380.00,0.0053
3379.00,0.0053
3378.00,0.0053
3377.00,0.0053
3376.00,0.0053
3375.00,0.0053
3374.00,0.0052
3373.00,0.0052
3372.00,0.0052
3371.00,0.0052
3370.00,0.0052
3369.00,0.0052
3368.00,0.0052
3367.00,0.0052
3366.00,0.0052
3365.00,0.0052
3364.00,0.0052
3363.00,0.0052
3362.00,0.0052
3361.00,0.0052
3360.00,0.0052
3359.00,0.0052
3358.00,0.0052
3357.00,0.0052
3356.00,0.0052
3355.00,0.0052
3354.00,0.0052
3353.00,0.0052
3352.00,0.0052
3351.00,0.0052
3350.00,0.0052
3349.00,0.0052
3348.00,0.0052
3347.00,0.0052
3346.00,0.0052
3345.00,0.0052
3344.00,0.0052
3343.00,0.0052
3342.00,0.0052
3341.00,0.0052
3340.00,0.0052
3339.00,0.0052
3338.00,0.0052
3337.00,0.0052
3336.00,0.0052
3335.00,0.0052
3334.00,0.0052
3333.00,0.0052
3332.00,0.0052
3331.00,0.0052
3330.00,0.0052
3329.00,0.0051
3328.00,0.0051
3327.00,0.0051
3326.00,0.0051
3325.00,0.0051
3324.00,0.0051
3323.00,0.0051
3322.00,0.0051
3321.00,0.0051
3320.00,0.0051
3319.00,0.0051
3318.00,0.0051
3317.00,0.0051
3316.00,0.0051
3315.00,0.0051
3314.00,0.0051
3313.00,0.0051
3312.00,0.0051
3311.00,0.0050
3310.00,0.0050
3309.00,0.0050
3308.00,0.0050
3307.00,0.0050
3306.00,0.0050
3305.00,0.0050
3304.00,0.0050
3303.00,0.0050
3302.00,0.0051
3301.00,0.0051
3300.00,0.0051
3299.00,0.0051
3298.00,0.0051
3297.00,0.0051
3296.00,0.0051
3295.00,0.0051
3294.00,0.0051
3293.00,0.0051
3292.00,0.0051
3291.00,0.0051
3290.00,0.0052
3289.00,0.0052
3288.00,0.0052
3287.00,0.0052
3286.00,0.0052
3285.00,0.0052
3284.00,0.0052
3283.00,0.0053
3282.00,0.0053
3281.00,0.0053
3280.00,0.0053
3279.00,0.0053
3278.00,0.0054
3277.00,0.0054
3276.00,0.0054
3275.00,0.0054
3274.00,0.0054
3273.00,0.0054
3272.00,0.0054
3271.00,0.0054
3270.00,0.0055
3269.00,0.0056
3268.00,0.0057
3267.00,0.0057
3266.00,0.0058
3265.00,0.0058
3264.00,0.0059
3263.00,0.0060
3262.00,0.0060
3261.00,0.0061
3260.00,0.0062
3259.00,0.0062
3258.00,0.0062
3257.00,0.0062
3256.00,0.0063
3255.00,0.0063
3254.00,0.0064
3253.00,0.0065
3252.00,0.0066
3251.00,0.0066
3250.00,0.0067
3249.00,0.0066
3248.00,0.0067
3247.00,0.0067
3246.00,0.0068
3245.00,0.0070
3244.00,0.0071
3243.00,0.0072
3242.00,0.0073
3241.00,0.0073
3240.00,0.0074
3239.00,0.0074
3238.00,0.0074
3237.00,0.0074
3236.00,0.0073
3235.00,0.0073
3234.00,0.0073
3233.00,0.0074
3232.00,0.0076
3231.00,0.0077
3230.00,0.0079
3229.00,0.0080
3228.00,0.0081
3227.00,0.0082
3226.00,0.0082
3225.00,0.0083
3224.00,0.0084
3223.00,0.0084
3222.00,0.0085
3221.00,0.0085
3220.00,0.0086
3219.00,0.0086
3218.00,0.0087
3217.00,0.0088
3216.00,0.0089
3215.00,0.0089
3214.00,0.0090
3213.00,0.0091
3212.00,0.0092
3211.00,0.0093
3210.00,0.0094
3209.00,0.0094
3208.00,0.0095
3207.00,0.0096
3206.00,0.0097
3205.00,0.0098
3204.00,0.0099
3203.00,0.0100
3202.00,0.0101
3201.00,0.0102
3200.00,0.0103
3199.00,0.0104
3198.00,0.0105
3197.00,0.0106
3196.00,0.0107
3195.00,0.0107
3194.00,0.0108
3193.00,0.0109
3192.00,0.0110
3191.00,0.0111
3190.00,0.0112
3189.00,0.0113
3188.00,0.0114
3187.00,0.0115
3186.00,0.0116
3185.00,0.0117
3184.00,0.0118
3183.00,0.0119
3182.00,0.0120
3181.00,0.0121
3180.00,0.0122
3179.00,0.0123
3178.00,0.0124
3177.00,0.0125
3176.00,0.0126
3175.00,0.0127
3174.00,0.0128
3173.00,0.0129
3172.00,0.0130
3171.00,0.0131
3170.00,0.0132
3169.00,0.0133
3168.00,0.0134
3167.00,0.0135
3166.00,0.0136
3165.00,0.0137
3164.00,0.0138
3163.00,0.0139
3162.00,0.0141
3161.00,0.0142
3160.00,0.0143
3159.00,0.0144
3158.00,0.0146
3157.00,0.0146
3156.00,0.0147
3155.00,0.0148
3154.00,0.0148
3153.00,0.0150
3152.00,0.0152
3151.00,0.0154
3150.00,0.0157
3149.00,0.0159
3148.00,0.0161
3147.00,0.0163
3146.00,0.0165
3145.00,0.0166
3144.00,0.0168
3143.00,0.0169
3142.00,0.0170
3141.00,0.0171
3140.00,0.0172
3139.00,0.0175
3138.00,0.0177
3137.00,0.0181
3136.00,0.0183
3135.00,0.0186
3134.00,0.0188
3133.00,0.0190
3132.00,0.0192
3131.00,0.0194
3130.00,0.0197
3129.00,0.0200
3128.00,0.0203
3127.00,0.0206
3126.00,0.0209
3125.00,0.0211
3124.00,0.0213
3123.00,0.0214
3122.00,0.0216
3121.00,0.0218
3120.00,0.0220
3119.00,0.0223
3118.00,0.0227
3117.00,0.0231
3116.00,0.0235
3115.00,0.0240
3114.00,0.0246
3113.00,0.0251
3112.00,0.0255
3111.00,0.0259
3110.00,0.0263
3109.00,0.0268
3108.00,0.0273
3107.00,0.0279
3106.00,0.0284
3105.00,0.0290
3104.00,0.0295
3103.00,0.0299
3102.00,0.0304
3101.00,0.0309
3100.00,0.0315
3099.00,0.0322
3098.00,0.0329
3097.00,0.0335
3096.00,0.0342
3095.00,0.0349
3094.00,0.0355
3093.00,0.0361
3092.00,0.0368
3091.00,0.0374
3090.00,0.0381
3089.00,0.0389
3088.00,0.0397
3087.00,0.0404
3086.00,0.0412
3085.00,0.0420
3084.00,0.0428
3083.00,0.0437
3082.00,0.0445
3081.00,0.0454
3080.00,0.0463
3079.00,0.0472
3078.00,0.0483
3077.00,0.0493
3076.00,0.0503
3075.00,0.0514
3074.00,0.0523
3073.00,0.0532
3072.00,0.0541
3071.00,0.0549
3070.00,0.0557
3069.00,0.0565
3068.00,0.0573
3067.00,0.0581
3066.00,0.0590
3065.00,0.0598
3064.00,0.0606
3063.00,0.0613
3062.00,0.0619
3061.00,0.0625
3060.00,0.0631
3059.00,0.0635
3058.00,0.0639
3057.00,0.0643
3056.00,0.0647
3055.00,0.0650
3054.00,0.0652
3053.00,0.0654
3052.00,0.0655
3051.00,0.0656
3050.00,0.0657
3049.00,0.0657
3048.00,0.0657
3047.00,0.0655
3046.00,0.0653
3045.00,0.0651
3044.00,0.0648
3043.00,0.0646
3042.00,0.0643
3041.00,0.0640
3040.00,0.0638
3039.00,0.0634
3038.00,0.0631
3037.00,0.0626
3036.00,0.0622
3035.00,0.0617
3034.00,0.0613
3033.00,0.0609
3032.00,0.0605
3031.00,0.0601
3030.00,0.0597
3029.00,0.0593
3028.00,0.0589
3027.00,0.0585
3026.00,0.0581
3025.00,0.0577
3024.00,0.0575
3023.00,0.0573
3022.00,0.0571
3021.00,0.0571
3020.00,0.0571
3019.00,0.0573
3018.00,0.0577
3017.00,0.0583
3016.00,0.0590
3015.00,0.0600
3014.00,0.0613
3013.00,0.0627
3012.00,0.0644
3011.00,0.0662
3010.00,0.0681
3009.00,0.0701
3008.00,0.0720
3007.00,0.0738
3006.00,0.0756
3005.00,0.0774
3004.00,0.0792
3003.00,0.0810
3002.00,0.0827
3001.00,0.0844
3000.00,0.0860
2999.00,0.0876
2998.00,0.0891
2997.00,0.0906
2996.00,0.0921
2995.00,0.0936
2994.00,0.0952
2993.00,0.0971
2992.00,0.0993
2991.00,0.1018
2990.00,0.1047
2989.00,0.1081
2988.00,0.1121
2987.00,0.1168
2986.00,0.1226
2985.00,0.1295
2984.00,0.1371
2983.00,0.1438
2982.00,0.1479
2981.00,0.1481
2980.00,0.1449
2979.00,0.1396
2978.00,0.1338
2977.00,0.1286
2976.00,0.1247
2975.00,0.1222
2974.00,0.1212
2973.00,0.1210
2972.00,0.1208
2971.00,0.1195
2970.00,0.1169
2969.00,0.1133
2968.00,0.1097
2967.00,0.1067
2966.00,0.1041
2965.00,0.1019
2964.00,0.1000
2963.00,0.0983
2962.00,0.0969
2961.00,0.0958
2960.00,0.0949
2959.00,0.0941
2958.00,0.0934
2957.00,0.0925
2956.00,0.0915
2955.00,0.0902
2954.00,0.0888
2953.00,0.0872
2952.00,0.0855
2951.00,0.0838
2950.00,0.0821
2949.00,0.0804
2948.00,0.0787
2947.00,0.0769
2946.00,0.0752
2945.00,0.0734
2944.00,0.0719
2943.00,0.0705
2942.00,0.0694
2941.00,0.0686
2940.00,0.0679
2939.00,0.0673
2938.00,0.0668
2937.00,0.0663
2936.00,0.0658
2935.00,0.0656
2934.00,0.0654
2933.00,0.0652
2932.00,0.0650
2931.00,0.0646
2930.00,0.0641
2929.00,0.0635
2928.00,0.0628
2927.00,0.0621
2926.00,0.0615
2925.00,0.0608
2924.00,0.0603
2923.00,0.0598
2922.00,0.0595
2921.00,0.0592
2920.00,0.0590
2919.00,0.0588
2918.00,0.0587
2917.00,0.0587
2916.00,0.0588
2915.00,0.0589
2914.00,0.0591
2913.00,0.0593
2912.00,0.0596
2911.00,0.0599
2910.00,0.0602
2909.00,0.0605
2908.00,0.0607
2907.00,0.0609
2906.00,0.0610
2905.00,0.0612
2904.00,0.0614
2903.00,0.0615
2902.00,0.0616
2901.00,0.0617
2900.00,0.0617
2899.00,0.0617
2898.00,0.0617
2897.00,0.0618
2896.00,0.0620
2895.00,0.0623
2894.00,0.0626
2893.00,0.0630
2892.00,0.0635
2891.00,0.0638
2890.00,0.0641
2889.00,0.0642
2888.00,0.0641
2887.00,0.0640
2886.00,0.0639
2885.00,0.0640
2884.00,0.0638
2883.00,0.0634
2882.00,0.0626
2881.00,0.0615
2880.00,0.0603
2879.00,0.0592
2878.00,0.0582
2877.00,0.0573
2876.00,0.0565
2875.00,0.0559
2874.00,0.0553
2873.00,0.0548
2872.00,0.0543
2871.00,0.0538
2870.00,0.0533
2869.00,0.0527
2868.00,0.0520
2867.00,0.0514
2866.00,0.0508
2865.00,0.0502
2864.00,0.0495
2863.00,0.0489
2862.00,0.0483
2861.00,0.0477
2860.00,0.0472
2859.00,0.0466
2858.00,0.0461
2857.00,0.0457
2856.00,0.0453
2855.00,0.0449
2854.00,0.0445
2853.00,0.0442
2852.00,0.0438
2851.00,0.0434
2850.00,0.0430
2849.00,0.0426
2848.00,0.0424
2847.00,0.0423
2846.00,0.0423
2845.00,0.0423
2844.00,0.0422
2843.00,0.0422
2842.00,0.0421
2841.00,0.0420
2840.00,0.0420
2839.00,0.0420
2838.00,0.0420
2837.00,0.0421
2836.00,0.0421
2835.00,0.0422
2834.00,0.0423
2833.00,0.0424
2832.00,0.0425
2831.00,0.0426
2830.00,0.0428
2829.00,0.0429
2828.00,0.0431
2827.00,0.0432
2826.00,0.0435
2825.00,0.0437
2824.00,0.0439
2823.00,0.0442
2822.00,0.0445
2821.00,0.0448
2820.00,0.0451
2819.00,0.0454
2818.00,0.0457
2817.00,0.0460
2816.00,0.0463
2815.00,0.0466
2814.00,0.0468
2813.00,0.0471
2812.00,0.0473
2811.00,0.0475
2810.00,0.0476
2809.00,0.0478
2808.00,0.0480
2807.00,0.0482
2806.00,0.0483
2805.00,0.0485
2804.00,0.0486
2803.00,0.0487
2802.00,0.0487
2801.00,0.0488
2800.00,0.0489
2799.00,0.0490
2798.00,0.0491
2797.00,0.0492
2796.00,0.0494
2795.00,0.0495
2794.00,0.0497
2793.00,0.0498
2792.00,0.0499
2791.00,0.0501
2790.00,0.0503
2789.00,0.0505
2788.00,0.0508
2787.00,0.0510
2786.00,0.0512
2785.00,0.0514
2784.00,0.0516
2783.00,0.0518
2782.00,0.0519
2781.00,0.0520
2780.00,0.0520
2779.00,0.0520
2778.00,0.0520
2777.00,0.0519
2776.00,0.0517
2775.00,0.0516
2774.00,0.0514
2773.00,0.0512
2772.00,0.0510
2771.00,0.0508
2770.00,0.0505
2769.00,0.0502
2768.00,0.0499
2767.00,0.0496
2766.00,0.0492
2765.00,0.0489
2764.00,0.0486
2763.00,0.0483
2762.00,0.0479
2761.00,0.0476
2760.00,0.0473
2759.00,0.0470
2758.00,0.0467
2757.00,0.0465
2756.00,0.0462
2755.00,0.0459
2754.00,0.0456
2753.00,0.0454
2752.00,0.0451
2751.00,0.0448
2750.00,0.0446
2749.00,0.0443
2748.00,0.0441
2747.00,0.0439
2746.00,0.0438
2745.00,0.0436
2744.00,0.0434
2743.00,0.0433
2742.00,0.0431
2741.00,0.0430
2740.00,0.0428
2739.00,0.0427
2738.00,0.0426
2737.00,0.0425
2736.00,0.0424
2735.00,0.0423
2734.00,0.0422
2733.00,0.0422
2732.00,0.0421
2731.00,0.0420
2730.00,0.0419
2729.00,0.0418
2728.00,0.0417
2727.00,0.0416
2726.00,0.0416
2725.00,0.0415
2724.00,0.0415
2723.00,0.0415
2722.00,0.0414
2721.00,0.0414
2720.00,0.0413
2719.00,0.0413
2718.00,0.0413
2717.00,0.0412
2716.00,0.0412
2715.00,0.0412
2714.00,0.0411
2713.00,0.0411
2712.00,0.0411
2711.00,0.0411
2710.00,0.0411
2709.00,0.0411
2708.00,0.0411
2707.00,0.0411
2706.00,0.0412
2705.00,0.0413
2704.00,0.0413
2703.00,0.0414
2702.00,0.0415
2701.00,0.0416
2700.00,0.0417
2699.00,0.0418
2698.00,0.0419
2697.00,0.0420
2696.00,0.0422
2695.00,0.0423
2694.00,0.0425
2693.00,0.0426
2692.00,0.0428
2691.00,0.0430
2690.00,0.0431
2689.00,0.0433
2688.00,0.0434
2687.00,0.0436
2686.00,0.0438
2685.00,0.0439
2684.00,0.0441
2683.00,0.0442
2682.00,0.0443
2681.00,0.0444
2680.00,0.0445
2679.00,0.0447
2678.00,0.0448
2677.00,0.0449
2676.00,0.0450
2675.00,0.0451
2674.00,0.0452
2673.00,0.0453
2672.00,0.0454
2671.00,0.0455
2670.00,0.0456
2669.00,0.0457
2668.00,0.0457
2667.00,0.0458
2666.00,0.0458
2665.00,0.0459
2664.00,0.0459
2663.00,0.0459
2662.00,0.0459
2661.00,0.0459
2660.00,0.0460
2659.00,0.0460
2658.00,0.0460
2657.00,0.0461
2656.00,0.0462
2655.00,0.0463
2654.00,0.0463
2653.00,0.0464
2652.00,0.0465
2651.00,0.0465
2650.00,0.0466
2649.00,0.0467
2648.00,0.0467
2647.00,0.0468
2646.00,0.0468
2645.00,0.0468
2644.00,0.0469
2643.00,0.0469
2642.00,0.0469
2641.00,0.0470
2640.00,0.0470
2639.00,0.0470
2638.00,0.0469
2637.00,0.0468
2636.00,0.0468
2635.00,0.0467
2634.00,0.0467
2633.00,0.0467
2632.00,0.0467
2631.00,0.0468
2630.00,0.0468
2629.00,0.0468
2628.00,0.0469
2627.00,0.0469
2626.00,0.0469
2625.00,0.0468
2624.00,0.0468
2623.00,0.0468
2622.00,0.0468
2621.00,0.0468
2620.00,0.0468
2619.00,0.0468
2618.00,0.0467
2617.00,0.0467
2616.00,0.0466
2615.00,0.0466
2614.00,0.0465
2613.00,0.0465
2612.00,0.0464
2611.00,0.0463
2610.00,0.0463
2609.00,0.0462
2608.00,0.0462
2607.00,0.0461
2606.00,0.0461
2605.00,0.0461
2604.00,0.0460
2603.00,0.0460
2602.00,0.0460
2601.00,0.0461
2600.00,0.0461
2599.00,0.0462
2598.00,0.0463
2597.00,0.0464
2596.00,0.0464
2595.00,0.0465
2594.00,0.0466
2593.00,0.0467
2592.00,0.0468
2591.00,0.0468
2590.00,0.0469
2589.00,0.0469
2588.00,0.0469
2587.00,0.0469
2586.00,0.0469
2585.00,0.0468
2584.00,0.0468
2583.00,0.0468
2582.00,0.0468
2581.00,0.0467
2580.00,0.0467
2579.00,0.0466
2578.00,0.0466
2577.00,0.0465
2576.00,0.0465
2575.00,0.0464
2574.00,0.0464
2573.00,0.0464
2572.00,0.0464
2571.00,0.0463
2570.00,0.0463
2569.00,0.0463
2568.00,0.0463
2567.00,0.0463
2566.00,0.0463
2565.00,0.0462
2564.00,0.0462
2563.00,0.0462
2562.00,0.0462
2561.00,0.0462
2560.00,0.0462
2559.00,0.0462
2558.00,0.0462
2557.00,0.0462
2556.00,0.0462
2555.00,0.0462
2554.00,0.0462
2553.00,0.0462
2552.00,0.0462
2551.00,0.0461
2550.00,0.0461
2549.00,0.0462
2548.00,0.0462
2547.00,0.0462
2546.00,0.0463
2545.00,0.0464
2544.00,0.0465
2543.00,0.0465
2542.00,0.0467
2541.00,0.0468
2540.00,0.0469
2539.00,0.0470
2538.00,0.0472
2537.00,0.0473
2536.00,0.0475
2535.00,0.0477
2534.00,0.0478
2533.00,0.0480
2532.00,0.0482
2531.00,0.0483
2530.00,0.0485
2529.00,0.0487
2528.00,0.0489
2527.00,0.0490
2526.00,0.0492
2525.00,0.0494
2524.00,0.0496
2523.00,0.0498
2522.00,0.0500
2521.00,0.0503
2520.00,0.0505
2519.00,0.0507
2518.00,0.0510
2517.00,0.0512
2516.00,0.0515
2515.00,0.0517
2514.00,0.0519
2513.00,0.0521
2512.00,0.0523
2511.00,0.0525
2510.00,0.0526
2509.00,0.0528
2508.00,0.0529
2507.00,0.0530
2506.00,0.0530
2505.00,0.0531
2504.00,0.0531
2503.00,0.0532
2502.00,0.0532
2501.00,0.0532
2500.00,0.0531
2499.00,0.0531
2498.00,0.0531
2497.00,0.0530
2496.00,0.0530
2495.00,0.0529
2494.00,0.0528
2493.00,0.0527
2492.00,0.0526
2491.00,0.0525
2490.00,0.0524
2489.00,0.0523
2488.00,0.0522
2487.00,0.0521
2486.00,0.0521
2485.00,0.0520
2484.00,0.0519
2483.00,0.0519
2482.00,0.0518
2481.00,0.0518
2480.00,0.0518
2479.00,0.0517
2478.00,0.0517
2477.00,0.0517
2476.00,0.0517
2475.00,0.0517
2474.00,0.0517
2473.00,0.0517
2472.00,0.0517
2471.00,0.0517
2470.00,0.0517
2469.00,0.0517
2468.00,0.0516
2467.00,0.0516
2466.00,0.0517
2465.00,0.0516
2464.00,0.0516
2463.00,0.0515
2462.00,0.0515
2461.00,0.0514
2460.00,0.0513
2459.00,0.0512
2458.00,0.0511
2457.00,0.0511
2456.00,0.0510
2455.00,0.0509
2454.00,0.0508
2453.00,0.0507
2452.00,0.0506
2451.00,0.0505
2450.00,0.0505
2449.00,0.0505
2448.00,0.0505
2447.00,0.0505
2446.00,0.0505
2445.00,0.0506
2444.00,0.0506
2443.00,0.0507
2442.00,0.0509
2441.00,0.0510
2440.00,0.0512
2439.00,0.0513
2438.00,0.0515
2437.00,0.0517
2436.00,0.0519
2435.00,0.0521
2434.00,0.0524
2433.00,0.0526
2432.00,0.0528
2431.00,0.0531
2430.00,0.0534
2429.00,0.0537
2428.00,0.0539
2427.00,0.0542
2426.00,0.0545
2425.00,0.0548
2424.00,0.0550
2423.00,0.0553
2422.00,0.0556
2421.00,0.0559
2420.00,0.0562
2419.00,0.0564
2418.00,0.0567
2417.00,0.0570
2416.00,0.0573
2415.00,0.0575
2414.00,0.0578
2413.00,0.0581
2412.00,0.0583
2411.00,0.0586
2410.00,0.0588
2409.00,0.0591
2408.00,0.0594
2407.00,0.0596
2406.00,0.0599
2405.00,0.0602
2404.00,0.0604
2403.00,0.0607
2402.00,0.0610
2401.00,0.0612
2400.00,0.0614
2399.00,0.0616
2398.00,0.0619
2397.00,0.0621
2396.00,0.0622
2395.00,0.0624
2394.00,0.0626
2393.00,0.0627
2392.00,0.0628
2391.00,0.0629
2390.00,0.0629
2389.00,0.0629
2388.00,0.0628
2387.00,0.0627
2386.00,0.0625
2385.00,0.0623
2384.00,0.0621
2383.00,0.0620
2382.00,0.0618
2381.00,0.0617
2380.00,0.0616
2379.00,0.0615
2378.00,0.0614
2377.00,0.0613
2376.00,0.0612
2375.00,0.0610
2374.00,0.0609
2373.00,0.0608
2372.00,0.0606
2371.00,0.0605
2370.00,0.0603
2369.00,0.0601
2368.00,0.0600
2367.00,0.0598
2366.00,0.0597
2365.00,0.0596
2364.00,0.0595
2363.00,0.0594
2362.00,0.0593
2361.00,0.0593
2360.00,0.0593
2359.00,0.0594
2358.00,0.0594
2357.00,0.0595
2356.00,0.0596
2355.00,0.0595
2354.00,0.0589
2353.00,0.0582
2352.00,0.0575
2351.00,0.0573
2350.00,0.0574
2349.00,0.0574
2348.00,0.0571
2347.00,0.0564
2346.00,0.0559
2345.00,0.0559
2344.00,0.0560
2343.00,0.0561
2342.00,0.0561
2341.00,0.0561
2340.00,0.0561
2339.00,0.0559
2338.00,0.0557
2337.00,0.0554
2336.00,0.0552
2335.00,0.0550
2334.00,0.0548
2333.00,0.0547
2332.00,0.0545
2331.00,0.0544
2330.00,0.0543
2329.00,0.0542
2328.00,0.0542
2327.00,0.0540
2326.00,0.0537
2325.00,0.0533
2324.00,0.0530
2323.00,0.0528
2322.00,0.0527
2321.00,0.0526
2320.00,0.0525
2319.00,0.0524
2318.00,0.0522
2317.00,0.0520
2316.00,0.0517
2315.00,0.0515
2314.00,0.0512
2313.00,0.0511
2312.00,0.0509
2311.00,0.0508
2310.00,0.0507
2309.00,0.0506
2308.00,0.0505
2307.00,0.0504
2306.00,0.0503
2305.00,0.0501
2304.00,0.0500
2303.00,0.0499
2302.00,0.0498
2301.00,0.0496
2300.00,0.0495
2299.00,0.0494
2298.00,0.0493
2297.00,0.0492
2296.00,0.0491
2295.00,0.0490
2294.00,0.0489
2293.00,0.0487
2292.00,0.0486
2291.00,0.0484
2290.00,0.0483
2289.00,0.0481
2288.00,0.0478
2287.00,0.0476
2286.00,0.0473
2285.00,0.0470
2284.00,0.0467
2283.00,0.0465
2282.00,0.0463
2281.00,0.0461
2280.00,0.0458
2279.00,0.0456
2278.00,0.0454
2277.00,0.0452
2276.00,0.0449
2275.00,0.0447
2274.00,0.0445
2273.00,0.0444
2272.00,0.0442
2271.00,0.0440
2270.00,0.0439
2269.00,0.0437
2268.00,0.0435
2267.00,0.0433
2266.00,0.0431
2265.00,0.0429
2264.00,0.0427
2263.00,0.0426
2262.00,0.0424
2261.00,0.0423
2260.00,0.0420
2259.00,0.0418
2258.00,0.0416
2257.00,0.0413
2256.00,0.0410
2255.00,0.0408
2254.00,0.0406
2253.00,0.0404
2252.00,0.0402
2251.00,0.0400
2250.00,0.0399
2249.00,0.0397
2248.00,0.0395
2247.00,0.0393
2246.00,0.0392
2245.00,0.0391
2244.00,0.0389
2243.00,0.0388
2242.00,0.0387
2241.00,0.0385
2240.00,0.0383
2239.00,0.0381
2238.00,0.0379
2237.00,0.0377
2236.00,0.0375
2235.00,0.0373
2234.00,0.0372
2233.00,0.0371
2232.00,0.0369
2231.00,0.0367
2230.00,0.0366
2229.00,0.0364
2228.00,0.0363
2227.00,0.0361
2226.00,0.0360
2225.00,0.0359
2224.00,0.0357
2223.00,0.0355
2222.00,0.0354
2221.00,0.0352
2220.00,0.0351
2219.00,0.0349
2218.00,0.0348
2217.00,0.0347
2216.00,0.0346
2215.00,0.0345
2214.00,0.0344
2213.00,0.0343
2212.00,0.0342
2211.00,0.0340
2210.00,0.0339
2209.00,0.0337
2208.00,0.0335
2207.00,0.0334
2206.00,0.0333
2205.00,0.0332
2204.00,0.0332
2203.00,0.0331
2202.00,0.0330
2201.00,0.0329
2200.00,0.0327
2199.00,0.0325
2198.00,0.0322
2197.00,0.0320
2196.00,0.0318
2195.00,0.0317
2194.00,0.0316
2193.00,0.0314
2192.00,0.0312
2191.00,0.0311
2190.00,0.0309
2189.00,0.0307
2188.00,0.0305
2187.00,0.0302
2186.00,0.0300
2185.00,0.0297
2184.00,0.0293
2183.00,0.0291
2182.00,0.0289
2181.00,0.0287
2180.00,0.0284
2179.00,0.0281
2178.00,0.0278
2177.00,0.0276
2176.00,0.0273
2175.00,0.0272
2174.00,0.0271
2173.00,0.0271
2172.00,0.0270
2171.00,0.0269
2170.00,0.0267
2169.00,0.0265
2168.00,0.0262
2167.00,0.0261
2166.00,0.0260
2165.00,0.0260
2164.00,0.0260
2163.00,0.0257
2162.00,0.0251
2161.00,0.0245
2160.00,0.0239
2159.00,0.0237
2158.00,0.0238
2157.00,0.0240
2156.00,0.0241
2155.00,0.0242
2154.00,0.0242
2153.00,0.0241
2152.00,0.0240
2151.00,0.0238
2150.00,0.0236
2149.00,0.0235
2148.00,0.0234
2147.00,0.0232
2146.00,0.0231
2145.00,0.0230
2144.00,0.0228
2143.00,0.0227
2142.00,0.0225
2141.00,0.0224
2140.00,0.0223
2139.00,0.0222
2138.00,0.0220
2137.00,0.0218
2136.00,0.0215
2135.00,0.0213
2134.00,0.0211
2133.00,0.0211
2132.00,0.0211
2131.00,0.0210
2130.00,0.0210
2129.00,0.0209
2128.00,0.0208
2127.00,0.0207
2126.00,0.0205
2125.00,0.0204
2124.00,0.0202
2123.00,0.0201
2122.00,0.0199
2121.00,0.0198
2120.00,0.0197
2119.00,0.0196
2118.00,0.0196
2117.00,0.0195
2116.00,0.0194
2115.00,0.0193
2114.00,0.0191
2113.00,0.0190
2112.00,0.0189
2111.00,0.0187
2110.00,0.0186
2109.00,0.0185
2108.00,0.0183
2107.00,0.0182
2106.00,0.0181
2105.00,0.0180
2104.00,0.0180
2103.00,0.0179
2102.00,0.0179
2101.00,0.0178
2100.00,0.0177
2099.00,0.0175
2098.00,0.0173
2097.00,0.0172
2096.00,0.0171
2095.00,0.0170
2094.00,0.0170
2093.00,0.0170
2092.00,0.0170
2091.00,0.0170
2090.00,0.0170
2089.00,0.0169
2088.00,0.0169
2087.00,0.0168
2086.00,0.0167
2085.00,0.0167
2084.00,0.0166
2083.00,0.0166
2082.00,0.0165
2081.00,0.0164
2080.00,0.0163
2079.00,0.0162
2078.00,0.0160
2077.00,0.0159
2076.00,0.0158
2075.00,0.0156
2074.00,0.0155
2073.00,0.0153
2072.00,0.0152
2071.00,0.0150
2070.00,0.0149
2069.00,0.0149
2068.00,0.0148
2067.00,0.0147
2066.00,0.0146
2065.00,0.0145
2064.00,0.0144
2063.00,0.0143
2062.00,0.0142
2061.00,0.0141
2060.00,0.0140
2059.00,0.0139
2058.00,0.0139
2057.00,0.0138
2056.00,0.0138
2055.00,0.0138
2054.00,0.0139
2053.00,0.0140
2052.00,0.0140
2051.00,0.0139
2050.00,0.0138
2049.00,0.0137
2048.00,0.0137
2047.00,0.0137
2046.00,0.0137
2045.00,0.0136
2044.00,0.0135
2043.00,0.0133
2042.00,0.0132
2041.00,0.0131
2040.00,0.0131
2039.00,0.0131
2038.00,0.0131
2037.00,0.0130
2036.00,0.0130
2035.00,0.0128
2034.00,0.0128
2033.00,0.0128
2032.00,0.0128
2031.00,0.0128
2030.00,0.0127
2029.00,0.0127
2028.00,0.0125
2027.00,0.0124
2026.00,0.0123
2025.00,0.0123
2024.00,0.0123
2023.00,0.0122
2022.00,0.0122
2021.00,0.0122
2020.00,0.0122
2019.00,0.0121
2018.00,0.0120
2017.00,0.0121
2016.00,0.0122
2015.00,0.0123
2014.00,0.0123
2013.00,0.0124
2012.00,0.0124
2011.00,0.0123
2010.00,0.0121
2009.00,0.0120
2008.00,0.0119
2007.00,0.0119
2006.00,0.0121
2005.00,0.0122
2004.00,0.0123
2003.00,0.0123
2002.00,0.0124
2001.00,0.0125
2000.00,0.0125
1999.00,0.0125
1998.00,0.0126
1997.00,0.0127
1996.00,0.0128
1995.00,0.0128
1994.00,0.0129
1993.00,0.0129
1992.00,0.0128
1991.00,0.0128
1990.00,0.0127
1989.00,0.0128
1988.00,0.0128
1987.00,0.0129
1986.00,0.0129
1985.00,0.0130
1984.00,0.0130
1983.00,0.0130
1982.00,0.0129
1981.00,0.0127
1980.00,0.0124
1979.00,0.0120
1978.00,0.0118
1977.00,0.0118
1976.00,0.0118
1975.00,0.0118
1974.00,0.0117
1973.00,0.0116
1972.00,0.0115
1971.00,0.0113
1970.00,0.0112
1969.00,0.0112
1968.00,0.0111
1967.00,0.0110
1966.00,0.0110
1965.00,0.0110
1964.00,0.0110
1963.00,0.0109
1962.00,0.0108
1961.00,0.0107
1960.00,0.0107
1959.00,0.0107
1958.00,0.0107
1957.00,0.0108
1956.00,0.0107
1955.00,0.0107
1954.00,0.0107
1953.00,0.0107
1952.00,0.0107
1951.00,0.0106
1950.00,0.0106
1949.00,0.0105
1948.00,0.0104
1947.00,0.0103
1946.00,0.0102
1945.00,0.0101
1944.00,0.0100
1943.00,0.0099
1942.00,0.0098
1941.00,0.0098
1940.00,0.0098
1939.00,0.0098
1938.00,0.0098
1937.00,0.0098
1936.00,0.0098
1935.00,0.0097
1934.00,0.0097
1933.00,0.0097
1932.00,0.0097
1931.00,0.0097
1930.00,0.0097
1929.00,0.0097
1928.00,0.0097
1927.00,0.0097
1926.00,0.0096
1925.00,0.0096
1924.00,0.0095
1923.00,0.0095
1922.00,0.0095
1921.00,0.0095
1920.00,0.0095
1919.00,0.0094
1918.00,0.0093
1917.00,0.0093
1916.00,0.0093
1915.00,0.0093
1914.00,0.0093
1913.00,0.0093
1912.00,0.0092
1911.00,0.0091
1910.00,0.0090
1909.00,0.0090
1908.00,0.0089
1907.00,0.0089
1906.00,0.0090
1905.00,0.0090
1904.00,0.0089
1903.00,0.0089
1902.00,0.0089
1901.00,0.0089
1900.00,0.0088
1899.00,0.0087
1898.00,0.0086
1897.00,0.0086
1896.00,0.0085
1895.00,0.0084
1894.00,0.0083
1893.00,0.0083
1892.00,0.0082
1891.00,0.0082
1890.00,0.0082
1889.00,0.0082
1888.00,0.0082
1887.00,0.0082
1886.00,0.0082
1885.00,0.0083
1884.00,0.0082
1883.00,0.0082
1882.00,0.0082
1881.00,0.0082
1880.00,0.0082
1879.00,0.0082
1878.00,0.0081
1877.00,0.0081
1876.00,0.0081
1875.00,0.0080
1874.00,0.0079
1873.00,0.0079
1872.00,0.0079
1871.00,0.0078
1870.00,0.0077
1869.00,0.0077
1868.00,0.0077
1867.00,0.0076
1866.00,0.0076
1865.00,0.0076
1864.00,0.0076
1863.00,0.0076
1862.00,0.0076
1861.00,0.0076
1860.00,0.0076
1859.00,0.0076
1858.00,0.0076
1857.00,0.0076
1856.00,0.0077
1855.00,0.0077
1854.00,0.0077
1853.00,0.0077
1852.00,0.0077
1851.00,0.0078
1850.00,0.0078
1849.00,0.0078
1848.00,0.0078
1847.00,0.0078
1846.00,0.0078
1845.00,0.0078
1844.00,0.0079
1843.00,0.0079
1842.00,0.0079
1841.00,0.0079
1840.00,0.0079
1839.00,0.0079
1838.00,0.0079
1837.00,0.0079
1836.00,0.0079
1835.00,0.0079
1834.00,0.0078
1833.00,0.0078
1832.00,0.0078
1831.00,0.0077
1830.00,0.0076
1829.00,0.0076
1828.00,0.0076
1827.00,0.0076
1826.00,0.0076
1825.00,0.0076
1824.00,0.0076
1823.00,0.0076
1822.00,0.0076
1821.00,0.0076
1820.00,0.0076
1819.00,0.0076
1818.00,0.0076
1817.00,0.0076
1816.00,0.0076
1815.00,0.0076
1814.00,0.0076
1813.00,0.0076
1812.00,0.0076
1811.00,0.0076
1810.00,0.0076
1809.00,0.0076
1808.00,0.0076
1807.00,0.0075
1806.00,0.0075
1805.00,0.0075
1804.00,0.0074
1803.00,0.0074
1802.00,0.0074
1801.00,0.0074
1800.00,0.0074
1799.00,0.0073
1798.00,0.0073
1797.00,0.0073
1796.00,0.0073
1795.00,0.0073
1794.00,0.0073
1793.00,0.0073
1792.00,0.0074
1791.00,0.0074
1790.00,0.0074
1789.00,0.0075
1788.00,0.0076
1787.00,0.0076
1786.00,0.0077
1785.00,0.0077
1784.00,0.0078
1783.00,0.0078
1782.00,0.0078
1781.00,0.0079
1780.00,0.0079
1779.00,0.0079
1778.00,0.0079
1777.00,0.0079
1776.00,0.0080
1775.00,0.0080
1774.00,0.0081
1773.00,0.0081
1772.00,0.0082
1771.00,0.0083
1770.00,0.0084
1769.00,0.0085
1768.00,0.0085
1767.00,0.0085
1766.00,0.0085
1765.00,0.0085
1764.00,0.0085
1763.00,0.0086
1762.00,0.0086
1761.00,0.0086
1760.00,0.0087
1759.00,0.0087
1758.00,0.0087
1757.00,0.0087
1756.00,0.0088
1755.00,0.0088
1754.00,0.0088
1753.00,0.0088
1752.00,0.0088
1751.00,0.0088
1750.00,0.0088
1749.00,0.0088
1748.00,0.0088
1747.00,0.0088
1746.00,0.0088
1745.00,0.0088
1744.00,0.0088
1743.00,0.0088
1742.00,0.0088
1741.00,0.0088
1740.00,0.0088
1739.00,0.0088
1738.00,0.0088
1737.00,0.0088
1736.00,0.0088
1735.00,0.0088
1734.00,0.0089
1733.00,0.0089
1732.00,0.0090
1731.00,0.0089
1730.00,0.0089
1729.00,0.0090
1728.00,0.0090
1727.00,0.0090
1726.00,0.0091
1725.00,0.0091
1724.00,0.0092
1723.00,0.0092
1722.00,0.0092
1721.00,0.0092
1720.00,0.0093
1719.00,0.0093
1718.00,0.0093
1717.00,0.0095
1716.00,0.0097
1715.00,0.0098
1714.00,0.0099
1713.00,0.0100
1712.00,0.0100
1711.00,0.0101
1710.00,0.0101
1709.00,0.0101
1708.00,0.0102
1707.00,0.0102
1706.00,0.0103
1705.00,0.0104
1704.00,0.0104
1703.00,0.0105
1702.00,0.0106
1701.00,0.0107
1700.00,0.0109
1699.00,0.0110
1698.00,0.0111
1697.00,0.0113
1696.00,0.0115
1695.00,0.0118
1694.00,0.0119
1693.00,0.0120
1692.00,0.0121
1691.00,0.0122
1690.00,0.0123
1689.00,0.0125
1688.00,0.0126
1687.00,0.0127
1686.00,0.0128
1685.00,0.0130
1684.00,0.0134
1683.00,0.0138
1682.00,0.0140
1681.00,0.0142
1680.00,0.0143
1679.00,0.0143
1678.00,0.0144
1677.00,0.0145
1676.00,0.0146
1675.00,0.0148
1674.00,0.0149
1673.00,0.0150
1672.00,0.0150
1671.00,0.0151
1670.00,0.0152
1669.00,0.0155
1668.00,0.0158
1667.00,0.0159
1666.00,0.0159
1665.00,0.0159
1664.00,0.0161
1663.00,0.0163
1662.00,0.0166
1661.00,0.0168
1660.00,0.0171
1659.00,0.0172
1658.00,0.0173
1657.00,0.0175
1656.00,0.0176
1655.00,0.0178
1654.00,0.0184
1653.00,0.0195
1652.00,0.0206
1651.00,0.0210
1650.00,0.0211
1649.00,0.0214
1648.00,0.0221
1647.00,0.0233
1646.00,0.0247
1645.00,0.0262
1644.00,0.0274
1643.00,0.0286
1642.00,0.0300
1641.00,0.0317
1640.00,0.0337
1639.00,0.0356
1638.00,0.0380
1637.00,0.0415
1636.00,0.0468
1635.00,0.0532
1634.00,0.0592
1633.00,0.0646
1632.00,0.0699
1631.00,0.0757
1630.00,0.0824
1629.00,0.0900
1628.00,0.0981
1627.00,0.1057
1626.00,0.1122
1625.00,0.1180
1624.00,0.1241
1623.00,0.1301
1622.00,0.1350
1621.00,0.1379
1620.00,0.1392
1619.00,0.1403
1618.00,0.1424
1617.00,0.1462
1616.00,0.1506
1615.00,0.1537
1614.00,0.1549
1613.00,0.1551
1612.00,0.1553
1611.00,0.1555
1610.00,0.1554
1609.00,0.1548
1608.00,0.1536
1607.00,0.1519
1606.00,0.1494
1605.00,0.1464
1604.00,0.1431
1603.00,0.1395
1602.00,0.1358
1601.00,0.1320
1600.00,0.1281
1599.00,0.1244
1598.00,0.1209
1597.00,0.1176
1596.00,0.1147
1595.00,0.1123
1594.00,0.1103
1593.00,0.1086
1592.00,0.1072
1591.00,0.1062
1590.00,0.1057
1589.00,0.1055
1588.00,0.1056
1587.00,0.1061
1586.00,0.1070
1585.00,0.1082
1584.00,0.1096
1583.00,0.1114
1582.00,0.1135
1581.00,0.1156
1580.00,0.1174
1579.00,0.1190
1578.00,0.1212
1577.00,0.1252
1576.00,0.1310
1575.00,0.1365
1574.00,0.1400
1573.00,0.1419
1572.00,0.1436
1571.00,0.1468
1570.00,0.1520
1569.00,0.1580
1568.00,0.1629
1567.00,0.1664
1566.00,0.1696
1565.00,0.1732
1564.00,0.1765
1563.00,0.1785
1562.00,0.1789
1561.00,0.1793
1560.00,0.1835
1559.00,0.1933
1558.00,0.2025
1557.00,0.2058
1556.00,0.2055
1555.00,0.2049
1554.00,0.2048
1553.00,0.2047
1552.00,0.2038
1551.00,0.2026
1550.00,0.2015
1549.00,0.2002
1548.00,0.1981
1547.00,0.1951
1546.00,0.1919
1545.00,0.1889
1544.00,0.1861
1543.00,0.1829
1542.00,0.1796
1541.00,0.1773
1540.00,0.1766
1539.00,0.1759
1538.00,0.1731
1537.00,0.1684
1536.00,0.1630
1535.00,0.1583
1534.00,0.1548
1533.00,0.1523
1532.00,0.1497
1531.00,0.1462
1530.00,0.1422
1529.00,0.1382
1528.00,0.1347
1527.00,0.1317
1526.00,0.1289
1525.00,0.1258
1524.00,0.1226
1523.00,0.1195
1522.00,0.1170
1521.00,0.1153
1520.00,0.1134
1519.00,0.1107
1518.00,0.1078
1517.00,0.1053
1516.00,0.1034
1515.00,0.1013
1514.00,0.0989
1513.00,0.0964
1512.00,0.0942
1511.00,0.0919
1510.00,0.0894
1509.00,0.0870
1508.00,0.0855
1507.00,0.0852
1506.00,0.0854
1505.00,0.0849
1504.00,0.0834
1503.00,0.0815
1502.00,0.0795
1501.00,0.0778
1500.00,0.0766
1499.00,0.0757
1498.00,0.0750
1497.00,0.0746
1496.00,0.0745
1495.00,0.0741
1494.00,0.0731
1493.00,0.0719
1492.00,0.0709
1491.00,0.0702
1490.00,0.0698
1489.00,0.0697
1488.00,0.0695
1487.00,0.0692
1486.00,0.0689
1485.00,0.0688
1484.00,0.0691
1483.00,0.0699
1482.00,0.0716
1481.00,0.0744
1480.00,0.0781
1479.00,0.0824
1478.00,0.0871
1477.00,0.0923
1476.00,0.0970
1475.00,0.1004
1474.00,0.1021
1473.00,0.1020
1472.00,0.1004
1471.00,0.0974
1470.00,0.0936
1469.00,0.0897
1468.00,0.0865
1467.00,0.0843
1466.00,0.0835
1465.00,0.0842
1464.00,0.0856
1463.00,0.0869
1462.00,0.0876
1461.00,0.0881
1460.00,0.0889
1459.00,0.0908
1458.00,0.0947
1457.00,0.1007
1456.00,0.1070
1455.00,0.1118
1454.00,0.1159
1453.00,0.1204
1452.00,0.1258
1451.00,0.1307
1450.00,0.1341
1449.00,0.1353
1448.00,0.1347
1447.00,0.1327
1446.00,0.1301
1445.00,0.1276
1444.00,0.1258
1443.00,0.1247
1442.00,0.1239
1441.00,0.1230
1440.00,0.1216
1439.00,0.1200
1438.00,0.1183
1437.00,0.1172
1436.00,0.1163
1435.00,0.1148
1434.00,0.1124
1433.00,0.1095
1432.00,0.1067
1431.00,0.1042
1430.00,0.1018
1429.00,0.0997
1428.00,0.0979
1427.00,0.0964
1426.00,0.0955
1425.00,0.0955
1424.00,0.0965
1423.00,0.0981
1422.00,0.1000
1421.00,0.1026
1420.00,0.1072
1419.00,0.1139
1418.00,0.1210
1417.00,0.1273
1416.00,0.1331
1415.00,0.1389
1414.00,0.1449
1413.00,0.1509
1412.00,0.1569
1411.00,0.1626
1410.00,0.1676
1409.00,0.1717
1408.00,0.1750
1407.00,0.1778
1406.00,0.1802
1405.00,0.1826
1404.00,0.1847
1403.00,0.1858
1402.00,0.1861
1401.00,0.1860
1400.00,0.1864
1399.00,0.1873
1398.00,0.1879
1397.00,0.1882
1396.00,0.1889
1395.00,0.1904
1394.00,0.1924
1393.00,0.1942
1392.00,0.1957
1391.00,0.1972
1390.00,0.1994
1389.00,0.2030
1388.00,0.2085
1387.00,0.2155
1386.00,0.2229
1385.00,0.2300
1384.00,0.2372
1383.00,0.2447
1382.00,0.2524
1381.00,0.2597
1380.00,0.2661
1379.00,0.2711
1378.00,0.2744
1377.00,0.2757
1376.00,0.2754
1375.00,0.2738
1374.00,0.2707
1373.00,0.2661
1372.00,0.2599
1371.00,0.2523
1370.00,0.2441
1369.00,0.2358
1368.00,0.2277
1367.00,0.2197
1366.00,0.2118
1365.00,0.2042
1364.00,0.1972
1363.00,0.1908
1362.00,0.1849
1361.00,0.1793
1360.00,0.1737
1359.00,0.1681
1358.00,0.1627
1357.00,0.1575
1356.00,0.1525
1355.00,0.1477
1354.00,0.1431
1353.00,0.1388
1352.00,0.1347
1351.00,0.1308
1350.00,0.1270
1349.00,0.1233
1348.00,0.1197
1347.00,0.1162
1346.00,0.1127
1345.00,0.1093
1344.00,0.1061
1343.00,0.1030
1342.00,0.1001
1341.00,0.0974
1340.00,0.0949
1339.00,0.0926
1338.00,0.0904
1337.00,0.0883
1336.00,0.0863
1335.00,0.0844
1334.00,0.0827
1333.00,0.0812
1332.00,0.0799
1331.00,0.0788
1330.00,0.0779
1329.00,0.0773
1328.00,0.0769
1327.00,0.0769
1326.00,0.0774
1325.00,0.0787
1324.00,0.0810
1323.00,0.0844
1322.00,0.0886
1321.00,0.0932
1320.00,0.0969
1319.00,0.0987
1318.00,0.0980
1317.00,0.0948
1316.00,0.0902
1315.00,0.0851
1314.00,0.0802
1313.00,0.0758
1312.00,0.0721
1311.00,0.0690
1310.00,0.0664
1309.00,0.0645
1308.00,0.0631
1307.00,0.0623
1306.00,0.0622
1305.00,0.0628
1304.00,0.0643
1303.00,0.0668
1302.00,0.0710
1301.00,0.0772
1300.00,0.0860
1299.00,0.0975
1298.00,0.1105
1297.00,0.1231
1296.00,0.1330
1295.00,0.1395
1294.00,0.1431
1293.00,0.1451
1292.00,0.1462
1291.00,0.1464
1290.00,0.1455
1289.00,0.1436
1288.00,0.1411
1287.00,0.1379
1286.00,0.1338
1285.00,0.1285
1284.00,0.1221
1283.00,0.1150
1282.00,0.1079
1281.00,0.1014
1280.00,0.0957
1279.00,0.0908
1278.00,0.0867
1277.00,0.0833
1276.00,0.0805
1275.00,0.0782
1274.00,0.0765
1273.00,0.0753
1272.00,0.0745
1271.00,0.0743
1270.00,0.0746
1269.00,0.0755
1268.00,0.0767
1267.00,0.0782
1266.00,0.0796
1265.00,0.0807
1264.00,0.0815
1263.00,0.0822
1262.00,0.0833
1261.00,0.0853
1260.00,0.0885
1259.00,0.0929
1258.00,0.0977
1257.00,0.1021
1256.00,0.1050
1255.00,0.1058
1254.00,0.1044
1253.00,0.1014
1252.00,0.0974
1251.00,0.0930
1250.00,0.0886
1249.00,0.0844
1248.00,0.0807
1247.00,0.0775
1246.00,0.0748
1245.00,0.0727
1244.00,0.0710
1243.00,0.0696
1242.00,0.0684
1241.00,0.0672
1240.00,0.0659
1239.00,0.0646
1238.00,0.0631
1237.00,0.0616
1236.00,0.0600
1235.00,0.0584
1234.00,0.0569
1233.00,0.0555
1232.00,0.0541
1231.00,0.0528
1230.00,0.0517
1229.00,0.0505
1228.00,0.0493
1227.00,0.0482
1226.00,0.0470
1225.00,0.0459
1224.00,0.0447
1223.00,0.0435
1222.00,0.0424
1221.00,0.0414
1220.00,0.0404
1219.00,0.0394
1218.00,0.0386
1217.00,0.0378
1216.00,0.0370
1215.00,0.0364
1214.00,0.0357
1213.00,0.0352
1212.00,0.0346
1211.00,0.0341
1210.00,0.0336
1209.00,0.0331
1208.00,0.0327
1207.00,0.0324
1206.00,0.0320
1205.00,0.0317
1204.00,0.0314
1203.00,0.0312
1202.00,0.0310
1201.00,0.0308
1200.00,0.0306
1199.00,0.0305
1198.00,0.0304
1197.00,0.0304
1196.00,0.0303
1195.00,0.0303
1194.00,0.0304
1193.00,0.0305
1192.00,0.0307
1191.00,0.0309
1190.00,0.0311
1189.00,0.0315
1188.00,0.0319
1187.00,0.0324
1186.00,0.0330
1185.00,0.0338
1184.00,0.0346
1183.00,0.0356
1182.00,0.0368
1181.00,0.0382
1180.00,0.0398
1179.00,0.0419
1178.00,0.0445
1177.00,0.0478
1176.00,0.0520
1175.00,0.0573
1174.00,0.0638
1173.00,0.0707
1172.00,0.0771
1171.00,0.0818
1170.00,0.0840
1169.00,0.0837
1168.00,0.0816
1167.00,0.0788
1166.00,0.0763
1165.00,0.0743
1164.00,0.0725
1163.00,0.0705
1162.00,0.0682
1161.00,0.0656
1160.00,0.0630
1159.00,0.0608
1158.00,0.0589
1157.00,0.0574
1156.00,0.0561
1155.00,0.0551
1154.00,0.0542
1153.00,0.0533
1152.00,0.0526
1151.00,0.0518
1150.00,0.0510
1149.00,0.0501
1148.00,0.0492
1147.00,0.0482
1146.00,0.0472
1145.00,0.0462
1144.00,0.0452
1143.00,0.0443
1142.00,0.0435
1141.00,0.0428
1140.00,0.0421
1139.00,0.0414
1138.00,0.0408
1137.00,0.0400
1136.00,0.0392
1135.00,0.0384
1134.00,0.0377
1133.00,0.0371
1132.00,0.0366
1131.00,0.0361
1130.00,0.0356
1129.00,0.0350
1128.00,0.0344
1127.00,0.0337
1126.00,0.0331
1125.00,0.0325
1124.00,0.0319
1123.00,0.0313
1122.00,0.0307
1121.00,0.0302
1120.00,0.0296
1119.00,0.0290
1118.00,0.0285
1117.00,0.0280
1116.00,0.0275
1115.00,0.0271
1114.00,0.0267
1113.00,0.0263
1112.00,0.0259
1111.00,0.0257
1110.00,0.0255
1109.00,0.0254
1108.00,0.0253
1107.00,0.0254
1106.00,0.0257
1105.00,0.0260
1104.00,0.0264
1103.00,0.0270
1102.00,0.0278
1101.00,0.0287
1100.00,0.0298
1099.00,0.0310
1098.00,0.0324
1097.00,0.0341
1096.00,0.0360
1095.00,0.0384
1094.00,0.0414
1093.00,0.0452
1092.00,0.0496
1091.00,0.0549
1090.00,0.0609
1089.00,0.0670
1088.00,0.0729
1087.00,0.0779
1086.00,0.0810
1085.00,0.0814
1084.00,0.0791
1083.00,0.0746
1082.00,0.0690
1081.00,0.0633
1080.00,0.0581
1079.00,0.0537
1078.00,0.0501
1077.00,0.0473
1076.00,0.0451
1075.00,0.0436
1074.00,0.0426
1073.00,0.0417
1072.00,0.0409
1071.00,0.0401
1070.00,0.0393
1069.00,0.0386
1068.00,0.0379
1067.00,0.0374
1066.00,0.0372
1065.00,0.0373
1064.00,0.0378
1063.00,0.0387
1062.00,0.0400
1061.00,0.0415
1060.00,0.0431
1059.00,0.0447
1058.00,0.0461
1057.00,0.0471
1056.00,0.0477
1055.00,0.0480
1054.00,0.0481
1053.00,0.0480
1052.00,0.0479
1051.00,0.0477
1050.00,0.0475
1049.00,0.0473
1048.00,0.0470
1047.00,0.0471
1046.00,0.0476
1045.00,0.0486
1044.00,0.0505
1043.00,0.0532
1042.00,0.0569
1041.00,0.0615
1040.00,0.0669
1039.00,0.0729
1038.00,0.0793
1037.00,0.0857
1036.00,0.0914
1035.00,0.0955
1034.00,0.0967
1033.00,0.0943
1032.00,0.0888
1031.00,0.0812
1030.00,0.0729
1029.00,0.0647
1028.00,0.0573
1027.00,0.0509
1026.00,0.0455
1025.00,0.0408
1024.00,0.0368
1023.00,0.0335
1022.00,0.0308
1021.00,0.0285
1020.00,0.0266
1019.00,0.0251
1018.00,0.0238
1017.00,0.0227
1016.00,0.0218
1015.00,0.0210
1014.00,0.0204
1013.00,0.0198
1012.00,0.0194
1011.00,0.0190
1010.00,0.0187
1009.00,0.0184
1008.00,0.0182
1007.00,0.0181
1006.00,0.0182
1005.00,0.0182
1004.00,0.0183
1003.00,0.0184
1002.00,0.0187
1001.00,0.0190
1000.00,0.0195
999.00,0.0202
998.00,0.0211
997.00,0.0221
996.00,0.0233
995.00,0.0246
994.00,0.0260
993.00,0.0277
992.00,0.0295
991.00,0.0317
990.00,0.0343
989.00,0.0373
988.00,0.0406
987.00,0.0441
986.00,0.0473
985.00,0.0498
984.00,0.0513
983.00,0.0519
982.00,0.0518
981.00,0.0511
980.00,0.0501
979.00,0.0487
978.00,0.0470
977.00,0.0451
976.00,0.0429
975.00,0.0409
974.00,0.0392
973.00,0.0380
972.00,0.0372
971.00,0.0368
970.00,0.0367
969.00,0.0368
968.00,0.0368
967.00,0.0368
966.00,0.0367
965.00,0.0365
964.00,0.0362
963.00,0.0361
962.00,0.0363
961.00,0.0371
960.00,0.0386
959.00,0.0407
958.00,0.0433
957.00,0.0462
956.00,0.0494
955.00,0.0532
954.00,0.0578
953.00,0.0628
952.00,0.0678
951.00,0.0722
950.00,0.0761
949.00,0.0790
948.00,0.0804
947.00,0.0797
946.00,0.0767
945.00,0.0718
944.00,0.0658
943.00,0.0599
942.00,0.0547
941.00,0.0503
940.00,0.0467
939.00,0.0436
938.00,0.0411
937.00,0.0389
936.00,0.0371
935.00,0.0357
934.00,0.0347
933.00,0.0339
932.00,0.0333
931.00,0.0330
930.00,0.0328
929.00,0.0327
928.00,0.0327
927.00,0.0329
926.00,0.0335
925.00,0.0345
924.00,0.0361
923.00,0.0383
922.00,0.0409
921.00,0.0437
920.00,0.0462
919.00,0.0484
918.00,0.0506
917.00,0.0534
916.00,0.0570
915.00,0.0608
914.00,0.0632
913.00,0.0623
912.00,0.0580
911.00,0.0517
910.00,0.0456
909.00,0.0409
908.00,0.0384
907.00,0.0378
906.00,0.0388
905.00,0.0408
904.00,0.0430
903.00,0.0444
902.00,0.0445
901.00,0.0429
900.00,0.0398
899.00,0.0360
898.00,0.0324
897.00,0.0294
896.00,0.0270
895.00,0.0255
894.00,0.0246
893.00,0.0242
892.00,0.0243
891.00,0.0248
890.00,0.0255
889.00,0.0264
888.00,0.0273
887.00,0.0282
886.00,0.0289
885.00,0.0293
884.00,0.0293
883.00,0.0291
882.00,0.0287
881.00,0.0281
880.00,0.0273
879.00,0.0265
878.00,0.0259
877.00,0.0254
876.00,0.0250
875.00,0.0249
874.00,0.0250
873.00,0.0255
872.00,0.0262
871.00,0.0273
870.00,0.0290
869.00,0.0312
868.00,0.0341
867.00,0.0377
866.00,0.0416
865.00,0.0455
864.00,0.0487
863.00,0.0508
862.00,0.0519
861.00,0.0524
860.00,0.0528
859.00,0.0537
858.00,0.0558
857.00,0.0591
856.00,0.0637
855.00,0.0694
854.00,0.0760
853.00,0.0830
852.00,0.0897
851.00,0.0954
850.00,0.0996
849.00,0.1018
848.00,0.1020
847.00,0.1007
846.00,0.0983
845.00,0.0953
844.00,0.0920
843.00,0.0886
842.00,0.0854
841.00,0.0821
840.00,0.0788
839.00,0.0758
838.00,0.0732
837.00,0.0711
836.00,0.0695
835.00,0.0683
834.00,0.0675
833.00,0.0669
832.00,0.0663
831.00,0.0657
830.00,0.0650
829.00,0.0640
828.00,0.0627
827.00,0.0611
826.00,0.0593
825.00,0.0573
824.00,0.0552
823.00,0.0530
822.00,0.0510
821.00,0.0490
820.00,0.0471
819.00,0.0454
818.00,0.0438
817.00,0.0425
816.00,0.0412
815.00,0.0402
814.00,0.0393
813.00,0.0387
812.00,0.0383
811.00,0.0381
810.00,0.0384
809.00,0.0391
808.00,0.0401
807.00,0.0417
806.00,0.0439
805.00,0.0468
804.00,0.0504
803.00,0.0549
802.00,0.0602
801.00,0.0663
800.00,0.0727
799.00,0.0790
798.00,0.0847
797.00,0.0891
796.00,0.0919
795.00,0.0932
794.00,0.0934
793.00,0.0931
792.00,0.0929
791.00,0.0933
790.00,0.0944
789.00,0.0958
788.00,0.0966
787.00,0.0963
786.00,0.0943
785.00,0.0903
784.00,0.0847
783.00,0.0783
782.00,0.0717
781.00,0.0654
780.00,0.0596
779.00,0.0546
778.00,0.0503
777.00,0.0466
776.00,0.0434
775.00,0.0408
774.00,0.0385
773.00,0.0366
772.00,0.0348
771.00,0.0332
770.00,0.0318
769.00,0.0305
768.00,0.0293
767.00,0.0281
766.00,0.0270
765.00,0.0259
764.00,0.0249
763.00,0.0239
762.00,0.0231
761.00,0.0223
760.00,0.0216
759.00,0.0209
758.00,0.0203
757.00,0.0197
756.00,0.0191
755.00,0.0186
754.00,0.0182
753.00,0.0178
752.00,0.0175
751.00,0.0171
750.00,0.0168
749.00,0.0165
748.00,0.0162
747.00,0.0159
746.00,0.0157
745.00,0.0154
744.00,0.0152
743.00,0.0149
742.00,0.0147
741.00,0.0145
740.00,0.0143
739.00,0.0141
738.00,0.0141
737.00,0.0140
736.00,0.0138
735.00,0.0137
734.00,0.0136
733.00,0.0136
732.00,0.0135
731.00,0.0135
730.00,0.0135
729.00,0.0136
728.00,0.0137
727.00,0.0137
726.00,0.0139
725.00,0.0141
724.00,0.0142
723.00,0.0144
722.00,0.0147
721.00,0.0150
720.00,0.0154
719.00,0.0159
718.00,0.0165
717.00,0.0171
716.00,0.0178
715.00,0.0187
714.00,0.0197
713.00,0.0207
712.00,0.0219
711.00,0.0231
710.00,0.0246
709.00,0.0262
708.00,0.0280
707.00,0.0299
706.00,0.0320
705.00,0.0342
704.00,0.0365
703.00,0.0389
702.00,0.0413
701.00,0.0437
700.00,0.0459
699.00,0.0479
698.00,0.0497
697.00,0.0512
696.00,0.0522
695.00,0.0528
694.00,0.0532
693.00,0.0532
692.00,0.0530
691.00,0.0525
690.00,0.0520
689.00,0.0513
688.00,0.0507
687.00,0.0502
686.00,0.0499
685.00,0.0496
684.00,0.0494
683.00,0.0494
682.00,0.0497
681.00,0.0501
680.00,0.0507
679.00,0.0514
678.00,0.0524
677.00,0.0534
676.00,0.0545
675.00,0.0556
674.00,0.0567
673.00,0.0576
672.00,0.0583
671.00,0.0589
670.00,0.0598
669.00,0.0614
668.00,0.0632
667.00,0.0642
666.00,0.0643
665.00,0.0640
664.00,0.0637
663.00,0.0636
662.00,0.0638
661.00,0.0641
660.00,0.0647
659.00,0.0657
658.00,0.0672
657.00,0.0693
656.00,0.0719
655.00,0.0752
654.00,0.0794
653.00,0.0843
652.00,0.0899
651.00,0.0963
650.00,0.1036
649.00,0.1114
648.00,0.1194
647.00,0.1275
646.00,0.1351
645.00,0.1419
644.00,0.1474
643.00,0.1515
642.00,0.1538
641.00,0.1542
640.00,0.1527
639.00,0.1496
638.00,0.1450
637.00,0.1392
636.00,0.1325
635.00,0.1253
634.00,0.1180
633.00,0.1105
632.00,0.1032
631.00,0.0962
630.00,0.0895
629.00,0.0833
628.00,0.0773
627.00,0.0718
626.00,0.0667
625.00,0.0620
624.00,0.0576
623.00,0.0537
622.00,0.0501
621.00,0.0468
620.00,0.0436
619.00,0.0408
618.00,0.0383
617.00,0.0360
616.00,0.0339
615.00,0.0319
614.00,0.0303
613.00,0.0287
612.00,0.0271
611.00,0.0257
610.00,0.0246
609.00,0.0236
608.00,0.0225
607.00,0.0215
606.00,0.0207
605.00,0.0200
604.00,0.0192
603.00,0.0186
602.00,0.0181
601.00,0.0176
600.00,0.0170
599.00,0.0165
598.00,0.0162
597.00,0.0159
596.00,0.0156
595.00,0.0153
594.00,0.0152
593.00,0.0151
592.00,0.0149
591.00,0.0148
590.00,0.0149
589.00,0.0151
588.00,0.0151
587.00,0.0154
586.00,0.0158
585.00,0.0163
584.00,0.0168
583.00,0.0174
582.00,0.0184
581.00,0.0196
580.00,0.0207
579.00,0.0218
578.00,0.0229
577.00,0.0237
576.00,0.0242
575.00,0.0244
574.00,0.0246
573.00,0.0247
572.00,0.0243
571.00,0.0237
570.00,0.0228
569.00,0.0216
568.00,0.0200
567.00,0.0185
566.00,0.0174
565.00,0.0164
564.00,0.0153
563.00,0.0146
562.00,0.0141
561.00,0.0137
560.00,0.0132
559.00,0.0127
558.00,0.0126
557.00,0.0124
556.00,0.0121
555.00,0.0119
554.00,0.0119
553.00,0.0119
552.00,0.0117
551.00,0.0115
550.00,0.0115
549.00,0.0115
548.00,0.0114
547.00,0.0113
546.00,0.0115
545.00,0.0116
544.00,0.0115
543.00,0.0115
542.00,0.0116
541.00,0.0117
540.00,0.0116
539.00,0.0116
538.00,0.0118
537.00,0.0119
536.00,0.0119
535.00,0.0119
534.00,0.0122
533.00,0.0124
532.00,0.0124
531.00,0.0124
530.00,0.0126
529.00,0.0128
528.00,0.0128
527.00,0.0129
526.00,0.0133
525.00,0.0136
524.00,0.0137
523.00,0.0138
522.00,0.0141
521.00,0.0144
520.00,0.0144
519.00,0.0146
518.00,0.0150
517.00,0.0153
516.00,0.0153
515.00,0.0153
514.00,0.0156
513.00,0.0159
512.00,0.0160
511.00,0.0161
510.00,0.0165
509.00,0.0168
508.00,0.0168
507.00,0.0168
506.00,0.0171
505.00,0.0173
504.00,0.0171
503.00,0.0171
502.00,0.0175
501.00,0.0181
500.00,0.0184
499.00,0.0186
498.00,0.0189
497.00,0.0192
496.00,0.0192
495.00,0.0192
494.00,0.0196
493.00,0.0200
492.00,0.0201
491.00,0.0202
490.00,0.0207
489.00,0.0211
488.00,0.0213
487.00,0.0215
486.00,0.0220
485.00,0.0227
484.00,0.0231
483.00,0.0238
482.00,0.0248
481.00,0.0257
480.00,0.0264
479.00,0.0272
478.00,0.0285
477.00,0.0299
476.00,0.0311
475.00,0.0326
474.00,0.0347
473.00,0.0371
472.00,0.0393
471.00,0.0419
470.00,0.0453
469.00,0.0491
468.00,0.0530
467.00,0.0575
466.00,0.0629
465.00,0.0690
464.00,0.0754
463.00,0.0829
462.00,0.0919
461.00,0.1019
460.00,0.1128
459.00,0.1256
458.00,0.1411
457.00,0.1579
456.00,0.1736
455.00,0.1871
454.00,0.1986
453.00,0.2080
452.00,0.2144
451.00,0.2180
450.00,0.2194
449.00,0.2180
448.00,0.2127
447.00,0.2029
446.00,0.1892
445.00,0.1726
444.00,0.1544
443.00,0.1365
442.00,0.1206
441.00,0.1072
440.00,0.0956
439.00,0.0861
438.00,0.0787
437.00,0.0727
436.00,0.0677
435.00,0.0638
434.00,0.0610
433.00,0.0586
432.00,0.0563
431.00,0.0545
430.00,0.0536
429.00,0.0530
428.00,0.0519
427.00,0.0512
426.00,0.0510
425.00,0.0507
424.00,0.0498
423.00,0.0491
422.00,0.0492
421.00,0.0493
420.00,0.0488
419.00,0.0488
418.00,0.0500
417.00,0.0511
416.00,0.0514
415.00,0.0518
414.00,0.0531
413.00,0.0543
412.00,0.0546
411.00,0.0550
410.00,0.0565
409.00,0.0582
408.00,0.0593
407.00,0.0608
406.00,0.0635
405.00,0.0661
404.00,0.0675
403.00,0.0692
402.00,0.0723
401.00,0.0753
400.00,0.0771
