Created as New Dataset,Sample 228 By YargerLab Date Wednesday, June 12 2024
cm-1,A
4000.00,0.0108
3999.00,0.0108
3998.00,0.0108
3997.00,0.0108
3996.00,0.0108
3995.00,0.0108
3994.00,0.0108
3993.00,0.0108
3992.00,0.0108
3991.00,0.0108
3990.00,0.0108
3989.00,0.0108
3988.00,0.0108
3987.00,0.0108
3986.00,0.0108
3985.00,0.0109
3984.00,0.0109
3983.00,0.0109
3982.00,0.0109
3981.00,0.0109
3980.00,0.0109
3979.00,0.0109
3978.00,0.0109
3977.00,0.0109
3976.00,0.0109
3975.00,0.0109
3974.00,0.0108
3973.00,0.0108
3972.00,0.0108
3971.00,0.0108
3970.00,0.0108
3969.00,0.0108
3968.00,0.0108
3967.00,0.0108
3966.00,0.0108
3965.00,0.0108
3964.00,0.0108
3963.00,0.0108
3962.00,0.0108
3961.00,0.0108
3960.00,0.0108
3959.00,0.0108
3958.00,0.0108
3957.00,0.0108
3956.00,0.0108
3955.00,0.0108
3954.00,0.0108
3953.00,0.0108
3952.00,0.0108
3951.00,0.0108
3950.00,0.0108
3949.00,0.0108
3948.00,0.0108
3947.00,0.0108
3946.00,0.0108
3945.00,0.0108
3944.00,0.0108
3943.00,0.0108
3942.00,0.0108
3941.00,0.0108
3940.00,0.0108
3939.00,0.0108
3938.00,0.0108
3937.00,0.0108
3936.00,0.0108
3935.00,0.0108
3934.00,0.0108
3933.00,0.0108
3932.00,0.0108
3931.00,0.0108
3930.00,0.0108
3929.00,0.0108
3928.00,0.0108
3927.00,0.0108
3926.00,0.0108
3925.00,0.0108
3924.00,0.0107
3923.00,0.0107
3922.00,0.0108
3921.00,0.0108
3920.00,0.0108
3919.00,0.0108
3918.00,0.0108
3917.00,0.0108
3916.00,0.0108
3915.00,0.0107
3914.00,0.0107
3913.00,0.0107
3912.00,0.0107
3911.00,0.0107
3910.00,0.0107
3909.00,0.0107
3908.00,0.0107
3907.00,0.0107
3906.00,0.0107
3905.00,0.0107
3904.00,0.0107
3903.00,0.0107
3902.00,0.0107
3901.00,0.0107
3900.00,0.0107
3899.00,0.0107
3898.00,0.0107
3897.00,0.0107
3896.00,0.0107
3895.00,0.0107
3894.00,0.0107
3893.00,0.0107
3892.00,0.0106
3891.00,0.0106
3890.00,0.0106
3889.00,0.0106
3888.00,0.0106
3887.00,0.0107
3886.00,0.0107
3885.00,0.0107
3884.00,0.0107
3883.00,0.0107
3882.00,0.0107
3881.00,0.0107
3880.00,0.0106
3879.00,0.0106
3878.00,0.0106
3877.00,0.0106
3876.00,0.0106
3875.00,0.0106
3874.00,0.0106
3873.00,0.0106
3872.00,0.0106
3871.00,0.0106
3870.00,0.0106
3869.00,0.0106
3868.00,0.0106
3867.00,0.0107
3866.00,0.0107
3865.00,0.0107
3864.00,0.0106
3863.00,0.0106
3862.00,0.0106
3861.00,0.0106
3860.00,0.0106
3859.00,0.0106
3858.00,0.0106
3857.00,0.0105
3856.00,0.0105
3855.00,0.0105
3854.00,0.0105
3853.00,0.0106
3852.00,0.0106
3851.00,0.0106
3850.00,0.0106
3849.00,0.0106
3848.00,0.0106
3847.00,0.0106
3846.00,0.0106
3845.00,0.0105
3844.00,0.0105
3843.00,0.0105
3842.00,0.0105
3841.00,0.0105
3840.00,0.0105
3839.00,0.0105
3838.00,0.0105
3837.00,0.0105
3836.00,0.0105
3835.00,0.0105
3834.00,0.0105
3833.00,0.0105
3832.00,0.0105
3831.00,0.0105
3830.00,0.0105
3829.00,0.0105
3828.00,0.0105
3827.00,0.0105
3826.00,0.0105
3825.00,0.0104
3824.00,0.0104
3823.00,0.0105
3822.00,0.0105
3821.00,0.0105
3820.00,0.0104
3819.00,0.0104
3818.00,0.0105
3817.00,0.0105
3816.00,0.0105
3815.00,0.0105
3814.00,0.0105
3813.00,0.0104
3812.00,0.0104
3811.00,0.0104
3810.00,0.0104
3809.00,0.0104
3808.00,0.0104
3807.00,0.0104
3806.00,0.0104
3805.00,0.0104
3804.00,0.0104
3803.00,0.0104
3802.00,0.0104
3801.00,0.0104
3800.00,0.0104
3799.00,0.0104
3798.00,0.0104
3797.00,0.0104
3796.00,0.0104
3795.00,0.0104
3794.00,0.0104
3793.00,0.0104
3792.00,0.0103
3791.00,0.0103
3790.00,0.0103
3789.00,0.0103
3788.00,0.0103
3787.00,0.0103
3786.00,0.0103
3785.00,0.0103
3784.00,0.0103
3783.00,0.0103
3782.00,0.0103
3781.00,0.0103
3780.00,0.0103
3779.00,0.0103
3778.00,0.0103
3777.00,0.0103
3776.00,0.0103
3775.00,0.0103
3774.00,0.0103
3773.00,0.0103
3772.00,0.0103
3771.00,0.0103
3770.00,0.0103
3769.00,0.0103
3768.00,0.0103
3767.00,0.0103
3766.00,0.0103
3765.00,0.0103
3764.00,0.0103
3763.00,0.0103
3762.00,0.0103
3761.00,0.0103
3760.00,0.0103
3759.00,0.0102
3758.00,0.0102
3757.00,0.0103
3756.00,0.0103
3755.00,0.0103
3754.00,0.0103
3753.00,0.0103
3752.00,0.0103
3751.00,0.0103
3750.00,0.0103
3749.00,0.0103
3748.00,0.0103
3747.00,0.0103
3746.00,0.0103
3745.00,0.0103
3744.00,0.0103
3743.00,0.0103
3742.00,0.0103
3741.00,0.0103
3740.00,0.0103
3739.00,0.0103
3738.00,0.0103
3737.00,0.0103
3736.00,0.0103
3735.00,0.0103
3734.00,0.0103
3733.00,0.0102
3732.00,0.0102
3731.00,0.0102
3730.00,0.0102
3729.00,0.0102
3728.00,0.0102
3727.00,0.0102
3726.00,0.0102
3725.00,0.0102
3724.00,0.0102
3723.00,0.0102
3722.00,0.0102
3721.00,0.0101
3720.00,0.0101
3719.00,0.0101
3718.00,0.0101
3717.00,0.0101
3716.00,0.0101
3715.00,0.0101
3714.00,0.0101
3713.00,0.0101
3712.00,0.0101
3711.00,0.0101
3710.00,0.0101
3709.00,0.0101
3708.00,0.0101
3707.00,0.0101
3706.00,0.0101
3705.00,0.0101
3704.00,0.0101
3703.00,0.0101
3702.00,0.0101
3701.00,0.0101
3700.00,0.0101
3699.00,0.0101
3698.00,0.0101
3697.00,0.0101
3696.00,0.0100
3695.00,0.0100
3694.00,0.0100
3693.00,0.0101
3692.00,0.0101
3691.00,0.0101
3690.00,0.0101
3689.00,0.0101
3688.00,0.0101
3687.00,0.0101
3686.00,0.0101
3685.00,0.0101
3684.00,0.0101
3683.00,0.0101
3682.00,0.0101
3681.00,0.0101
3680.00,0.0101
3679.00,0.0101
3678.00,0.0102
3677.00,0.0102
3676.00,0.0102
3675.00,0.0102
3674.00,0.0102
3673.00,0.0102
3672.00,0.0103
3671.00,0.0103
3670.00,0.0103
3669.00,0.0103
3668.00,0.0103
3667.00,0.0103
3666.00,0.0103
3665.00,0.0103
3664.00,0.0103
3663.00,0.0103
3662.00,0.0103
3661.00,0.0103
3660.00,0.0103
3659.00,0.0104
3658.00,0.0104
3657.00,0.0104
3656.00,0.0105
3655.00,0.0105
3654.00,0.0105
3653.00,0.0105
3652.00,0.0106
3651.00,0.0106
3650.00,0.0106
3649.00,0.0107
3648.00,0.0107
3647.00,0.0107
3646.00,0.0107
3645.00,0.0107
3644.00,0.0107
3643.00,0.0108
3642.00,0.0108
3641.00,0.0108
3640.00,0.0108
3639.00,0.0108
3638.00,0.0108
3637.00,0.0109
3636.00,0.0109
3635.00,0.0110
3634.00,0.0110
3633.00,0.0110
3632.00,0.0111
3631.00,0.0111
3630.00,0.0112
3629.00,0.0112
3628.00,0.0113
3627.00,0.0113
3626.00,0.0113
3625.00,0.0114
3624.00,0.0114
3623.00,0.0115
3622.00,0.0115
3621.00,0.0115
3620.00,0.0115
3619.00,0.0116
3618.00,0.0116
3617.00,0.0117
3616.00,0.0117
3615.00,0.0118
3614.00,0.0118
3613.00,0.0119
3612.00,0.0119
3611.00,0.0119
3610.00,0.0120
3609.00,0.0120
3608.00,0.0121
3607.00,0.0121
3606.00,0.0121
3605.00,0.0122
3604.00,0.0122
3603.00,0.0122
3602.00,0.0123
3601.00,0.0123
3600.00,0.0124
3599.00,0.0124
3598.00,0.0124
3597.00,0.0125
3596.00,0.0125
3595.00,0.0126
3594.00,0.0126
3593.00,0.0127
3592.00,0.0127
3591.00,0.0127
3590.00,0.0128
3589.00,0.0129
3588.00,0.0129
3587.00,0.0129
3586.00,0.0130
3585.00,0.0130
3584.00,0.0131
3583.00,0.0131
3582.00,0.0132
3581.00,0.0132
3580.00,0.0132
3579.00,0.0133
3578.00,0.0133
3577.00,0.0134
3576.00,0.0134
3575.00,0.0135
3574.00,0.0135
3573.00,0.0136
3572.00,0.0136
3571.00,0.0137
3570.00,0.0138
3569.00,0.0138
3568.00,0.0139
3567.00,0.0140
3566.00,0.0140
3565.00,0.0140
3564.00,0.0141
3563.00,0.0141
3562.00,0.0142
3561.00,0.0142
3560.00,0.0143
3559.00,0.0143
3558.00,0.0143
3557.00,0.0144
3556.00,0.0145
3555.00,0.0145
3554.00,0.0146
3553.00,0.0146
3552.00,0.0146
3551.00,0.0147
3550.00,0.0148
3549.00,0.0148
3548.00,0.0149
3547.00,0.0150
3546.00,0.0150
3545.00,0.0151
3544.00,0.0151
3543.00,0.0151
3542.00,0.0152
3541.00,0.0152
3540.00,0.0153
3539.00,0.0153
3538.00,0.0154
3537.00,0.0154
3536.00,0.0155
3535.00,0.0155
3534.00,0.0156
3533.00,0.0156
3532.00,0.0157
3531.00,0.0158
3530.00,0.0158
3529.00,0.0159
3528.00,0.0159
3527.00,0.0160
3526.00,0.0160
3525.00,0.0161
3524.00,0.0161
3523.00,0.0162
3522.00,0.0162
3521.00,0.0162
3520.00,0.0163
3519.00,0.0163
3518.00,0.0164
3517.00,0.0164
3516.00,0.0165
3515.00,0.0165
3514.00,0.0166
3513.00,0.0166
3512.00,0.0167
3511.00,0.0167
3510.00,0.0168
3509.00,0.0169
3508.00,0.0169
3507.00,0.0170
3506.00,0.0170
3505.00,0.0171
3504.00,0.0172
3503.00,0.0172
3502.00,0.0173
3501.00,0.0173
3500.00,0.0174
3499.00,0.0174
3498.00,0.0175
3497.00,0.0175
3496.00,0.0176
3495.00,0.0176
3494.00,0.0177
3493.00,0.0177
3492.00,0.0178
3491.00,0.0178
3490.00,0.0179
3489.00,0.0180
3488.00,0.0180
3487.00,0.0181
3486.00,0.0182
3485.00,0.0182
3484.00,0.0183
3483.00,0.0183
3482.00,0.0184
3481.00,0.0185
3480.00,0.0185
3479.00,0.0186
3478.00,0.0186
3477.00,0.0187
3476.00,0.0188
3475.00,0.0188
3474.00,0.0189
3473.00,0.0190
3472.00,0.0190
3471.00,0.0191
3470.00,0.0191
3469.00,0.0192
3468.00,0.0193
3467.00,0.0194
3466.00,0.0194
3465.00,0.0195
3464.00,0.0195
3463.00,0.0196
3462.00,0.0197
3461.00,0.0197
3460.00,0.0198
3459.00,0.0199
3458.00,0.0199
3457.00,0.0200
3456.00,0.0201
3455.00,0.0201
3454.00,0.0202
3453.00,0.0203
3452.00,0.0204
3451.00,0.0204
3450.00,0.0205
3449.00,0.0206
3448.00,0.0206
3447.00,0.0207
3446.00,0.0208
3445.00,0.0208
3444.00,0.0209
3443.00,0.0210
3442.00,0.0210
3441.00,0.0211
3440.00,0.0211
3439.00,0.0212
3438.00,0.0213
3437.00,0.0214
3436.00,0.0215
3435.00,0.0216
3434.00,0.0216
3433.00,0.0217
3432.00,0.0218
3431.00,0.0218
3430.00,0.0219
3429.00,0.0220
3428.00,0.0221
3427.00,0.0222
3426.00,0.0222
3425.00,0.0223
3424.00,0.0224
3423.00,0.0225
3422.00,0.0226
3421.00,0.0227
3420.00,0.0227
3419.00,0.0228
3418.00,0.0229
3417.00,0.0230
3416.00,0.0231
3415.00,0.0232
3414.00,0.0232
3413.00,0.0233
3412.00,0.0234
3411.00,0.0235
3410.00,0.0235
3409.00,0.0236
3408.00,0.0237
3407.00,0.0238
3406.00,0.0238
3405.00,0.0239
3404.00,0.0240
3403.00,0.0241
3402.00,0.0242
3401.00,0.0242
3400.00,0.0243
3399.00,0.0244
3398.00,0.0245
3397.00,0.0246
3396.00,0.0246
3395.00,0.0247
3394.00,0.0248
3393.00,0.0249
3392.00,0.0249
3391.00,0.0250
3390.00,0.0251
3389.00,0.0252
3388.00,0.0253
3387.00,0.0254
3386.00,0.0254
3385.00,0.0255
3384.00,0.0256
3383.00,0.0257
3382.00,0.0258
3381.00,0.0259
3380.00,0.0260
3379.00,0.0261
3378.00,0.0262
3377.00,0.0263
3376.00,0.0264
3375.00,0.0265
3374.00,0.0266
3373.00,0.0267
3372.00,0.0268
3371.00,0.0269
3370.00,0.0270
3369.00,0.0271
3368.00,0.0272
3367.00,0.0274
3366.00,0.0275
3365.00,0.0277
3364.00,0.0278
3363.00,0.0279
3362.00,0.0281
3361.00,0.0282
3360.00,0.0283
3359.00,0.0285
3358.00,0.0286
3357.00,0.0288
3356.00,0.0289
3355.00,0.0291
3354.00,0.0292
3353.00,0.0294
3352.00,0.0295
3351.00,0.0297
3350.00,0.0298
3349.00,0.0300
3348.00,0.0302
3347.00,0.0304
3346.00,0.0305
3345.00,0.0307
3344.00,0.0309
3343.00,0.0310
3342.00,0.0312
3341.00,0.0314
3340.00,0.0315
3339.00,0.0317
3338.00,0.0319
3337.00,0.0322
3336.00,0.0324
3335.00,0.0326
3334.00,0.0328
3333.00,0.0331
3332.00,0.0333
3331.00,0.0335
3330.00,0.0337
3329.00,0.0339
3328.00,0.0341
3327.00,0.0343
3326.00,0.0346
3325.00,0.0348
3324.00,0.0351
3323.00,0.0353
3322.00,0.0356
3321.00,0.0358
3320.00,0.0361
3319.00,0.0363
3318.00,0.0366
3317.00,0.0368
3316.00,0.0371
3315.00,0.0374
3314.00,0.0376
3313.00,0.0379
3312.00,0.0381
3311.00,0.0384
3310.00,0.0386
3309.00,0.0389
3308.00,0.0391
3307.00,0.0394
3306.00,0.0398
3305.00,0.0401
3304.00,0.0405
3303.00,0.0408
3302.00,0.0412
3301.00,0.0415
3300.00,0.0418
3299.00,0.0421
3298.00,0.0424
3297.00,0.0427
3296.00,0.0430
3295.00,0.0433
3294.00,0.0436
3293.00,0.0440
3292.00,0.0443
3291.00,0.0447
3290.00,0.0450
3289.00,0.0454
3288.00,0.0457
3287.00,0.0460
3286.00,0.0463
3285.00,0.0466
3284.00,0.0469
3283.00,0.0471
3282.00,0.0474
3281.00,0.0476
3280.00,0.0478
3279.00,0.0480
3278.00,0.0481
3277.00,0.0482
3276.00,0.0483
3275.00,0.0484
3274.00,0.0484
3273.00,0.0484
3272.00,0.0484
3271.00,0.0483
3270.00,0.0483
3269.00,0.0483
3268.00,0.0482
3267.00,0.0481
3266.00,0.0479
3265.00,0.0477
3264.00,0.0475
3263.00,0.0473
3262.00,0.0470
3261.00,0.0467
3260.00,0.0465
3259.00,0.0462
3258.00,0.0459
3257.00,0.0456
3256.00,0.0453
3255.00,0.0450
3254.00,0.0448
3253.00,0.0445
3252.00,0.0443
3251.00,0.0440
3250.00,0.0437
3249.00,0.0434
3248.00,0.0431
3247.00,0.0429
3246.00,0.0426
3245.00,0.0425
3244.00,0.0423
3243.00,0.0421
3242.00,0.0419
3241.00,0.0417
3240.00,0.0415
3239.00,0.0413
3238.00,0.0410
3237.00,0.0408
3236.00,0.0406
3235.00,0.0404
3234.00,0.0402
3233.00,0.0401
3232.00,0.0400
3231.00,0.0399
3230.00,0.0398
3229.00,0.0396
3228.00,0.0395
3227.00,0.0394
3226.00,0.0392
3225.00,0.0391
3224.00,0.0390
3223.00,0.0389
3222.00,0.0388
3221.00,0.0386
3220.00,0.0385
3219.00,0.0384
3218.00,0.0383
3217.00,0.0382
3216.00,0.0381
3215.00,0.0380
3214.00,0.0379
3213.00,0.0378
3212.00,0.0377
3211.00,0.0376
3210.00,0.0375
3209.00,0.0374
3208.00,0.0373
3207.00,0.0372
3206.00,0.0371
3205.00,0.0370
3204.00,0.0370
3203.00,0.0369
3202.00,0.0368
3201.00,0.0367
3200.00,0.0366
3199.00,0.0365
3198.00,0.0364
3197.00,0.0363
3196.00,0.0362
3195.00,0.0361
3194.00,0.0360
3193.00,0.0358
3192.00,0.0357
3191.00,0.0356
3190.00,0.0355
3189.00,0.0354
3188.00,0.0352
3187.00,0.0351
3186.00,0.0350
3185.00,0.0349
3184.00,0.0348
3183.00,0.0347
3182.00,0.0346
3181.00,0.0345
3180.00,0.0343
3179.00,0.0342
3178.00,0.0341
3177.00,0.0340
3176.00,0.0339
3175.00,0.0337
3174.00,0.0336
3173.00,0.0335
3172.00,0.0334
3171.00,0.0332
3170.00,0.0331
3169.00,0.0330
3168.00,0.0329
3167.00,0.0328
3166.00,0.0326
3165.00,0.0325
3164.00,0.0324
3163.00,0.0323
3162.00,0.0322
3161.00,0.0321
3160.00,0.0319
3159.00,0.0318
3158.00,0.0317
3157.00,0.0316
3156.00,0.0315
3155.00,0.0314
3154.00,0.0313
3153.00,0.0312
3152.00,0.0311
3151.00,0.0310
3150.00,0.0309
3149.00,0.0308
3148.00,0.0307
3147.00,0.0307
3146.00,0.0306
3145.00,0.0305
3144.00,0.0304
3143.00,0.0303
3142.00,0.0302
3141.00,0.0301
3140.00,0.0300
3139.00,0.0299
3138.00,0.0298
3137.00,0.0298
3136.00,0.0297
3135.00,0.0297
3134.00,0.0296
3133.00,0.0296
3132.00,0.0295
3131.00,0.0294
3130.00,0.0294
3129.00,0.0293
3128.00,0.0293
3127.00,0.0293
3126.00,0.0292
3125.00,0.0291
3124.00,0.0291
3123.00,0.0290
3122.00,0.0289
3121.00,0.0289
3120.00,0.0288
3119.00,0.0288
3118.00,0.0288
3117.00,0.0288
3116.00,0.0289
3115.00,0.0289
3114.00,0.0289
3113.00,0.0289
3112.00,0.0290
3111.00,0.0289
3110.00,0.0289
3109.00,0.0289
3108.00,0.0290
3107.00,0.0290
3106.00,0.0291
3105.00,0.0291
3104.00,0.0292
3103.00,0.0292
3102.00,0.0292
3101.00,0.0292
3100.00,0.0293
3099.00,0.0293
3098.00,0.0294
3097.00,0.0295
3096.00,0.0295
3095.00,0.0296
3094.00,0.0296
3093.00,0.0297
3092.00,0.0297
3091.00,0.0297
3090.00,0.0298
3089.00,0.0299
3088.00,0.0299
3087.00,0.0299
3086.00,0.0300
3085.00,0.0300
3084.00,0.0300
3083.00,0.0301
3082.00,0.0301
3081.00,0.0302
3080.00,0.0302
3079.00,0.0303
3078.00,0.0303
3077.00,0.0304
3076.00,0.0305
3075.00,0.0306
3074.00,0.0307
3073.00,0.0307
3072.00,0.0307
3071.00,0.0307
3070.00,0.0307
3069.00,0.0307
3068.00,0.0306
3067.00,0.0306
3066.00,0.0307
3065.00,0.0307
3064.00,0.0307
3063.00,0.0307
3062.00,0.0307
3061.00,0.0306
3060.00,0.0306
3059.00,0.0305
3058.00,0.0304
3057.00,0.0303
3056.00,0.0303
3055.00,0.0302
3054.00,0.0301
3053.00,0.0301
3052.00,0.0300
3051.00,0.0299
3050.00,0.0298
3049.00,0.0298
3048.00,0.0297
3047.00,0.0296
3046.00,0.0294
3045.00,0.0293
3044.00,0.0292
3043.00,0.0291
3042.00,0.0290
3041.00,0.0289
3040.00,0.0289
3039.00,0.0288
3038.00,0.0287
3037.00,0.0286
3036.00,0.0285
3035.00,0.0284
3034.00,0.0283
3033.00,0.0282
3032.00,0.0282
3031.00,0.0281
3030.00,0.0280
3029.00,0.0280
3028.00,0.0279
3027.00,0.0278
3026.00,0.0277
3025.00,0.0276
3024.00,0.0275
3023.00,0.0274
3022.00,0.0273
3021.00,0.0272
3020.00,0.0271
3019.00,0.0270
3018.00,0.0269
3017.00,0.0268
3016.00,0.0267
3015.00,0.0266
3014.00,0.0265
3013.00,0.0265
3012.00,0.0265
3011.00,0.0264
3010.00,0.0264
3009.00,0.0265
3008.00,0.0264
3007.00,0.0264
3006.00,0.0264
3005.00,0.0264
3004.00,0.0263
3003.00,0.0263
3002.00,0.0263
3001.00,0.0263
3000.00,0.0263
2999.00,0.0263
2998.00,0.0263
2997.00,0.0264
2996.00,0.0264
2995.00,0.0264
2994.00,0.0265
2993.00,0.0266
2992.00,0.0266
2991.00,0.0268
2990.00,0.0269
2989.00,0.0270
2988.00,0.0271
2987.00,0.0272
2986.00,0.0273
2985.00,0.0274
2984.00,0.0275
2983.00,0.0275
2982.00,0.0276
2981.00,0.0277
2980.00,0.0278
2979.00,0.0278
2978.00,0.0279
2977.00,0.0280
2976.00,0.0281
2975.00,0.0282
2974.00,0.0283
2973.00,0.0284
2972.00,0.0286
2971.00,0.0287
2970.00,0.0288
2969.00,0.0289
2968.00,0.0289
2967.00,0.0290
2966.00,0.0291
2965.00,0.0291
2964.00,0.0291
2963.00,0.0292
2962.00,0.0292
2961.00,0.0292
2960.00,0.0293
2959.00,0.0293
2958.00,0.0294
2957.00,0.0294
2956.00,0.0294
2955.00,0.0294
2954.00,0.0294
2953.00,0.0293
2952.00,0.0293
2951.00,0.0293
2950.00,0.0292
2949.00,0.0292
2948.00,0.0292
2947.00,0.0293
2946.00,0.0294
2945.00,0.0295
2944.00,0.0297
2943.00,0.0299
2942.00,0.0302
2941.00,0.0304
2940.00,0.0307
2939.00,0.0310
2938.00,0.0314
2937.00,0.0317
2936.00,0.0321
2935.00,0.0325
2934.00,0.0328
2933.00,0.0332
2932.00,0.0336
2931.00,0.0340
2930.00,0.0343
2929.00,0.0347
2928.00,0.0351
2927.00,0.0355
2926.00,0.0358
2925.00,0.0361
2924.00,0.0364
2923.00,0.0367
2922.00,0.0369
2921.00,0.0371
2920.00,0.0372
2919.00,0.0372
2918.00,0.0371
2917.00,0.0368
2916.00,0.0363
2915.00,0.0357
2914.00,0.0350
2913.00,0.0342
2912.00,0.0334
2911.00,0.0327
2910.00,0.0320
2909.00,0.0315
2908.00,0.0310
2907.00,0.0306
2906.00,0.0303
2905.00,0.0300
2904.00,0.0297
2903.00,0.0295
2902.00,0.0293
2901.00,0.0291
2900.00,0.0289
2899.00,0.0287
2898.00,0.0285
2897.00,0.0283
2896.00,0.0281
2895.00,0.0280
2894.00,0.0278
2893.00,0.0277
2892.00,0.0276
2891.00,0.0274
2890.00,0.0273
2889.00,0.0272
2888.00,0.0270
2887.00,0.0269
2886.00,0.0268
2885.00,0.0267
2884.00,0.0267
2883.00,0.0266
2882.00,0.0266
2881.00,0.0266
2880.00,0.0266
2879.00,0.0266
2878.00,0.0266
2877.00,0.0266
2876.00,0.0266
2875.00,0.0266
2874.00,0.0267
2873.00,0.0267
2872.00,0.0267
2871.00,0.0267
2870.00,0.0266
2869.00,0.0266
2868.00,0.0265
2867.00,0.0264
2866.00,0.0264
2865.00,0.0264
2864.00,0.0264
2863.00,0.0265
2862.00,0.0266
2861.00,0.0267
2860.00,0.0269
2859.00,0.0271
2858.00,0.0274
2857.00,0.0277
2856.00,0.0280
2855.00,0.0284
2854.00,0.0288
2853.00,0.0292
2852.00,0.0295
2851.00,0.0297
2850.00,0.0297
2849.00,0.0295
2848.00,0.0290
2847.00,0.0283
2846.00,0.0276
2845.00,0.0269
2844.00,0.0262
2843.00,0.0257
2842.00,0.0252
2841.00,0.0248
2840.00,0.0244
2839.00,0.0242
2838.00,0.0239
2837.00,0.0238
2836.00,0.0236
2835.00,0.0235
2834.00,0.0233
2833.00,0.0232
2832.00,0.0231
2831.00,0.0231
2830.00,0.0230
2829.00,0.0229
2828.00,0.0228
2827.00,0.0228
2826.00,0.0227
2825.00,0.0226
2824.00,0.0226
2823.00,0.0226
2822.00,0.0225
2821.00,0.0225
2820.00,0.0224
2819.00,0.0224
2818.00,0.0223
2817.00,0.0223
2816.00,0.0222
2815.00,0.0222
2814.00,0.0221
2813.00,0.0221
2812.00,0.0221
2811.00,0.0220
2810.00,0.0220
2809.00,0.0219
2808.00,0.0219
2807.00,0.0219
2806.00,0.0218
2805.00,0.0218
2804.00,0.0218
2803.00,0.0217
2802.00,0.0217
2801.00,0.0216
2800.00,0.0216
2799.00,0.0215
2798.00,0.0215
2797.00,0.0215
2796.00,0.0214
2795.00,0.0214
2794.00,0.0214
2793.00,0.0213
2792.00,0.0213
2791.00,0.0213
2790.00,0.0212
2789.00,0.0212
2788.00,0.0212
2787.00,0.0212
2786.00,0.0211
2785.00,0.0211
2784.00,0.0211
2783.00,0.0210
2782.00,0.0210
2781.00,0.0210
2780.00,0.0209
2779.00,0.0209
2778.00,0.0209
2777.00,0.0208
2776.00,0.0208
2775.00,0.0207
2774.00,0.0207
2773.00,0.0207
2772.00,0.0207
2771.00,0.0206
2770.00,0.0206
2769.00,0.0206
2768.00,0.0205
2767.00,0.0205
2766.00,0.0205
2765.00,0.0205
2764.00,0.0204
2763.00,0.0204
2762.00,0.0204
2761.00,0.0203
2760.00,0.0203
2759.00,0.0203
2758.00,0.0202
2757.00,0.0202
2756.00,0.0202
2755.00,0.0201
2754.00,0.0201
2753.00,0.0201
2752.00,0.0200
2751.00,0.0200
2750.00,0.0199
2749.00,0.0199
2748.00,0.0199
2747.00,0.0199
2746.00,0.0198
2745.00,0.0198
2744.00,0.0198
2743.00,0.0197
2742.00,0.0197
2741.00,0.0197
2740.00,0.0196
2739.00,0.0196
2738.00,0.0196
2737.00,0.0195
2736.00,0.0195
2735.00,0.0195
2734.00,0.0194
2733.00,0.0194
2732.00,0.0194
2731.00,0.0194
2730.00,0.0193
2729.00,0.0193
2728.00,0.0192
2727.00,0.0192
2726.00,0.0191
2725.00,0.0191
2724.00,0.0191
2723.00,0.0191
2722.00,0.0191
2721.00,0.0190
2720.00,0.0190
2719.00,0.0189
2718.00,0.0189
2717.00,0.0189
2716.00,0.0188
2715.00,0.0188
2714.00,0.0188
2713.00,0.0187
2712.00,0.0187
2711.00,0.0187
2710.00,0.0186
2709.00,0.0186
2708.00,0.0186
2707.00,0.0186
2706.00,0.0185
2705.00,0.0185
2704.00,0.0185
2703.00,0.0185
2702.00,0.0184
2701.00,0.0184
2700.00,0.0184
2699.00,0.0184
2698.00,0.0183
2697.00,0.0183
2696.00,0.0183
2695.00,0.0183
2694.00,0.0183
2693.00,0.0182
2692.00,0.0182
2691.00,0.0182
2690.00,0.0182
2689.00,0.0182
2688.00,0.0181
2687.00,0.0181
2686.00,0.0181
2685.00,0.0181
2684.00,0.0181
2683.00,0.0180
2682.00,0.0180
2681.00,0.0180
2680.00,0.0180
2679.00,0.0180
2678.00,0.0179
2677.00,0.0179
2676.00,0.0179
2675.00,0.0179
2674.00,0.0179
2673.00,0.0179
2672.00,0.0178
2671.00,0.0178
2670.00,0.0178
2669.00,0.0178
2668.00,0.0178
2667.00,0.0178
2666.00,0.0178
2665.00,0.0178
2664.00,0.0178
2663.00,0.0177
2662.00,0.0177
2661.00,0.0177
2660.00,0.0177
2659.00,0.0177
2658.00,0.0177
2657.00,0.0176
2656.00,0.0176
2655.00,0.0176
2654.00,0.0176
2653.00,0.0176
2652.00,0.0176
2651.00,0.0175
2650.00,0.0175
2649.00,0.0175
2648.00,0.0175
2647.00,0.0175
2646.00,0.0175
2645.00,0.0175
2644.00,0.0175
2643.00,0.0174
2642.00,0.0174
2641.00,0.0174
2640.00,0.0174
2639.00,0.0174
2638.00,0.0173
2637.00,0.0173
2636.00,0.0173
2635.00,0.0173
2634.00,0.0173
2633.00,0.0173
2632.00,0.0173
2631.00,0.0173
2630.00,0.0173
2629.00,0.0173
2628.00,0.0173
2627.00,0.0173
2626.00,0.0172
2625.00,0.0172
2624.00,0.0172
2623.00,0.0172
2622.00,0.0172
2621.00,0.0172
2620.00,0.0172
2619.00,0.0171
2618.00,0.0171
2617.00,0.0171
2616.00,0.0171
2615.00,0.0171
2614.00,0.0171
2613.00,0.0170
2612.00,0.0170
2611.00,0.0170
2610.00,0.0170
2609.00,0.0170
2608.00,0.0170
2607.00,0.0170
2606.00,0.0169
2605.00,0.0169
2604.00,0.0169
2603.00,0.0169
2602.00,0.0169
2601.00,0.0168
2600.00,0.0168
2599.00,0.0168
2598.00,0.0168
2597.00,0.0168
2596.00,0.0168
2595.00,0.0167
2594.00,0.0167
2593.00,0.0167
2592.00,0.0166
2591.00,0.0166
2590.00,0.0166
2589.00,0.0166
2588.00,0.0166
2587.00,0.0166
2586.00,0.0165
2585.00,0.0165
2584.00,0.0165
2583.00,0.0165
2582.00,0.0165
2581.00,0.0164
2580.00,0.0164
2579.00,0.0164
2578.00,0.0164
2577.00,0.0164
2576.00,0.0164
2575.00,0.0164
2574.00,0.0164
2573.00,0.0163
2572.00,0.0163
2571.00,0.0163
2570.00,0.0162
2569.00,0.0162
2568.00,0.0163
2567.00,0.0163
2566.00,0.0163
2565.00,0.0162
2564.00,0.0162
2563.00,0.0162
2562.00,0.0162
2561.00,0.0161
2560.00,0.0161
2559.00,0.0161
2558.00,0.0161
2557.00,0.0161
2556.00,0.0160
2555.00,0.0160
2554.00,0.0160
2553.00,0.0160
2552.00,0.0160
2551.00,0.0160
2550.00,0.0160
2549.00,0.0159
2548.00,0.0159
2547.00,0.0159
2546.00,0.0159
2545.00,0.0159
2544.00,0.0159
2543.00,0.0159
2542.00,0.0159
2541.00,0.0159
2540.00,0.0159
2539.00,0.0158
2538.00,0.0158
2537.00,0.0158
2536.00,0.0158
2535.00,0.0158
2534.00,0.0158
2533.00,0.0158
2532.00,0.0157
2531.00,0.0157
2530.00,0.0157
2529.00,0.0157
2528.00,0.0157
2527.00,0.0157
2526.00,0.0157
2525.00,0.0157
2524.00,0.0157
2523.00,0.0157
2522.00,0.0157
2521.00,0.0157
2520.00,0.0156
2519.00,0.0156
2518.00,0.0156
2517.00,0.0156
2516.00,0.0156
2515.00,0.0156
2514.00,0.0155
2513.00,0.0155
2512.00,0.0155
2511.00,0.0155
2510.00,0.0155
2509.00,0.0155
2508.00,0.0155
2507.00,0.0155
2506.00,0.0155
2505.00,0.0155
2504.00,0.0155
2503.00,0.0155
2502.00,0.0154
2501.00,0.0154
2500.00,0.0154
2499.00,0.0154
2498.00,0.0154
2497.00,0.0154
2496.00,0.0154
2495.00,0.0154
2494.00,0.0153
2493.00,0.0153
2492.00,0.0153
2491.00,0.0153
2490.00,0.0153
2489.00,0.0153
2488.00,0.0153
2487.00,0.0153
2486.00,0.0152
2485.00,0.0152
2484.00,0.0152
2483.00,0.0152
2482.00,0.0152
2481.00,0.0151
2480.00,0.0151
2479.00,0.0151
2478.00,0.0151
2477.00,0.0151
2476.00,0.0151
2475.00,0.0151
2474.00,0.0150
2473.00,0.0150
2472.00,0.0150
2471.00,0.0150
2470.00,0.0150
2469.00,0.0150
2468.00,0.0150
2467.00,0.0150
2466.00,0.0150
2465.00,0.0149
2464.00,0.0149
2463.00,0.0149
2462.00,0.0149
2461.00,0.0149
2460.00,0.0149
2459.00,0.0149
2458.00,0.0148
2457.00,0.0148
2456.00,0.0148
2455.00,0.0147
2454.00,0.0147
2453.00,0.0147
2452.00,0.0147
2451.00,0.0147
2450.00,0.0147
2449.00,0.0147
2448.00,0.0147
2447.00,0.0147
2446.00,0.0147
2445.00,0.0146
2444.00,0.0146
2443.00,0.0146
2442.00,0.0146
2441.00,0.0146
2440.00,0.0146
2439.00,0.0146
2438.00,0.0146
2437.00,0.0145
2436.00,0.0145
2435.00,0.0145
2434.00,0.0145
2433.00,0.0145
2432.00,0.0145
2431.00,0.0145
2430.00,0.0144
2429.00,0.0144
2428.00,0.0144
2427.00,0.0144
2426.00,0.0144
2425.00,0.0144
2424.00,0.0144
2423.00,0.0143
2422.00,0.0143
2421.00,0.0143
2420.00,0.0143
2419.00,0.0143
2418.00,0.0143
2417.00,0.0143
2416.00,0.0143
2415.00,0.0143
2414.00,0.0143
2413.00,0.0143
2412.00,0.0142
2411.00,0.0142
2410.00,0.0142
2409.00,0.0141
2408.00,0.0141
2407.00,0.0141
2406.00,0.0141
2405.00,0.0141
2404.00,0.0141
2403.00,0.0140
2402.00,0.0140
2401.00,0.0140
2400.00,0.0140
2399.00,0.0139
2398.00,0.0139
2397.00,0.0139
2396.00,0.0139
2395.00,0.0139
2394.00,0.0140
2393.00,0.0140
2392.00,0.0139
2391.00,0.0139
2390.00,0.0139
2389.00,0.0139
2388.00,0.0138
2387.00,0.0138
2386.00,0.0138
2385.00,0.0138
2384.00,0.0138
2383.00,0.0138
2382.00,0.0137
2381.00,0.0137
2380.00,0.0137
2379.00,0.0137
2378.00,0.0137
2377.00,0.0137
2376.00,0.0137
2375.00,0.0136
2374.00,0.0136
2373.00,0.0136
2372.00,0.0136
2371.00,0.0136
2370.00,0.0135
2369.00,0.0135
2368.00,0.0135
2367.00,0.0135
2366.00,0.0135
2365.00,0.0135
2364.00,0.0135
2363.00,0.0135
2362.00,0.0135
2361.00,0.0135
2360.00,0.0135
2359.00,0.0135
2358.00,0.0135
2357.00,0.0135
2356.00,0.0134
2355.00,0.0134
2354.00,0.0134
2353.00,0.0134
2352.00,0.0134
2351.00,0.0134
2350.00,0.0134
2349.00,0.0134
2348.00,0.0134
2347.00,0.0134
2346.00,0.0133
2345.00,0.0133
2344.00,0.0133
2343.00,0.0133
2342.00,0.0133
2341.00,0.0133
2340.00,0.0133
2339.00,0.0133
2338.00,0.0132
2337.00,0.0132
2336.00,0.0132
2335.00,0.0133
2334.00,0.0133
2333.00,0.0132
2332.00,0.0132
2331.00,0.0132
2330.00,0.0132
2329.00,0.0132
2328.00,0.0133
2327.00,0.0133
2326.00,0.0133
2325.00,0.0132
2324.00,0.0132
2323.00,0.0131
2322.00,0.0131
2321.00,0.0130
2320.00,0.0130
2319.00,0.0130
2318.00,0.0130
2317.00,0.0130
2316.00,0.0130
2315.00,0.0130
2314.00,0.0130
2313.00,0.0130
2312.00,0.0130
2311.00,0.0130
2310.00,0.0130
2309.00,0.0130
2308.00,0.0130
2307.00,0.0129
2306.00,0.0129
2305.00,0.0129
2304.00,0.0129
2303.00,0.0129
2302.00,0.0129
2301.00,0.0129
2300.00,0.0129
2299.00,0.0129
2298.00,0.0129
2297.00,0.0128
2296.00,0.0128
2295.00,0.0129
2294.00,0.0129
2293.00,0.0129
2292.00,0.0129
2291.00,0.0129
2290.00,0.0129
2289.00,0.0129
2288.00,0.0128
2287.00,0.0128
2286.00,0.0128
2285.00,0.0128
2284.00,0.0128
2283.00,0.0128
2282.00,0.0128
2281.00,0.0127
2280.00,0.0127
2279.00,0.0127
2278.00,0.0127
2277.00,0.0127
2276.00,0.0127
2275.00,0.0127
2274.00,0.0126
2273.00,0.0126
2272.00,0.0126
2271.00,0.0126
2270.00,0.0126
2269.00,0.0126
2268.00,0.0126
2267.00,0.0126
2266.00,0.0126
2265.00,0.0126
2264.00,0.0126
2263.00,0.0126
2262.00,0.0126
2261.00,0.0126
2260.00,0.0126
2259.00,0.0125
2258.00,0.0124
2257.00,0.0124
2256.00,0.0124
2255.00,0.0123
2254.00,0.0123
2253.00,0.0123
2252.00,0.0123
2251.00,0.0123
2250.00,0.0123
2249.00,0.0124
2248.00,0.0124
2247.00,0.0124
2246.00,0.0123
2245.00,0.0123
2244.00,0.0123
2243.00,0.0123
2242.00,0.0123
2241.00,0.0123
2240.00,0.0123
2239.00,0.0123
2238.00,0.0123
2237.00,0.0123
2236.00,0.0123
2235.00,0.0123
2234.00,0.0123
2233.00,0.0123
2232.00,0.0123
2231.00,0.0123
2230.00,0.0123
2229.00,0.0123
2228.00,0.0123
2227.00,0.0122
2226.00,0.0121
2225.00,0.0121
2224.00,0.0121
2223.00,0.0121
2222.00,0.0121
2221.00,0.0121
2220.00,0.0121
2219.00,0.0121
2218.00,0.0121
2217.00,0.0121
2216.00,0.0122
2215.00,0.0121
2214.00,0.0121
2213.00,0.0121
2212.00,0.0122
2211.00,0.0122
2210.00,0.0121
2209.00,0.0121
2208.00,0.0120
2207.00,0.0121
2206.00,0.0121
2205.00,0.0121
2204.00,0.0120
2203.00,0.0120
2202.00,0.0120
2201.00,0.0121
2200.00,0.0121
2199.00,0.0121
2198.00,0.0120
2197.00,0.0120
2196.00,0.0120
2195.00,0.0120
2194.00,0.0120
2193.00,0.0120
2192.00,0.0120
2191.00,0.0120
2190.00,0.0120
2189.00,0.0120
2188.00,0.0121
2187.00,0.0121
2186.00,0.0121
2185.00,0.0120
2184.00,0.0120
2183.00,0.0119
2182.00,0.0118
2181.00,0.0118
2180.00,0.0119
2179.00,0.0119
2178.00,0.0118
2177.00,0.0118
2176.00,0.0118
2175.00,0.0117
2174.00,0.0118
2173.00,0.0119
2172.00,0.0120
2171.00,0.0121
2170.00,0.0121
2169.00,0.0121
2168.00,0.0120
2167.00,0.0119
2166.00,0.0119
2165.00,0.0118
2164.00,0.0117
2163.00,0.0116
2162.00,0.0113
2161.00,0.0111
2160.00,0.0111
2159.00,0.0112
2158.00,0.0113
2157.00,0.0114
2156.00,0.0115
2155.00,0.0114
2154.00,0.0114
2153.00,0.0113
2152.00,0.0114
2151.00,0.0114
2150.00,0.0114
2149.00,0.0114
2148.00,0.0114
2147.00,0.0114
2146.00,0.0114
2145.00,0.0114
2144.00,0.0115
2143.00,0.0116
2142.00,0.0116
2141.00,0.0116
2140.00,0.0116
2139.00,0.0115
2138.00,0.0115
2137.00,0.0116
2136.00,0.0116
2135.00,0.0117
2134.00,0.0117
2133.00,0.0117
2132.00,0.0117
2131.00,0.0117
2130.00,0.0117
2129.00,0.0117
2128.00,0.0117
2127.00,0.0117
2126.00,0.0117
2125.00,0.0117
2124.00,0.0117
2123.00,0.0117
2122.00,0.0117
2121.00,0.0117
2120.00,0.0117
2119.00,0.0117
2118.00,0.0117
2117.00,0.0117
2116.00,0.0117
2115.00,0.0117
2114.00,0.0117
2113.00,0.0117
2112.00,0.0117
2111.00,0.0117
2110.00,0.0117
2109.00,0.0117
2108.00,0.0117
2107.00,0.0117
2106.00,0.0117
2105.00,0.0117
2104.00,0.0117
2103.00,0.0116
2102.00,0.0116
2101.00,0.0116
2100.00,0.0116
2099.00,0.0116
2098.00,0.0116
2097.00,0.0116
2096.00,0.0116
2095.00,0.0115
2094.00,0.0115
2093.00,0.0115
2092.00,0.0115
2091.00,0.0116
2090.00,0.0116
2089.00,0.0116
2088.00,0.0116
2087.00,0.0116
2086.00,0.0116
2085.00,0.0116
2084.00,0.0116
2083.00,0.0115
2082.00,0.0115
2081.00,0.0115
2080.00,0.0115
2079.00,0.0115
2078.00,0.0114
2077.00,0.0114
2076.00,0.0114
2075.00,0.0114
2074.00,0.0114
2073.00,0.0114
2072.00,0.0114
2071.00,0.0113
2070.00,0.0113
2069.00,0.0112
2068.00,0.0112
2067.00,0.0112
2066.00,0.0111
2065.00,0.0111
2064.00,0.0111
2063.00,0.0111
2062.00,0.0112
2061.00,0.0112
2060.00,0.0112
2059.00,0.0111
2058.00,0.0111
2057.00,0.0111
2056.00,0.0110
2055.00,0.0110
2054.00,0.0110
2053.00,0.0110
2052.00,0.0110
2051.00,0.0110
2050.00,0.0109
2049.00,0.0109
2048.00,0.0110
2047.00,0.0109
2046.00,0.0109
2045.00,0.0109
2044.00,0.0109
2043.00,0.0109
2042.00,0.0108
2041.00,0.0108
2040.00,0.0108
2039.00,0.0109
2038.00,0.0108
2037.00,0.0108
2036.00,0.0107
2035.00,0.0106
2034.00,0.0106
2033.00,0.0106
2032.00,0.0106
2031.00,0.0106
2030.00,0.0105
2029.00,0.0106
2028.00,0.0107
2027.00,0.0107
2026.00,0.0106
2025.00,0.0105
2024.00,0.0104
2023.00,0.0104
2022.00,0.0104
2021.00,0.0105
2020.00,0.0105
2019.00,0.0106
2018.00,0.0106
2017.00,0.0106
2016.00,0.0107
2015.00,0.0107
2014.00,0.0106
2013.00,0.0106
2012.00,0.0106
2011.00,0.0106
2010.00,0.0106
2009.00,0.0106
2008.00,0.0106
2007.00,0.0106
2006.00,0.0105
2005.00,0.0104
2004.00,0.0104
2003.00,0.0104
2002.00,0.0103
2001.00,0.0104
2000.00,0.0104
1999.00,0.0104
1998.00,0.0105
1997.00,0.0105
1996.00,0.0105
1995.00,0.0105
1994.00,0.0105
1993.00,0.0104
1992.00,0.0104
1991.00,0.0104
1990.00,0.0104
1989.00,0.0104
1988.00,0.0104
1987.00,0.0105
1986.00,0.0104
1985.00,0.0104
1984.00,0.0105
1983.00,0.0105
1982.00,0.0105
1981.00,0.0105
1980.00,0.0105
1979.00,0.0104
1978.00,0.0102
1977.00,0.0102
1976.00,0.0102
1975.00,0.0102
1974.00,0.0101
1973.00,0.0101
1972.00,0.0102
1971.00,0.0101
1970.00,0.0101
1969.00,0.0101
1968.00,0.0102
1967.00,0.0102
1966.00,0.0101
1965.00,0.0101
1964.00,0.0101
1963.00,0.0101
1962.00,0.0100
1961.00,0.0100
1960.00,0.0100
1959.00,0.0100
1958.00,0.0100
1957.00,0.0100
1956.00,0.0100
1955.00,0.0101
1954.00,0.0100
1953.00,0.0100
1952.00,0.0101
1951.00,0.0100
1950.00,0.0099
1949.00,0.0099
1948.00,0.0099
1947.00,0.0099
1946.00,0.0098
1945.00,0.0099
1944.00,0.0099
1943.00,0.0099
1942.00,0.0099
1941.00,0.0099
1940.00,0.0099
1939.00,0.0100
1938.00,0.0100
1937.00,0.0100
1936.00,0.0099
1935.00,0.0099
1934.00,0.0098
1933.00,0.0098
1932.00,0.0099
1931.00,0.0099
1930.00,0.0099
1929.00,0.0099
1928.00,0.0099
1927.00,0.0098
1926.00,0.0098
1925.00,0.0097
1924.00,0.0097
1923.00,0.0098
1922.00,0.0097
1921.00,0.0097
1920.00,0.0096
1919.00,0.0096
1918.00,0.0096
1917.00,0.0096
1916.00,0.0097
1915.00,0.0097
1914.00,0.0097
1913.00,0.0097
1912.00,0.0097
1911.00,0.0097
1910.00,0.0097
1909.00,0.0096
1908.00,0.0096
1907.00,0.0096
1906.00,0.0096
1905.00,0.0096
1904.00,0.0096
1903.00,0.0096
1902.00,0.0096
1901.00,0.0096
1900.00,0.0095
1899.00,0.0095
1898.00,0.0094
1897.00,0.0094
1896.00,0.0095
1895.00,0.0095
1894.00,0.0094
1893.00,0.0094
1892.00,0.0094
1891.00,0.0093
1890.00,0.0093
1889.00,0.0093
1888.00,0.0093
1887.00,0.0093
1886.00,0.0093
1885.00,0.0094
1884.00,0.0094
1883.00,0.0093
1882.00,0.0093
1881.00,0.0092
1880.00,0.0093
1879.00,0.0093
1878.00,0.0092
1877.00,0.0092
1876.00,0.0092
1875.00,0.0092
1874.00,0.0091
1873.00,0.0091
1872.00,0.0090
1871.00,0.0089
1870.00,0.0088
1869.00,0.0088
1868.00,0.0089
1867.00,0.0089
1866.00,0.0089
1865.00,0.0090
1864.00,0.0090
1863.00,0.0090
1862.00,0.0090
1861.00,0.0089
1860.00,0.0089
1859.00,0.0089
1858.00,0.0089
1857.00,0.0089
1856.00,0.0089
1855.00,0.0089
1854.00,0.0088
1853.00,0.0088
1852.00,0.0088
1851.00,0.0088
1850.00,0.0087
1849.00,0.0087
1848.00,0.0086
1847.00,0.0085
1846.00,0.0084
1845.00,0.0084
1844.00,0.0084
1843.00,0.0084
1842.00,0.0085
1841.00,0.0085
1840.00,0.0086
1839.00,0.0086
1838.00,0.0086
1837.00,0.0086
1836.00,0.0086
1835.00,0.0085
1834.00,0.0085
1833.00,0.0084
1832.00,0.0083
1831.00,0.0083
1830.00,0.0083
1829.00,0.0082
1828.00,0.0082
1827.00,0.0081
1826.00,0.0081
1825.00,0.0081
1824.00,0.0081
1823.00,0.0082
1822.00,0.0082
1821.00,0.0083
1820.00,0.0083
1819.00,0.0082
1818.00,0.0082
1817.00,0.0082
1816.00,0.0082
1815.00,0.0082
1814.00,0.0082
1813.00,0.0081
1812.00,0.0082
1811.00,0.0082
1810.00,0.0081
1809.00,0.0081
1808.00,0.0081
1807.00,0.0081
1806.00,0.0081
1805.00,0.0081
1804.00,0.0080
1803.00,0.0079
1802.00,0.0078
1801.00,0.0077
1800.00,0.0078
1799.00,0.0078
1798.00,0.0079
1797.00,0.0079
1796.00,0.0079
1795.00,0.0078
1794.00,0.0077
1793.00,0.0076
1792.00,0.0076
1791.00,0.0075
1790.00,0.0076
1789.00,0.0076
1788.00,0.0077
1787.00,0.0077
1786.00,0.0076
1785.00,0.0076
1784.00,0.0076
1783.00,0.0077
1782.00,0.0077
1781.00,0.0078
1780.00,0.0078
1779.00,0.0078
1778.00,0.0077
1777.00,0.0077
1776.00,0.0077
1775.00,0.0077
1774.00,0.0077
1773.00,0.0078
1772.00,0.0077
1771.00,0.0075
1770.00,0.0073
1769.00,0.0073
1768.00,0.0074
1767.00,0.0075
1766.00,0.0076
1765.00,0.0076
1764.00,0.0076
1763.00,0.0075
1762.00,0.0075
1761.00,0.0075
1760.00,0.0076
1759.00,0.0077
1758.00,0.0077
1757.00,0.0078
1756.00,0.0079
1755.00,0.0080
1754.00,0.0081
1753.00,0.0082
1752.00,0.0084
1751.00,0.0085
1750.00,0.0086
1749.00,0.0087
1748.00,0.0090
1747.00,0.0092
1746.00,0.0094
1745.00,0.0095
1744.00,0.0097
1743.00,0.0098
1742.00,0.0099
1741.00,0.0099
1740.00,0.0101
1739.00,0.0102
1738.00,0.0102
1737.00,0.0102
1736.00,0.0103
1735.00,0.0104
1734.00,0.0105
1733.00,0.0105
1732.00,0.0105
1731.00,0.0105
1730.00,0.0105
1729.00,0.0105
1728.00,0.0106
1727.00,0.0107
1726.00,0.0108
1725.00,0.0109
1724.00,0.0110
1723.00,0.0111
1722.00,0.0111
1721.00,0.0110
1720.00,0.0111
1719.00,0.0114
1718.00,0.0119
1717.00,0.0123
1716.00,0.0125
1715.00,0.0127
1714.00,0.0129
1713.00,0.0133
1712.00,0.0139
1711.00,0.0145
1710.00,0.0151
1709.00,0.0157
1708.00,0.0164
1707.00,0.0173
1706.00,0.0183
1705.00,0.0195
1704.00,0.0207
1703.00,0.0216
1702.00,0.0226
1701.00,0.0241
1700.00,0.0263
1699.00,0.0284
1698.00,0.0301
1697.00,0.0316
1696.00,0.0329
1695.00,0.0339
1694.00,0.0346
1693.00,0.0353
1692.00,0.0360
1691.00,0.0369
1690.00,0.0379
1689.00,0.0389
1688.00,0.0399
1687.00,0.0410
1686.00,0.0421
1685.00,0.0434
1684.00,0.0449
1683.00,0.0461
1682.00,0.0472
1681.00,0.0484
1680.00,0.0498
1679.00,0.0509
1678.00,0.0519
1677.00,0.0529
1676.00,0.0542
1675.00,0.0558
1674.00,0.0574
1673.00,0.0588
1672.00,0.0601
1671.00,0.0615
1670.00,0.0631
1669.00,0.0648
1668.00,0.0665
1667.00,0.0680
1666.00,0.0693
1665.00,0.0705
1664.00,0.0719
1663.00,0.0735
1662.00,0.0753
1661.00,0.0769
1660.00,0.0785
1659.00,0.0800
1658.00,0.0812
1657.00,0.0822
1656.00,0.0830
1655.00,0.0840
1654.00,0.0857
1653.00,0.0881
1652.00,0.0900
1651.00,0.0909
1650.00,0.0910
1649.00,0.0910
1648.00,0.0915
1647.00,0.0924
1646.00,0.0932
1645.00,0.0939
1644.00,0.0945
1643.00,0.0949
1642.00,0.0954
1641.00,0.0959
1640.00,0.0965
1639.00,0.0970
1638.00,0.0976
1637.00,0.0984
1636.00,0.0998
1635.00,0.1014
1634.00,0.1028
1633.00,0.1040
1632.00,0.1051
1631.00,0.1062
1630.00,0.1072
1629.00,0.1082
1628.00,0.1093
1627.00,0.1101
1626.00,0.1106
1625.00,0.1107
1624.00,0.1106
1623.00,0.1102
1622.00,0.1094
1621.00,0.1082
1620.00,0.1068
1619.00,0.1053
1618.00,0.1035
1617.00,0.1015
1616.00,0.0993
1615.00,0.0971
1614.00,0.0949
1613.00,0.0928
1612.00,0.0906
1611.00,0.0884
1610.00,0.0861
1609.00,0.0837
1608.00,0.0814
1607.00,0.0790
1606.00,0.0768
1605.00,0.0746
1604.00,0.0726
1603.00,0.0706
1602.00,0.0688
1601.00,0.0672
1600.00,0.0656
1599.00,0.0642
1598.00,0.0629
1597.00,0.0617
1596.00,0.0606
1595.00,0.0595
1594.00,0.0585
1593.00,0.0575
1592.00,0.0566
1591.00,0.0557
1590.00,0.0549
1589.00,0.0542
1588.00,0.0535
1587.00,0.0529
1586.00,0.0525
1585.00,0.0522
1584.00,0.0519
1583.00,0.0517
1582.00,0.0517
1581.00,0.0518
1580.00,0.0518
1579.00,0.0520
1578.00,0.0524
1577.00,0.0531
1576.00,0.0537
1575.00,0.0540
1574.00,0.0541
1573.00,0.0542
1572.00,0.0543
1571.00,0.0546
1570.00,0.0554
1569.00,0.0563
1568.00,0.0572
1567.00,0.0581
1566.00,0.0591
1565.00,0.0601
1564.00,0.0611
1563.00,0.0620
1562.00,0.0627
1561.00,0.0632
1560.00,0.0644
1559.00,0.0666
1558.00,0.0687
1557.00,0.0702
1556.00,0.0715
1555.00,0.0728
1554.00,0.0742
1553.00,0.0756
1552.00,0.0768
1551.00,0.0779
1550.00,0.0793
1549.00,0.0806
1548.00,0.0817
1547.00,0.0826
1546.00,0.0836
1545.00,0.0846
1544.00,0.0857
1543.00,0.0867
1542.00,0.0878
1541.00,0.0894
1540.00,0.0912
1539.00,0.0926
1538.00,0.0933
1537.00,0.0936
1536.00,0.0935
1535.00,0.0936
1534.00,0.0941
1533.00,0.0949
1532.00,0.0957
1531.00,0.0963
1530.00,0.0968
1529.00,0.0971
1528.00,0.0974
1527.00,0.0978
1526.00,0.0982
1525.00,0.0986
1524.00,0.0989
1523.00,0.0993
1522.00,0.0999
1521.00,0.1005
1520.00,0.1010
1519.00,0.1013
1518.00,0.1016
1517.00,0.1021
1516.00,0.1025
1515.00,0.1025
1514.00,0.1023
1513.00,0.1016
1512.00,0.1007
1511.00,0.0996
1510.00,0.0984
1509.00,0.0971
1508.00,0.0959
1507.00,0.0944
1506.00,0.0926
1505.00,0.0910
1504.00,0.0896
1503.00,0.0880
1502.00,0.0863
1501.00,0.0844
1500.00,0.0824
1499.00,0.0806
1498.00,0.0789
1497.00,0.0772
1496.00,0.0755
1495.00,0.0738
1494.00,0.0722
1493.00,0.0704
1492.00,0.0687
1491.00,0.0669
1490.00,0.0653
1489.00,0.0638
1488.00,0.0625
1487.00,0.0612
1486.00,0.0601
1485.00,0.0590
1484.00,0.0580
1483.00,0.0571
1482.00,0.0562
1481.00,0.0554
1480.00,0.0547
1479.00,0.0541
1478.00,0.0534
1477.00,0.0528
1476.00,0.0524
1475.00,0.0522
1474.00,0.0521
1473.00,0.0521
1472.00,0.0522
1471.00,0.0522
1470.00,0.0523
1469.00,0.0523
1468.00,0.0522
1467.00,0.0521
1466.00,0.0520
1465.00,0.0521
1464.00,0.0525
1463.00,0.0529
1462.00,0.0532
1461.00,0.0534
1460.00,0.0536
1459.00,0.0540
1458.00,0.0548
1457.00,0.0560
1456.00,0.0571
1455.00,0.0581
1454.00,0.0587
1453.00,0.0591
1452.00,0.0596
1451.00,0.0599
1450.00,0.0602
1449.00,0.0606
1448.00,0.0610
1447.00,0.0614
1446.00,0.0616
1445.00,0.0617
1444.00,0.0615
1443.00,0.0612
1442.00,0.0607
1441.00,0.0602
1440.00,0.0594
1439.00,0.0586
1438.00,0.0576
1437.00,0.0567
1436.00,0.0561
1435.00,0.0558
1434.00,0.0555
1433.00,0.0551
1432.00,0.0546
1431.00,0.0541
1430.00,0.0538
1429.00,0.0536
1428.00,0.0535
1427.00,0.0535
1426.00,0.0536
1425.00,0.0538
1424.00,0.0541
1423.00,0.0543
1422.00,0.0545
1421.00,0.0547
1420.00,0.0550
1419.00,0.0555
1418.00,0.0562
1417.00,0.0568
1416.00,0.0574
1415.00,0.0579
1414.00,0.0584
1413.00,0.0588
1412.00,0.0593
1411.00,0.0598
1410.00,0.0602
1409.00,0.0605
1408.00,0.0608
1407.00,0.0611
1406.00,0.0614
1405.00,0.0616
1404.00,0.0619
1403.00,0.0621
1402.00,0.0621
1401.00,0.0620
1400.00,0.0619
1399.00,0.0619
1398.00,0.0618
1397.00,0.0617
1396.00,0.0616
1395.00,0.0615
1394.00,0.0615
1393.00,0.0615
1392.00,0.0615
1391.00,0.0614
1390.00,0.0612
1389.00,0.0610
1388.00,0.0609
1387.00,0.0608
1386.00,0.0608
1385.00,0.0607
1384.00,0.0606
1383.00,0.0605
1382.00,0.0603
1381.00,0.0601
1380.00,0.0598
1379.00,0.0596
1378.00,0.0594
1377.00,0.0592
1376.00,0.0590
1375.00,0.0590
1374.00,0.0589
1373.00,0.0590
1372.00,0.0591
1371.00,0.0590
1370.00,0.0589
1369.00,0.0586
1368.00,0.0583
1367.00,0.0579
1366.00,0.0574
1365.00,0.0569
1364.00,0.0564
1363.00,0.0560
1362.00,0.0557
1361.00,0.0555
1360.00,0.0553
1359.00,0.0552
1358.00,0.0550
1357.00,0.0549
1356.00,0.0548
1355.00,0.0547
1354.00,0.0546
1353.00,0.0546
1352.00,0.0546
1351.00,0.0546
1350.00,0.0547
1349.00,0.0547
1348.00,0.0548
1347.00,0.0549
1346.00,0.0550
1345.00,0.0550
1344.00,0.0551
1343.00,0.0552
1342.00,0.0552
1341.00,0.0552
1340.00,0.0553
1339.00,0.0554
1338.00,0.0554
1337.00,0.0554
1336.00,0.0554
1335.00,0.0554
1334.00,0.0553
1333.00,0.0552
1332.00,0.0550
1331.00,0.0549
1330.00,0.0547
1329.00,0.0545
1328.00,0.0543
1327.00,0.0542
1326.00,0.0540
1325.00,0.0539
1324.00,0.0537
1323.00,0.0536
1322.00,0.0535
1321.00,0.0535
1320.00,0.0534
1319.00,0.0534
1318.00,0.0534
1317.00,0.0533
1316.00,0.0533
1315.00,0.0533
1314.00,0.0532
1313.00,0.0532
1312.00,0.0532
1311.00,0.0531
1310.00,0.0530
1309.00,0.0530
1308.00,0.0528
1307.00,0.0527
1306.00,0.0526
1305.00,0.0524
1304.00,0.0522
1303.00,0.0520
1302.00,0.0518
1301.00,0.0516
1300.00,0.0513
1299.00,0.0511
1298.00,0.0509
1297.00,0.0507
1296.00,0.0506
1295.00,0.0504
1294.00,0.0503
1293.00,0.0502
1292.00,0.0501
1291.00,0.0500
1290.00,0.0499
1289.00,0.0499
1288.00,0.0498
1287.00,0.0498
1286.00,0.0498
1285.00,0.0497
1284.00,0.0497
1283.00,0.0497
1282.00,0.0497
1281.00,0.0497
1280.00,0.0497
1279.00,0.0498
1278.00,0.0499
1277.00,0.0500
1276.00,0.0502
1275.00,0.0503
1274.00,0.0505
1273.00,0.0507
1272.00,0.0510
1271.00,0.0512
1270.00,0.0515
1269.00,0.0518
1268.00,0.0521
1267.00,0.0524
1266.00,0.0527
1265.00,0.0529
1264.00,0.0532
1263.00,0.0535
1262.00,0.0538
1261.00,0.0541
1260.00,0.0544
1259.00,0.0546
1258.00,0.0549
1257.00,0.0551
1256.00,0.0554
1255.00,0.0558
1254.00,0.0561
1253.00,0.0565
1252.00,0.0569
1251.00,0.0573
1250.00,0.0578
1249.00,0.0583
1248.00,0.0588
1247.00,0.0593
1246.00,0.0599
1245.00,0.0605
1244.00,0.0611
1243.00,0.0617
1242.00,0.0623
1241.00,0.0628
1240.00,0.0633
1239.00,0.0637
1238.00,0.0640
1237.00,0.0643
1236.00,0.0646
1235.00,0.0648
1234.00,0.0650
1233.00,0.0651
1232.00,0.0652
1231.00,0.0652
1230.00,0.0653
1229.00,0.0653
1228.00,0.0653
1227.00,0.0654
1226.00,0.0654
1225.00,0.0654
1224.00,0.0653
1223.00,0.0653
1222.00,0.0652
1221.00,0.0650
1220.00,0.0647
1219.00,0.0644
1218.00,0.0640
1217.00,0.0635
1216.00,0.0629
1215.00,0.0622
1214.00,0.0615
1213.00,0.0608
1212.00,0.0600
1211.00,0.0593
1210.00,0.0585
1209.00,0.0578
1208.00,0.0570
1207.00,0.0563
1206.00,0.0556
1205.00,0.0549
1204.00,0.0542
1203.00,0.0536
1202.00,0.0530
1201.00,0.0524
1200.00,0.0518
1199.00,0.0513
1198.00,0.0508
1197.00,0.0504
1196.00,0.0500
1195.00,0.0497
1194.00,0.0494
1193.00,0.0491
1192.00,0.0489
1191.00,0.0487
1190.00,0.0485
1189.00,0.0484
1188.00,0.0483
1187.00,0.0482
1186.00,0.0482
1185.00,0.0481
1184.00,0.0482
1183.00,0.0482
1182.00,0.0484
1181.00,0.0486
1180.00,0.0488
1179.00,0.0492
1178.00,0.0495
1177.00,0.0500
1176.00,0.0504
1175.00,0.0509
1174.00,0.0514
1173.00,0.0518
1172.00,0.0522
1171.00,0.0526
1170.00,0.0529
1169.00,0.0531
1168.00,0.0532
1167.00,0.0533
1166.00,0.0533
1165.00,0.0532
1164.00,0.0531
1163.00,0.0529
1162.00,0.0527
1161.00,0.0524
1160.00,0.0521
1159.00,0.0518
1158.00,0.0514
1157.00,0.0510
1156.00,0.0506
1155.00,0.0502
1154.00,0.0497
1153.00,0.0493
1152.00,0.0489
1151.00,0.0485
1150.00,0.0481
1149.00,0.0477
1148.00,0.0473
1147.00,0.0470
1146.00,0.0466
1145.00,0.0463
1144.00,0.0460
1143.00,0.0457
1142.00,0.0455
1141.00,0.0453
1140.00,0.0451
1139.00,0.0449
1138.00,0.0447
1137.00,0.0446
1136.00,0.0444
1135.00,0.0443
1134.00,0.0442
1133.00,0.0441
1132.00,0.0440
1131.00,0.0439
1130.00,0.0438
1129.00,0.0437
1128.00,0.0436
1127.00,0.0436
1126.00,0.0435
1125.00,0.0434
1124.00,0.0433
1123.00,0.0433
1122.00,0.0432
1121.00,0.0431
1120.00,0.0430
1119.00,0.0430
1118.00,0.0429
1117.00,0.0428
1116.00,0.0427
1115.00,0.0426
1114.00,0.0426
1113.00,0.0425
1112.00,0.0424
1111.00,0.0423
1110.00,0.0423
1109.00,0.0422
1108.00,0.0422
1107.00,0.0422
1106.00,0.0421
1105.00,0.0421
1104.00,0.0420
1103.00,0.0420
1102.00,0.0418
1101.00,0.0417
1100.00,0.0415
1099.00,0.0413
1098.00,0.0412
1097.00,0.0411
1096.00,0.0410
1095.00,0.0409
1094.00,0.0409
1093.00,0.0408
1092.00,0.0409
1091.00,0.0409
1090.00,0.0410
1089.00,0.0411
1088.00,0.0413
1087.00,0.0414
1086.00,0.0416
1085.00,0.0418
1084.00,0.0419
1083.00,0.0420
1082.00,0.0422
1081.00,0.0422
1080.00,0.0423
1079.00,0.0423
1078.00,0.0424
1077.00,0.0424
1076.00,0.0423
1075.00,0.0423
1074.00,0.0423
1073.00,0.0422
1072.00,0.0422
1071.00,0.0421
1070.00,0.0421
1069.00,0.0420
1068.00,0.0420
1067.00,0.0420
1066.00,0.0420
1065.00,0.0421
1064.00,0.0421
1063.00,0.0422
1062.00,0.0423
1061.00,0.0424
1060.00,0.0425
1059.00,0.0426
1058.00,0.0428
1057.00,0.0429
1056.00,0.0430
1055.00,0.0432
1054.00,0.0433
1053.00,0.0434
1052.00,0.0435
1051.00,0.0435
1050.00,0.0435
1049.00,0.0434
1048.00,0.0432
1047.00,0.0431
1046.00,0.0431
1045.00,0.0430
1044.00,0.0430
1043.00,0.0431
1042.00,0.0431
1041.00,0.0431
1040.00,0.0431
1039.00,0.0432
1038.00,0.0432
1037.00,0.0432
1036.00,0.0432
1035.00,0.0431
1034.00,0.0431
1033.00,0.0431
1032.00,0.0431
1031.00,0.0430
1030.00,0.0429
1029.00,0.0428
1028.00,0.0426
1027.00,0.0424
1026.00,0.0422
1025.00,0.0419
1024.00,0.0416
1023.00,0.0413
1022.00,0.0410
1021.00,0.0407
1020.00,0.0405
1019.00,0.0402
1018.00,0.0399
1017.00,0.0397
1016.00,0.0394
1015.00,0.0392
1014.00,0.0389
1013.00,0.0387
1012.00,0.0383
1011.00,0.0380
1010.00,0.0377
1009.00,0.0373
1008.00,0.0370
1007.00,0.0366
1006.00,0.0363
1005.00,0.0359
1004.00,0.0356
1003.00,0.0353
1002.00,0.0350
1001.00,0.0347
1000.00,0.0344
999.00,0.0341
998.00,0.0339
997.00,0.0336
996.00,0.0334
995.00,0.0331
994.00,0.0329
993.00,0.0327
992.00,0.0325
991.00,0.0323
990.00,0.0321
989.00,0.0320
988.00,0.0318
987.00,0.0317
986.00,0.0316
985.00,0.0316
984.00,0.0316
983.00,0.0316
982.00,0.0316
981.00,0.0317
980.00,0.0318
979.00,0.0319
978.00,0.0321
977.00,0.0322
976.00,0.0324
975.00,0.0327
974.00,0.0330
973.00,0.0335
972.00,0.0340
971.00,0.0346
970.00,0.0353
969.00,0.0360
968.00,0.0367
967.00,0.0374
966.00,0.0378
965.00,0.0380
964.00,0.0379
963.00,0.0376
962.00,0.0371
961.00,0.0365
960.00,0.0358
959.00,0.0352
958.00,0.0346
957.00,0.0340
956.00,0.0335
955.00,0.0331
954.00,0.0327
953.00,0.0323
952.00,0.0320
951.00,0.0317
950.00,0.0315
949.00,0.0312
948.00,0.0311
947.00,0.0309
946.00,0.0308
945.00,0.0307
944.00,0.0306
943.00,0.0305
942.00,0.0304
941.00,0.0304
940.00,0.0304
939.00,0.0304
938.00,0.0304
937.00,0.0304
936.00,0.0305
935.00,0.0305
934.00,0.0306
933.00,0.0306
932.00,0.0307
931.00,0.0307
930.00,0.0307
929.00,0.0307
928.00,0.0307
927.00,0.0307
926.00,0.0306
925.00,0.0305
924.00,0.0304
923.00,0.0303
922.00,0.0301
921.00,0.0299
920.00,0.0297
919.00,0.0295
918.00,0.0293
917.00,0.0291
916.00,0.0289
915.00,0.0288
914.00,0.0286
913.00,0.0285
912.00,0.0283
911.00,0.0282
910.00,0.0282
909.00,0.0281
908.00,0.0281
907.00,0.0281
906.00,0.0281
905.00,0.0282
904.00,0.0282
903.00,0.0282
902.00,0.0283
901.00,0.0283
900.00,0.0283
899.00,0.0283
898.00,0.0282
897.00,0.0282
896.00,0.0281
895.00,0.0280
894.00,0.0279
893.00,0.0279
892.00,0.0278
891.00,0.0277
890.00,0.0275
889.00,0.0274
888.00,0.0274
887.00,0.0273
886.00,0.0272
885.00,0.0271
884.00,0.0271
883.00,0.0271
882.00,0.0271
881.00,0.0271
880.00,0.0271
879.00,0.0271
878.00,0.0271
877.00,0.0271
876.00,0.0271
875.00,0.0271
874.00,0.0271
873.00,0.0270
872.00,0.0269
871.00,0.0269
870.00,0.0268
869.00,0.0268
868.00,0.0268
867.00,0.0267
866.00,0.0267
865.00,0.0267
864.00,0.0267
863.00,0.0267
862.00,0.0268
861.00,0.0268
860.00,0.0268
859.00,0.0269
858.00,0.0270
857.00,0.0272
856.00,0.0273
855.00,0.0275
854.00,0.0277
853.00,0.0278
852.00,0.0279
851.00,0.0280
850.00,0.0281
849.00,0.0281
848.00,0.0281
847.00,0.0281
846.00,0.0281
845.00,0.0281
844.00,0.0281
843.00,0.0282
842.00,0.0283
841.00,0.0284
840.00,0.0285
839.00,0.0286
838.00,0.0288
837.00,0.0290
836.00,0.0292
835.00,0.0294
834.00,0.0296
833.00,0.0299
832.00,0.0302
831.00,0.0306
830.00,0.0311
829.00,0.0314
828.00,0.0317
827.00,0.0318
826.00,0.0318
825.00,0.0316
824.00,0.0314
823.00,0.0312
822.00,0.0311
821.00,0.0309
820.00,0.0308
819.00,0.0308
818.00,0.0308
817.00,0.0309
816.00,0.0309
815.00,0.0310
814.00,0.0311
813.00,0.0312
812.00,0.0313
811.00,0.0315
810.00,0.0316
809.00,0.0317
808.00,0.0318
807.00,0.0320
806.00,0.0321
805.00,0.0322
804.00,0.0323
803.00,0.0324
802.00,0.0325
801.00,0.0326
800.00,0.0327
799.00,0.0328
798.00,0.0329
797.00,0.0329
796.00,0.0331
795.00,0.0332
794.00,0.0333
793.00,0.0335
792.00,0.0337
791.00,0.0339
790.00,0.0341
789.00,0.0344
788.00,0.0347
787.00,0.0350
786.00,0.0353
785.00,0.0356
784.00,0.0359
783.00,0.0362
782.00,0.0366
781.00,0.0369
780.00,0.0373
779.00,0.0375
778.00,0.0378
777.00,0.0380
776.00,0.0382
775.00,0.0384
774.00,0.0386
773.00,0.0388
772.00,0.0389
771.00,0.0390
770.00,0.0391
769.00,0.0392
768.00,0.0392
767.00,0.0393
766.00,0.0393
765.00,0.0393
764.00,0.0393
763.00,0.0393
762.00,0.0393
761.00,0.0393
760.00,0.0394
759.00,0.0395
758.00,0.0396
757.00,0.0398
756.00,0.0399
755.00,0.0401
754.00,0.0402
753.00,0.0404
752.00,0.0406
751.00,0.0408
750.00,0.0410
749.00,0.0413
748.00,0.0415
747.00,0.0418
746.00,0.0421
745.00,0.0424
744.00,0.0427
743.00,0.0430
742.00,0.0432
741.00,0.0435
740.00,0.0438
739.00,0.0441
738.00,0.0444
737.00,0.0447
736.00,0.0450
735.00,0.0453
734.00,0.0456
733.00,0.0460
732.00,0.0464
731.00,0.0469
730.00,0.0474
729.00,0.0478
728.00,0.0484
727.00,0.0489
726.00,0.0495
725.00,0.0501
724.00,0.0509
723.00,0.0517
722.00,0.0525
721.00,0.0533
720.00,0.0542
719.00,0.0550
718.00,0.0557
717.00,0.0564
716.00,0.0572
715.00,0.0580
714.00,0.0587
713.00,0.0595
712.00,0.0603
711.00,0.0610
710.00,0.0618
709.00,0.0625
708.00,0.0632
707.00,0.0638
706.00,0.0645
705.00,0.0651
704.00,0.0656
703.00,0.0661
702.00,0.0666
701.00,0.0670
700.00,0.0674
699.00,0.0677
698.00,0.0679
697.00,0.0681
696.00,0.0683
695.00,0.0685
694.00,0.0686
693.00,0.0688
692.00,0.0689
691.00,0.0691
690.00,0.0692
689.00,0.0693
688.00,0.0695
687.00,0.0696
686.00,0.0697
685.00,0.0698
684.00,0.0699
683.00,0.0700
682.00,0.0701
681.00,0.0703
680.00,0.0704
679.00,0.0706
678.00,0.0708
677.00,0.0709
676.00,0.0710
675.00,0.0712
674.00,0.0712
673.00,0.0714
672.00,0.0715
671.00,0.0715
670.00,0.0716
669.00,0.0717
668.00,0.0720
667.00,0.0723
666.00,0.0724
665.00,0.0725
664.00,0.0725
663.00,0.0726
662.00,0.0726
661.00,0.0727
660.00,0.0727
659.00,0.0728
658.00,0.0729
657.00,0.0730
656.00,0.0730
655.00,0.0731
654.00,0.0731
653.00,0.0731
652.00,0.0731
651.00,0.0731
650.00,0.0731
649.00,0.0731
648.00,0.0732
647.00,0.0732
646.00,0.0733
645.00,0.0734
644.00,0.0735
643.00,0.0736
642.00,0.0737
641.00,0.0738
640.00,0.0740
639.00,0.0742
638.00,0.0744
637.00,0.0747
636.00,0.0750
635.00,0.0754
634.00,0.0758
633.00,0.0762
632.00,0.0767
631.00,0.0773
630.00,0.0778
629.00,0.0784
628.00,0.0789
627.00,0.0795
626.00,0.0799
625.00,0.0803
624.00,0.0807
623.00,0.0810
622.00,0.0813
621.00,0.0816
620.00,0.0818
619.00,0.0821
618.00,0.0823
617.00,0.0824
616.00,0.0825
615.00,0.0825
614.00,0.0825
613.00,0.0824
612.00,0.0823
611.00,0.0823
610.00,0.0821
609.00,0.0820
608.00,0.0819
607.00,0.0817
606.00,0.0815
605.00,0.0813
604.00,0.0812
603.00,0.0811
602.00,0.0809
601.00,0.0808
600.00,0.0807
599.00,0.0806
598.00,0.0805
597.00,0.0804
596.00,0.0804
595.00,0.0804
594.00,0.0804
593.00,0.0805
592.00,0.0805
591.00,0.0806
590.00,0.0807
589.00,0.0808
588.00,0.0809
587.00,0.0811
586.00,0.0812
585.00,0.0814
584.00,0.0815
583.00,0.0817
582.00,0.0817
581.00,0.0818
580.00,0.0820
579.00,0.0821
578.00,0.0822
577.00,0.0824
576.00,0.0825
575.00,0.0827
574.00,0.0828
573.00,0.0830
572.00,0.0832
571.00,0.0835
570.00,0.0837
569.00,0.0840
568.00,0.0842
567.00,0.0845
566.00,0.0846
565.00,0.0848
564.00,0.0851
563.00,0.0853
562.00,0.0856
561.00,0.0858
560.00,0.0860
559.00,0.0862
558.00,0.0865
557.00,0.0868
556.00,0.0871
555.00,0.0874
554.00,0.0876
553.00,0.0879
552.00,0.0881
551.00,0.0883
550.00,0.0884
549.00,0.0885
548.00,0.0887
547.00,0.0889
546.00,0.0891
545.00,0.0892
544.00,0.0894
543.00,0.0895
542.00,0.0895
541.00,0.0894
540.00,0.0894
539.00,0.0894
538.00,0.0894
537.00,0.0895
536.00,0.0896
535.00,0.0896
534.00,0.0896
533.00,0.0896
532.00,0.0897
531.00,0.0898
530.00,0.0899
529.00,0.0900
528.00,0.0901
527.00,0.0901
526.00,0.0901
525.00,0.0901
524.00,0.0902
523.00,0.0901
522.00,0.0899
521.00,0.0897
520.00,0.0896
519.00,0.0894
518.00,0.0891
517.00,0.0889
516.00,0.0886
515.00,0.0884
514.00,0.0882
513.00,0.0880
512.00,0.0878
511.00,0.0876
510.00,0.0873
509.00,0.0870
508.00,0.0868
507.00,0.0866
506.00,0.0864
505.00,0.0861
504.00,0.0858
503.00,0.0855
502.00,0.0852
501.00,0.0850
500.00,0.0850
499.00,0.0850
498.00,0.0850
497.00,0.0849
496.00,0.0848
495.00,0.0846
494.00,0.0843
493.00,0.0842
492.00,0.0842
491.00,0.0842
490.00,0.0841
489.00,0.0839
488.00,0.0838
487.00,0.0838
486.00,0.0837
485.00,0.0837
484.00,0.0837
483.00,0.0836
482.00,0.0833
481.00,0.0829
480.00,0.0827
479.00,0.0825
478.00,0.0824
477.00,0.0823
476.00,0.0823
475.00,0.0821
474.00,0.0818
473.00,0.0816
472.00,0.0815
471.00,0.0815
470.00,0.0813
469.00,0.0811
468.00,0.0810
467.00,0.0809
466.00,0.0808
465.00,0.0808
464.00,0.0807
463.00,0.0805
462.00,0.0804
461.00,0.0802
460.00,0.0800
459.00,0.0797
458.00,0.0794
457.00,0.0794
456.00,0.0798
455.00,0.0801
454.00,0.0802
453.00,0.0804
452.00,0.0809
451.00,0.0814
450.00,0.0820
449.00,0.0826
448.00,0.0833
447.00,0.0839
446.00,0.0842
445.00,0.0845
444.00,0.0848
443.00,0.0850
442.00,0.0849
441.00,0.0845
440.00,0.0838
439.00,0.0831
438.00,0.0822
437.00,0.0814
436.00,0.0807
435.00,0.0800
434.00,0.0792
433.00,0.0785
432.00,0.0780
431.00,0.0775
430.00,0.0769
429.00,0.0763
428.00,0.0758
427.00,0.0756
426.00,0.0752
425.00,0.0746
424.00,0.0741
423.00,0.0738
422.00,0.0734
421.00,0.0730
420.00,0.0728
419.00,0.0727
418.00,0.0726
417.00,0.0726
416.00,0.0726
415.00,0.0725
414.00,0.0722
413.00,0.0720
412.00,0.0717
411.00,0.0714
410.00,0.0708
409.00,0.0704
408.00,0.0703
407.00,0.0703
406.00,0.0701
405.00,0.0698
404.00,0.0695
403.00,0.0692
402.00,0.0688
401.00,0.0683
400.00,0.0681
