Created as New Dataset,Sample 025 By YargerLab Date Friday, November 01 2024
cm-1,A
4000.00,0.0064
3999.00,0.0064
3998.00,0.0064
3997.00,0.0064
3996.00,0.0064
3995.00,0.0064
3994.00,0.0064
3993.00,0.0064
3992.00,0.0064
3991.00,0.0064
3990.00,0.0064
3989.00,0.0064
3988.00,0.0064
3987.00,0.0064
3986.00,0.0064
3985.00,0.0064
3984.00,0.0064
3983.00,0.0064
3982.00,0.0064
3981.00,0.0064
3980.00,0.0064
3979.00,0.0064
3978.00,0.0064
3977.00,0.0064
3976.00,0.0064
3975.00,0.0064
3974.00,0.0064
3973.00,0.0064
3972.00,0.0064
3971.00,0.0064
3970.00,0.0064
3969.00,0.0064
3968.00,0.0064
3967.00,0.0064
3966.00,0.0064
3965.00,0.0064
3964.00,0.0064
3963.00,0.0064
3962.00,0.0064
3961.00,0.0064
3960.00,0.0064
3959.00,0.0064
3958.00,0.0064
3957.00,0.0064
3956.00,0.0064
3955.00,0.0064
3954.00,0.0064
3953.00,0.0064
3952.00,0.0064
3951.00,0.0064
3950.00,0.0064
3949.00,0.0064
3948.00,0.0064
3947.00,0.0064
3946.00,0.0064
3945.00,0.0064
3944.00,0.0064
3943.00,0.0064
3942.00,0.0064
3941.00,0.0064
3940.00,0.0064
3939.00,0.0064
3938.00,0.0063
3937.00,0.0063
3936.00,0.0063
3935.00,0.0063
3934.00,0.0064
3933.00,0.0064
3932.00,0.0064
3931.00,0.0064
3930.00,0.0064
3929.00,0.0064
3928.00,0.0064
3927.00,0.0063
3926.00,0.0063
3925.00,0.0063
3924.00,0.0063
3923.00,0.0063
3922.00,0.0063
3921.00,0.0064
3920.00,0.0064
3919.00,0.0064
3918.00,0.0064
3917.00,0.0064
3916.00,0.0064
3915.00,0.0064
3914.00,0.0063
3913.00,0.0063
3912.00,0.0063
3911.00,0.0063
3910.00,0.0063
3909.00,0.0063
3908.00,0.0063
3907.00,0.0064
3906.00,0.0064
3905.00,0.0064
3904.00,0.0064
3903.00,0.0064
3902.00,0.0064
3901.00,0.0064
3900.00,0.0064
3899.00,0.0064
3898.00,0.0064
3897.00,0.0064
3896.00,0.0063
3895.00,0.0063
3894.00,0.0063
3893.00,0.0063
3892.00,0.0063
3891.00,0.0063
3890.00,0.0063
3889.00,0.0063
3888.00,0.0064
3887.00,0.0063
3886.00,0.0063
3885.00,0.0063
3884.00,0.0063
3883.00,0.0063
3882.00,0.0063
3881.00,0.0063
3880.00,0.0063
3879.00,0.0063
3878.00,0.0063
3877.00,0.0063
3876.00,0.0063
3875.00,0.0063
3874.00,0.0063
3873.00,0.0063
3872.00,0.0063
3871.00,0.0063
3870.00,0.0063
3869.00,0.0063
3868.00,0.0063
3867.00,0.0063
3866.00,0.0063
3865.00,0.0063
3864.00,0.0062
3863.00,0.0063
3862.00,0.0063
3861.00,0.0063
3860.00,0.0063
3859.00,0.0063
3858.00,0.0063
3857.00,0.0063
3856.00,0.0063
3855.00,0.0064
3854.00,0.0063
3853.00,0.0064
3852.00,0.0064
3851.00,0.0064
3850.00,0.0064
3849.00,0.0063
3848.00,0.0063
3847.00,0.0062
3846.00,0.0062
3845.00,0.0062
3844.00,0.0062
3843.00,0.0062
3842.00,0.0062
3841.00,0.0063
3840.00,0.0063
3839.00,0.0063
3838.00,0.0063
3837.00,0.0063
3836.00,0.0063
3835.00,0.0062
3834.00,0.0062
3833.00,0.0062
3832.00,0.0062
3831.00,0.0062
3830.00,0.0062
3829.00,0.0062
3828.00,0.0062
3827.00,0.0061
3826.00,0.0061
3825.00,0.0061
3824.00,0.0061
3823.00,0.0062
3822.00,0.0062
3821.00,0.0061
3820.00,0.0061
3819.00,0.0062
3818.00,0.0062
3817.00,0.0062
3816.00,0.0062
3815.00,0.0062
3814.00,0.0062
3813.00,0.0061
3812.00,0.0061
3811.00,0.0061
3810.00,0.0061
3809.00,0.0061
3808.00,0.0061
3807.00,0.0061
3806.00,0.0061
3805.00,0.0061
3804.00,0.0061
3803.00,0.0062
3802.00,0.0061
3801.00,0.0061
3800.00,0.0061
3799.00,0.0061
3798.00,0.0061
3797.00,0.0061
3796.00,0.0061
3795.00,0.0061
3794.00,0.0061
3793.00,0.0061
3792.00,0.0060
3791.00,0.0060
3790.00,0.0060
3789.00,0.0060
3788.00,0.0060
3787.00,0.0061
3786.00,0.0061
3785.00,0.0061
3784.00,0.0060
3783.00,0.0060
3782.00,0.0060
3781.00,0.0060
3780.00,0.0060
3779.00,0.0060
3778.00,0.0060
3777.00,0.0060
3776.00,0.0060
3775.00,0.0060
3774.00,0.0060
3773.00,0.0060
3772.00,0.0060
3771.00,0.0060
3770.00,0.0060
3769.00,0.0060
3768.00,0.0060
3767.00,0.0060
3766.00,0.0060
3765.00,0.0060
3764.00,0.0060
3763.00,0.0060
3762.00,0.0060
3761.00,0.0060
3760.00,0.0060
3759.00,0.0060
3758.00,0.0060
3757.00,0.0060
3756.00,0.0060
3755.00,0.0060
3754.00,0.0061
3753.00,0.0061
3752.00,0.0061
3751.00,0.0061
3750.00,0.0062
3749.00,0.0062
3748.00,0.0062
3747.00,0.0062
3746.00,0.0062
3745.00,0.0061
3744.00,0.0061
3743.00,0.0060
3742.00,0.0060
3741.00,0.0060
3740.00,0.0060
3739.00,0.0060
3738.00,0.0060
3737.00,0.0060
3736.00,0.0060
3735.00,0.0060
3734.00,0.0060
3733.00,0.0060
3732.00,0.0060
3731.00,0.0060
3730.00,0.0060
3729.00,0.0060
3728.00,0.0060
3727.00,0.0060
3726.00,0.0060
3725.00,0.0060
3724.00,0.0060
3723.00,0.0060
3722.00,0.0060
3721.00,0.0060
3720.00,0.0060
3719.00,0.0060
3718.00,0.0060
3717.00,0.0060
3716.00,0.0059
3715.00,0.0059
3714.00,0.0059
3713.00,0.0059
3712.00,0.0059
3711.00,0.0059
3710.00,0.0059
3709.00,0.0059
3708.00,0.0059
3707.00,0.0059
3706.00,0.0058
3705.00,0.0058
3704.00,0.0058
3703.00,0.0059
3702.00,0.0059
3701.00,0.0059
3700.00,0.0059
3699.00,0.0058
3698.00,0.0058
3697.00,0.0058
3696.00,0.0058
3695.00,0.0058
3694.00,0.0058
3693.00,0.0058
3692.00,0.0058
3691.00,0.0058
3690.00,0.0058
3689.00,0.0058
3688.00,0.0058
3687.00,0.0058
3686.00,0.0058
3685.00,0.0058
3684.00,0.0058
3683.00,0.0057
3682.00,0.0057
3681.00,0.0057
3680.00,0.0056
3679.00,0.0056
3678.00,0.0056
3677.00,0.0056
3676.00,0.0056
3675.00,0.0056
3674.00,0.0055
3673.00,0.0056
3672.00,0.0056
3671.00,0.0055
3670.00,0.0055
3669.00,0.0055
3668.00,0.0055
3667.00,0.0054
3666.00,0.0054
3665.00,0.0054
3664.00,0.0053
3663.00,0.0053
3662.00,0.0053
3661.00,0.0053
3660.00,0.0053
3659.00,0.0053
3658.00,0.0053
3657.00,0.0053
3656.00,0.0053
3655.00,0.0053
3654.00,0.0053
3653.00,0.0054
3652.00,0.0054
3651.00,0.0054
3650.00,0.0054
3649.00,0.0054
3648.00,0.0054
3647.00,0.0055
3646.00,0.0055
3645.00,0.0055
3644.00,0.0054
3643.00,0.0054
3642.00,0.0054
3641.00,0.0054
3640.00,0.0054
3639.00,0.0054
3638.00,0.0054
3637.00,0.0054
3636.00,0.0055
3635.00,0.0055
3634.00,0.0056
3633.00,0.0056
3632.00,0.0057
3631.00,0.0057
3630.00,0.0058
3629.00,0.0058
3628.00,0.0058
3627.00,0.0058
3626.00,0.0058
3625.00,0.0058
3624.00,0.0058
3623.00,0.0058
3622.00,0.0058
3621.00,0.0058
3620.00,0.0058
3619.00,0.0058
3618.00,0.0058
3617.00,0.0058
3616.00,0.0058
3615.00,0.0058
3614.00,0.0058
3613.00,0.0058
3612.00,0.0058
3611.00,0.0059
3610.00,0.0059
3609.00,0.0059
3608.00,0.0059
3607.00,0.0058
3606.00,0.0058
3605.00,0.0058
3604.00,0.0058
3603.00,0.0058
3602.00,0.0058
3601.00,0.0058
3600.00,0.0058
3599.00,0.0058
3598.00,0.0058
3597.00,0.0058
3596.00,0.0058
3595.00,0.0058
3594.00,0.0058
3593.00,0.0058
3592.00,0.0058
3591.00,0.0058
3590.00,0.0058
3589.00,0.0058
3588.00,0.0058
3587.00,0.0058
3586.00,0.0058
3585.00,0.0058
3584.00,0.0058
3583.00,0.0058
3582.00,0.0058
3581.00,0.0058
3580.00,0.0058
3579.00,0.0058
3578.00,0.0058
3577.00,0.0058
3576.00,0.0058
3575.00,0.0058
3574.00,0.0058
3573.00,0.0058
3572.00,0.0058
3571.00,0.0058
3570.00,0.0058
3569.00,0.0058
3568.00,0.0058
3567.00,0.0058
3566.00,0.0059
3565.00,0.0059
3564.00,0.0059
3563.00,0.0058
3562.00,0.0058
3561.00,0.0058
3560.00,0.0058
3559.00,0.0058
3558.00,0.0058
3557.00,0.0058
3556.00,0.0058
3555.00,0.0058
3554.00,0.0058
3553.00,0.0058
3552.00,0.0058
3551.00,0.0058
3550.00,0.0058
3549.00,0.0058
3548.00,0.0058
3547.00,0.0058
3546.00,0.0058
3545.00,0.0059
3544.00,0.0059
3543.00,0.0059
3542.00,0.0059
3541.00,0.0059
3540.00,0.0059
3539.00,0.0059
3538.00,0.0059
3537.00,0.0059
3536.00,0.0059
3535.00,0.0059
3534.00,0.0059
3533.00,0.0059
3532.00,0.0059
3531.00,0.0059
3530.00,0.0059
3529.00,0.0059
3528.00,0.0059
3527.00,0.0059
3526.00,0.0059
3525.00,0.0059
3524.00,0.0058
3523.00,0.0058
3522.00,0.0057
3521.00,0.0056
3520.00,0.0055
3519.00,0.0053
3518.00,0.0052
3517.00,0.0051
3516.00,0.0051
3515.00,0.0050
3514.00,0.0050
3513.00,0.0049
3512.00,0.0049
3511.00,0.0050
3510.00,0.0050
3509.00,0.0050
3508.00,0.0051
3507.00,0.0051
3506.00,0.0052
3505.00,0.0052
3504.00,0.0053
3503.00,0.0053
3502.00,0.0054
3501.00,0.0055
3500.00,0.0056
3499.00,0.0056
3498.00,0.0056
3497.00,0.0057
3496.00,0.0057
3495.00,0.0057
3494.00,0.0057
3493.00,0.0058
3492.00,0.0058
3491.00,0.0058
3490.00,0.0058
3489.00,0.0058
3488.00,0.0059
3487.00,0.0059
3486.00,0.0059
3485.00,0.0059
3484.00,0.0059
3483.00,0.0059
3482.00,0.0059
3481.00,0.0059
3480.00,0.0059
3479.00,0.0059
3478.00,0.0060
3477.00,0.0060
3476.00,0.0060
3475.00,0.0060
3474.00,0.0060
3473.00,0.0060
3472.00,0.0060
3471.00,0.0060
3470.00,0.0060
3469.00,0.0060
3468.00,0.0060
3467.00,0.0060
3466.00,0.0060
3465.00,0.0060
3464.00,0.0060
3463.00,0.0060
3462.00,0.0060
3461.00,0.0060
3460.00,0.0060
3459.00,0.0061
3458.00,0.0061
3457.00,0.0061
3456.00,0.0061
3455.00,0.0061
3454.00,0.0060
3453.00,0.0060
3452.00,0.0060
3451.00,0.0060
3450.00,0.0060
3449.00,0.0060
3448.00,0.0061
3447.00,0.0061
3446.00,0.0061
3445.00,0.0061
3444.00,0.0061
3443.00,0.0061
3442.00,0.0061
3441.00,0.0061
3440.00,0.0061
3439.00,0.0061
3438.00,0.0060
3437.00,0.0060
3436.00,0.0060
3435.00,0.0060
3434.00,0.0060
3433.00,0.0060
3432.00,0.0060
3431.00,0.0060
3430.00,0.0060
3429.00,0.0060
3428.00,0.0060
3427.00,0.0060
3426.00,0.0060
3425.00,0.0060
3424.00,0.0060
3423.00,0.0060
3422.00,0.0060
3421.00,0.0060
3420.00,0.0060
3419.00,0.0060
3418.00,0.0060
3417.00,0.0060
3416.00,0.0060
3415.00,0.0060
3414.00,0.0060
3413.00,0.0060
3412.00,0.0060
3411.00,0.0060
3410.00,0.0059
3409.00,0.0059
3408.00,0.0059
3407.00,0.0059
3406.00,0.0059
3405.00,0.0058
3404.00,0.0058
3403.00,0.0058
3402.00,0.0057
3401.00,0.0057
3400.00,0.0057
3399.00,0.0057
3398.00,0.0057
3397.00,0.0058
3396.00,0.0058
3395.00,0.0058
3394.00,0.0059
3393.00,0.0059
3392.00,0.0060
3391.00,0.0061
3390.00,0.0062
3389.00,0.0062
3388.00,0.0063
3387.00,0.0064
3386.00,0.0065
3385.00,0.0066
3384.00,0.0067
3383.00,0.0068
3382.00,0.0069
3381.00,0.0069
3380.00,0.0070
3379.00,0.0071
3378.00,0.0071
3377.00,0.0072
3376.00,0.0073
3375.00,0.0073
3374.00,0.0074
3373.00,0.0074
3372.00,0.0075
3371.00,0.0075
3370.00,0.0076
3369.00,0.0076
3368.00,0.0077
3367.00,0.0077
3366.00,0.0078
3365.00,0.0078
3364.00,0.0079
3363.00,0.0079
3362.00,0.0080
3361.00,0.0080
3360.00,0.0081
3359.00,0.0081
3358.00,0.0082
3357.00,0.0082
3356.00,0.0082
3355.00,0.0083
3354.00,0.0083
3353.00,0.0083
3352.00,0.0084
3351.00,0.0084
3350.00,0.0085
3349.00,0.0085
3348.00,0.0086
3347.00,0.0086
3346.00,0.0087
3345.00,0.0087
3344.00,0.0088
3343.00,0.0088
3342.00,0.0089
3341.00,0.0089
3340.00,0.0089
3339.00,0.0090
3338.00,0.0090
3337.00,0.0091
3336.00,0.0092
3335.00,0.0092
3334.00,0.0093
3333.00,0.0093
3332.00,0.0094
3331.00,0.0094
3330.00,0.0094
3329.00,0.0095
3328.00,0.0095
3327.00,0.0096
3326.00,0.0096
3325.00,0.0097
3324.00,0.0098
3323.00,0.0098
3322.00,0.0099
3321.00,0.0099
3320.00,0.0100
3319.00,0.0100
3318.00,0.0101
3317.00,0.0101
3316.00,0.0102
3315.00,0.0102
3314.00,0.0103
3313.00,0.0103
3312.00,0.0104
3311.00,0.0104
3310.00,0.0104
3309.00,0.0105
3308.00,0.0105
3307.00,0.0105
3306.00,0.0106
3305.00,0.0107
3304.00,0.0107
3303.00,0.0108
3302.00,0.0109
3301.00,0.0109
3300.00,0.0110
3299.00,0.0110
3298.00,0.0111
3297.00,0.0111
3296.00,0.0112
3295.00,0.0112
3294.00,0.0113
3293.00,0.0114
3292.00,0.0114
3291.00,0.0115
3290.00,0.0116
3289.00,0.0117
3288.00,0.0118
3287.00,0.0119
3286.00,0.0119
3285.00,0.0120
3284.00,0.0121
3283.00,0.0121
3282.00,0.0122
3281.00,0.0122
3280.00,0.0123
3279.00,0.0124
3278.00,0.0125
3277.00,0.0125
3276.00,0.0126
3275.00,0.0126
3274.00,0.0127
3273.00,0.0127
3272.00,0.0128
3271.00,0.0129
3270.00,0.0130
3269.00,0.0132
3268.00,0.0133
3267.00,0.0134
3266.00,0.0136
3265.00,0.0137
3264.00,0.0137
3263.00,0.0138
3262.00,0.0140
3261.00,0.0141
3260.00,0.0142
3259.00,0.0143
3258.00,0.0143
3257.00,0.0144
3256.00,0.0145
3255.00,0.0146
3254.00,0.0148
3253.00,0.0149
3252.00,0.0151
3251.00,0.0151
3250.00,0.0152
3249.00,0.0152
3248.00,0.0153
3247.00,0.0154
3246.00,0.0156
3245.00,0.0158
3244.00,0.0160
3243.00,0.0162
3242.00,0.0163
3241.00,0.0164
3240.00,0.0166
3239.00,0.0167
3238.00,0.0167
3237.00,0.0167
3236.00,0.0167
3235.00,0.0167
3234.00,0.0168
3233.00,0.0170
3232.00,0.0173
3231.00,0.0176
3230.00,0.0178
3229.00,0.0180
3228.00,0.0182
3227.00,0.0183
3226.00,0.0185
3225.00,0.0186
3224.00,0.0187
3223.00,0.0188
3222.00,0.0189
3221.00,0.0190
3220.00,0.0191
3219.00,0.0192
3218.00,0.0193
3217.00,0.0194
3216.00,0.0195
3215.00,0.0196
3214.00,0.0197
3213.00,0.0198
3212.00,0.0199
3211.00,0.0200
3210.00,0.0200
3209.00,0.0201
3208.00,0.0201
3207.00,0.0201
3206.00,0.0202
3205.00,0.0202
3204.00,0.0203
3203.00,0.0203
3202.00,0.0204
3201.00,0.0205
3200.00,0.0205
3199.00,0.0206
3198.00,0.0206
3197.00,0.0207
3196.00,0.0207
3195.00,0.0207
3194.00,0.0208
3193.00,0.0208
3192.00,0.0209
3191.00,0.0209
3190.00,0.0210
3189.00,0.0211
3188.00,0.0211
3187.00,0.0212
3186.00,0.0213
3185.00,0.0214
3184.00,0.0214
3183.00,0.0215
3182.00,0.0215
3181.00,0.0216
3180.00,0.0217
3179.00,0.0217
3178.00,0.0218
3177.00,0.0218
3176.00,0.0219
3175.00,0.0219
3174.00,0.0220
3173.00,0.0221
3172.00,0.0221
3171.00,0.0222
3170.00,0.0223
3169.00,0.0223
3168.00,0.0224
3167.00,0.0225
3166.00,0.0226
3165.00,0.0226
3164.00,0.0227
3163.00,0.0228
3162.00,0.0230
3161.00,0.0231
3160.00,0.0232
3159.00,0.0233
3158.00,0.0234
3157.00,0.0234
3156.00,0.0235
3155.00,0.0236
3154.00,0.0236
3153.00,0.0237
3152.00,0.0239
3151.00,0.0240
3150.00,0.0242
3149.00,0.0244
3148.00,0.0246
3147.00,0.0247
3146.00,0.0249
3145.00,0.0250
3144.00,0.0251
3143.00,0.0252
3142.00,0.0253
3141.00,0.0254
3140.00,0.0255
3139.00,0.0256
3138.00,0.0259
3137.00,0.0261
3136.00,0.0263
3135.00,0.0265
3134.00,0.0266
3133.00,0.0267
3132.00,0.0268
3131.00,0.0269
3130.00,0.0271
3129.00,0.0272
3128.00,0.0273
3127.00,0.0275
3126.00,0.0276
3125.00,0.0276
3124.00,0.0277
3123.00,0.0277
3122.00,0.0277
3121.00,0.0277
3120.00,0.0277
3119.00,0.0278
3118.00,0.0279
3117.00,0.0280
3116.00,0.0282
3115.00,0.0284
3114.00,0.0286
3113.00,0.0288
3112.00,0.0289
3111.00,0.0290
3110.00,0.0291
3109.00,0.0293
3108.00,0.0294
3107.00,0.0296
3106.00,0.0298
3105.00,0.0299
3104.00,0.0301
3103.00,0.0303
3102.00,0.0304
3101.00,0.0306
3100.00,0.0307
3099.00,0.0309
3098.00,0.0311
3097.00,0.0313
3096.00,0.0314
3095.00,0.0316
3094.00,0.0318
3093.00,0.0320
3092.00,0.0321
3091.00,0.0323
3090.00,0.0325
3089.00,0.0327
3088.00,0.0329
3087.00,0.0332
3086.00,0.0334
3085.00,0.0337
3084.00,0.0340
3083.00,0.0343
3082.00,0.0346
3081.00,0.0350
3080.00,0.0353
3079.00,0.0357
3078.00,0.0360
3077.00,0.0364
3076.00,0.0367
3075.00,0.0371
3074.00,0.0374
3073.00,0.0377
3072.00,0.0379
3071.00,0.0382
3070.00,0.0384
3069.00,0.0386
3068.00,0.0387
3067.00,0.0389
3066.00,0.0390
3065.00,0.0391
3064.00,0.0391
3063.00,0.0392
3062.00,0.0392
3061.00,0.0392
3060.00,0.0392
3059.00,0.0392
3058.00,0.0392
3057.00,0.0393
3056.00,0.0393
3055.00,0.0394
3054.00,0.0395
3053.00,0.0396
3052.00,0.0397
3051.00,0.0398
3050.00,0.0399
3049.00,0.0400
3048.00,0.0401
3047.00,0.0402
3046.00,0.0403
3045.00,0.0404
3044.00,0.0405
3043.00,0.0406
3042.00,0.0407
3041.00,0.0408
3040.00,0.0409
3039.00,0.0410
3038.00,0.0411
3037.00,0.0412
3036.00,0.0412
3035.00,0.0413
3034.00,0.0414
3033.00,0.0415
3032.00,0.0416
3031.00,0.0417
3030.00,0.0418
3029.00,0.0419
3028.00,0.0420
3027.00,0.0421
3026.00,0.0421
3025.00,0.0422
3024.00,0.0423
3023.00,0.0424
3022.00,0.0424
3021.00,0.0424
3020.00,0.0425
3019.00,0.0425
3018.00,0.0425
3017.00,0.0425
3016.00,0.0425
3015.00,0.0426
3014.00,0.0426
3013.00,0.0426
3012.00,0.0426
3011.00,0.0426
3010.00,0.0426
3009.00,0.0426
3008.00,0.0426
3007.00,0.0426
3006.00,0.0427
3005.00,0.0427
3004.00,0.0428
3003.00,0.0429
3002.00,0.0431
3001.00,0.0432
3000.00,0.0435
2999.00,0.0438
2998.00,0.0441
2997.00,0.0446
2996.00,0.0450
2995.00,0.0456
2994.00,0.0461
2993.00,0.0467
2992.00,0.0474
2991.00,0.0481
2990.00,0.0490
2989.00,0.0499
2988.00,0.0510
2987.00,0.0521
2986.00,0.0533
2985.00,0.0544
2984.00,0.0554
2983.00,0.0563
2982.00,0.0571
2981.00,0.0580
2980.00,0.0589
2979.00,0.0599
2978.00,0.0608
2977.00,0.0616
2976.00,0.0622
2975.00,0.0625
2974.00,0.0627
2973.00,0.0627
2972.00,0.0627
2971.00,0.0629
2970.00,0.0635
2969.00,0.0644
2968.00,0.0656
2967.00,0.0669
2966.00,0.0684
2965.00,0.0698
2964.00,0.0712
2963.00,0.0724
2962.00,0.0735
2961.00,0.0743
2960.00,0.0748
2959.00,0.0750
2958.00,0.0750
2957.00,0.0747
2956.00,0.0743
2955.00,0.0739
2954.00,0.0734
2953.00,0.0730
2952.00,0.0727
2951.00,0.0727
2950.00,0.0728
2949.00,0.0732
2948.00,0.0738
2947.00,0.0747
2946.00,0.0758
2945.00,0.0773
2944.00,0.0790
2943.00,0.0809
2942.00,0.0829
2941.00,0.0846
2940.00,0.0859
2939.00,0.0867
2938.00,0.0870
2937.00,0.0871
2936.00,0.0871
2935.00,0.0873
2934.00,0.0876
2933.00,0.0881
2932.00,0.0887
2931.00,0.0893
2930.00,0.0898
2929.00,0.0903
2928.00,0.0907
2927.00,0.0908
2926.00,0.0909
2925.00,0.0907
2924.00,0.0903
2923.00,0.0897
2922.00,0.0889
2921.00,0.0880
2920.00,0.0871
2919.00,0.0862
2918.00,0.0852
2917.00,0.0843
2916.00,0.0834
2915.00,0.0824
2914.00,0.0815
2913.00,0.0806
2912.00,0.0797
2911.00,0.0789
2910.00,0.0781
2909.00,0.0775
2908.00,0.0770
2907.00,0.0765
2906.00,0.0763
2905.00,0.0761
2904.00,0.0760
2903.00,0.0761
2902.00,0.0762
2901.00,0.0763
2900.00,0.0764
2899.00,0.0764
2898.00,0.0763
2897.00,0.0761
2896.00,0.0759
2895.00,0.0757
2894.00,0.0756
2893.00,0.0755
2892.00,0.0756
2891.00,0.0757
2890.00,0.0758
2889.00,0.0759
2888.00,0.0758
2887.00,0.0756
2886.00,0.0751
2885.00,0.0744
2884.00,0.0737
2883.00,0.0731
2882.00,0.0725
2881.00,0.0722
2880.00,0.0722
2879.00,0.0723
2878.00,0.0726
2877.00,0.0731
2876.00,0.0737
2875.00,0.0743
2874.00,0.0748
2873.00,0.0753
2872.00,0.0756
2871.00,0.0757
2870.00,0.0757
2869.00,0.0755
2868.00,0.0752
2867.00,0.0749
2866.00,0.0746
2865.00,0.0743
2864.00,0.0739
2863.00,0.0735
2862.00,0.0731
2861.00,0.0726
2860.00,0.0721
2859.00,0.0716
2858.00,0.0711
2857.00,0.0707
2856.00,0.0703
2855.00,0.0699
2854.00,0.0695
2853.00,0.0691
2852.00,0.0688
2851.00,0.0685
2850.00,0.0681
2849.00,0.0676
2848.00,0.0671
2847.00,0.0664
2846.00,0.0656
2845.00,0.0647
2844.00,0.0640
2843.00,0.0633
2842.00,0.0628
2841.00,0.0626
2840.00,0.0626
2839.00,0.0629
2838.00,0.0634
2837.00,0.0640
2836.00,0.0647
2835.00,0.0653
2834.00,0.0657
2833.00,0.0659
2832.00,0.0657
2831.00,0.0653
2830.00,0.0646
2829.00,0.0638
2828.00,0.0627
2827.00,0.0616
2826.00,0.0604
2825.00,0.0593
2824.00,0.0582
2823.00,0.0572
2822.00,0.0563
2821.00,0.0556
2820.00,0.0549
2819.00,0.0542
2818.00,0.0537
2817.00,0.0531
2816.00,0.0526
2815.00,0.0522
2814.00,0.0518
2813.00,0.0513
2812.00,0.0510
2811.00,0.0506
2810.00,0.0503
2809.00,0.0499
2808.00,0.0497
2807.00,0.0494
2806.00,0.0491
2805.00,0.0488
2804.00,0.0485
2803.00,0.0483
2802.00,0.0480
2801.00,0.0477
2800.00,0.0475
2799.00,0.0472
2798.00,0.0469
2797.00,0.0467
2796.00,0.0465
2795.00,0.0462
2794.00,0.0459
2793.00,0.0457
2792.00,0.0454
2791.00,0.0451
2790.00,0.0449
2789.00,0.0446
2788.00,0.0443
2787.00,0.0440
2786.00,0.0438
2785.00,0.0435
2784.00,0.0432
2783.00,0.0430
2782.00,0.0427
2781.00,0.0424
2780.00,0.0422
2779.00,0.0419
2778.00,0.0417
2777.00,0.0414
2776.00,0.0412
2775.00,0.0410
2774.00,0.0408
2773.00,0.0406
2772.00,0.0404
2771.00,0.0403
2770.00,0.0401
2769.00,0.0399
2768.00,0.0398
2767.00,0.0397
2766.00,0.0395
2765.00,0.0394
2764.00,0.0393
2763.00,0.0392
2762.00,0.0391
2761.00,0.0391
2760.00,0.0390
2759.00,0.0389
2758.00,0.0389
2757.00,0.0388
2756.00,0.0388
2755.00,0.0387
2754.00,0.0386
2753.00,0.0386
2752.00,0.0385
2751.00,0.0385
2750.00,0.0385
2749.00,0.0384
2748.00,0.0384
2747.00,0.0384
2746.00,0.0384
2745.00,0.0384
2744.00,0.0383
2743.00,0.0383
2742.00,0.0382
2741.00,0.0382
2740.00,0.0381
2739.00,0.0381
2738.00,0.0380
2737.00,0.0380
2736.00,0.0379
2735.00,0.0379
2734.00,0.0379
2733.00,0.0379
2732.00,0.0378
2731.00,0.0378
2730.00,0.0378
2729.00,0.0379
2728.00,0.0379
2727.00,0.0379
2726.00,0.0378
2725.00,0.0378
2724.00,0.0377
2723.00,0.0376
2722.00,0.0374
2721.00,0.0372
2720.00,0.0370
2719.00,0.0368
2718.00,0.0367
2717.00,0.0365
2716.00,0.0364
2715.00,0.0362
2714.00,0.0361
2713.00,0.0361
2712.00,0.0360
2711.00,0.0359
2710.00,0.0358
2709.00,0.0358
2708.00,0.0358
2707.00,0.0357
2706.00,0.0357
2705.00,0.0356
2704.00,0.0356
2703.00,0.0355
2702.00,0.0355
2701.00,0.0355
2700.00,0.0354
2699.00,0.0354
2698.00,0.0354
2697.00,0.0354
2696.00,0.0354
2695.00,0.0355
2694.00,0.0355
2693.00,0.0355
2692.00,0.0355
2691.00,0.0356
2690.00,0.0356
2689.00,0.0357
2688.00,0.0357
2687.00,0.0357
2686.00,0.0358
2685.00,0.0358
2684.00,0.0359
2683.00,0.0359
2682.00,0.0359
2681.00,0.0359
2680.00,0.0359
2679.00,0.0358
2678.00,0.0358
2677.00,0.0357
2676.00,0.0357
2675.00,0.0356
2674.00,0.0355
2673.00,0.0355
2672.00,0.0354
2671.00,0.0354
2670.00,0.0353
2669.00,0.0353
2668.00,0.0352
2667.00,0.0352
2666.00,0.0352
2665.00,0.0352
2664.00,0.0352
2663.00,0.0352
2662.00,0.0352
2661.00,0.0352
2660.00,0.0351
2659.00,0.0351
2658.00,0.0351
2657.00,0.0350
2656.00,0.0350
2655.00,0.0350
2654.00,0.0349
2653.00,0.0349
2652.00,0.0349
2651.00,0.0348
2650.00,0.0348
2649.00,0.0348
2648.00,0.0348
2647.00,0.0347
2646.00,0.0347
2645.00,0.0346
2644.00,0.0346
2643.00,0.0345
2642.00,0.0344
2641.00,0.0344
2640.00,0.0343
2639.00,0.0342
2638.00,0.0341
2637.00,0.0340
2636.00,0.0340
2635.00,0.0339
2634.00,0.0338
2633.00,0.0338
2632.00,0.0337
2631.00,0.0336
2630.00,0.0336
2629.00,0.0335
2628.00,0.0335
2627.00,0.0334
2626.00,0.0334
2625.00,0.0334
2624.00,0.0333
2623.00,0.0333
2622.00,0.0333
2621.00,0.0332
2620.00,0.0332
2619.00,0.0332
2618.00,0.0332
2617.00,0.0332
2616.00,0.0332
2615.00,0.0332
2614.00,0.0332
2613.00,0.0332
2612.00,0.0332
2611.00,0.0332
2610.00,0.0331
2609.00,0.0331
2608.00,0.0330
2607.00,0.0330
2606.00,0.0330
2605.00,0.0330
2604.00,0.0329
2603.00,0.0329
2602.00,0.0329
2601.00,0.0329
2600.00,0.0329
2599.00,0.0329
2598.00,0.0329
2597.00,0.0329
2596.00,0.0329
2595.00,0.0330
2594.00,0.0331
2593.00,0.0331
2592.00,0.0332
2591.00,0.0334
2590.00,0.0335
2589.00,0.0336
2588.00,0.0338
2587.00,0.0339
2586.00,0.0341
2585.00,0.0343
2584.00,0.0345
2583.00,0.0346
2582.00,0.0348
2581.00,0.0350
2580.00,0.0351
2579.00,0.0352
2578.00,0.0353
2577.00,0.0354
2576.00,0.0354
2575.00,0.0354
2574.00,0.0355
2573.00,0.0355
2572.00,0.0355
2571.00,0.0355
2570.00,0.0355
2569.00,0.0354
2568.00,0.0354
2567.00,0.0353
2566.00,0.0353
2565.00,0.0352
2564.00,0.0352
2563.00,0.0351
2562.00,0.0351
2561.00,0.0351
2560.00,0.0350
2559.00,0.0350
2558.00,0.0349
2557.00,0.0349
2556.00,0.0348
2555.00,0.0348
2554.00,0.0348
2553.00,0.0347
2552.00,0.0347
2551.00,0.0347
2550.00,0.0346
2549.00,0.0346
2548.00,0.0346
2547.00,0.0346
2546.00,0.0346
2545.00,0.0345
2544.00,0.0345
2543.00,0.0344
2542.00,0.0343
2541.00,0.0343
2540.00,0.0342
2539.00,0.0341
2538.00,0.0340
2537.00,0.0339
2536.00,0.0338
2535.00,0.0337
2534.00,0.0336
2533.00,0.0336
2532.00,0.0335
2531.00,0.0334
2530.00,0.0333
2529.00,0.0333
2528.00,0.0332
2527.00,0.0331
2526.00,0.0331
2525.00,0.0330
2524.00,0.0330
2523.00,0.0330
2522.00,0.0330
2521.00,0.0329
2520.00,0.0330
2519.00,0.0329
2518.00,0.0329
2517.00,0.0329
2516.00,0.0328
2515.00,0.0327
2514.00,0.0326
2513.00,0.0324
2512.00,0.0322
2511.00,0.0320
2510.00,0.0318
2509.00,0.0315
2508.00,0.0313
2507.00,0.0311
2506.00,0.0308
2505.00,0.0305
2504.00,0.0302
2503.00,0.0299
2502.00,0.0296
2501.00,0.0293
2500.00,0.0290
2499.00,0.0287
2498.00,0.0284
2497.00,0.0282
2496.00,0.0279
2495.00,0.0276
2494.00,0.0274
2493.00,0.0272
2492.00,0.0269
2491.00,0.0267
2490.00,0.0265
2489.00,0.0262
2488.00,0.0260
2487.00,0.0259
2486.00,0.0256
2485.00,0.0254
2484.00,0.0252
2483.00,0.0250
2482.00,0.0248
2481.00,0.0247
2480.00,0.0245
2479.00,0.0243
2478.00,0.0242
2477.00,0.0240
2476.00,0.0239
2475.00,0.0237
2474.00,0.0236
2473.00,0.0234
2472.00,0.0233
2471.00,0.0232
2470.00,0.0231
2469.00,0.0229
2468.00,0.0228
2467.00,0.0227
2466.00,0.0226
2465.00,0.0225
2464.00,0.0224
2463.00,0.0223
2462.00,0.0222
2461.00,0.0221
2460.00,0.0220
2459.00,0.0219
2458.00,0.0218
2457.00,0.0218
2456.00,0.0217
2455.00,0.0216
2454.00,0.0215
2453.00,0.0214
2452.00,0.0213
2451.00,0.0212
2450.00,0.0211
2449.00,0.0210
2448.00,0.0209
2447.00,0.0208
2446.00,0.0206
2445.00,0.0205
2444.00,0.0204
2443.00,0.0203
2442.00,0.0202
2441.00,0.0201
2440.00,0.0200
2439.00,0.0198
2438.00,0.0197
2437.00,0.0196
2436.00,0.0195
2435.00,0.0194
2434.00,0.0193
2433.00,0.0192
2432.00,0.0191
2431.00,0.0190
2430.00,0.0189
2429.00,0.0188
2428.00,0.0187
2427.00,0.0186
2426.00,0.0186
2425.00,0.0185
2424.00,0.0184
2423.00,0.0183
2422.00,0.0182
2421.00,0.0181
2420.00,0.0180
2419.00,0.0179
2418.00,0.0178
2417.00,0.0177
2416.00,0.0176
2415.00,0.0175
2414.00,0.0174
2413.00,0.0173
2412.00,0.0173
2411.00,0.0172
2410.00,0.0171
2409.00,0.0170
2408.00,0.0169
2407.00,0.0168
2406.00,0.0167
2405.00,0.0167
2404.00,0.0166
2403.00,0.0165
2402.00,0.0164
2401.00,0.0164
2400.00,0.0163
2399.00,0.0162
2398.00,0.0162
2397.00,0.0161
2396.00,0.0161
2395.00,0.0160
2394.00,0.0159
2393.00,0.0159
2392.00,0.0158
2391.00,0.0158
2390.00,0.0157
2389.00,0.0156
2388.00,0.0156
2387.00,0.0155
2386.00,0.0155
2385.00,0.0154
2384.00,0.0153
2383.00,0.0153
2382.00,0.0152
2381.00,0.0152
2380.00,0.0151
2379.00,0.0151
2378.00,0.0150
2377.00,0.0150
2376.00,0.0149
2375.00,0.0149
2374.00,0.0148
2373.00,0.0147
2372.00,0.0147
2371.00,0.0146
2370.00,0.0145
2369.00,0.0145
2368.00,0.0144
2367.00,0.0144
2366.00,0.0144
2365.00,0.0143
2364.00,0.0143
2363.00,0.0143
2362.00,0.0142
2361.00,0.0142
2360.00,0.0142
2359.00,0.0141
2358.00,0.0141
2357.00,0.0141
2356.00,0.0140
2355.00,0.0140
2354.00,0.0139
2353.00,0.0138
2352.00,0.0138
2351.00,0.0138
2350.00,0.0137
2349.00,0.0137
2348.00,0.0136
2347.00,0.0135
2346.00,0.0134
2345.00,0.0134
2344.00,0.0134
2343.00,0.0134
2342.00,0.0134
2341.00,0.0134
2340.00,0.0134
2339.00,0.0134
2338.00,0.0134
2337.00,0.0133
2336.00,0.0133
2335.00,0.0133
2334.00,0.0132
2333.00,0.0132
2332.00,0.0131
2331.00,0.0131
2330.00,0.0131
2329.00,0.0131
2328.00,0.0132
2327.00,0.0132
2326.00,0.0132
2325.00,0.0131
2324.00,0.0129
2323.00,0.0128
2322.00,0.0128
2321.00,0.0128
2320.00,0.0128
2319.00,0.0128
2318.00,0.0128
2317.00,0.0128
2316.00,0.0127
2315.00,0.0126
2314.00,0.0126
2313.00,0.0125
2312.00,0.0125
2311.00,0.0124
2310.00,0.0124
2309.00,0.0124
2308.00,0.0124
2307.00,0.0124
2306.00,0.0123
2305.00,0.0123
2304.00,0.0122
2303.00,0.0122
2302.00,0.0121
2301.00,0.0121
2300.00,0.0120
2299.00,0.0120
2298.00,0.0120
2297.00,0.0120
2296.00,0.0119
2295.00,0.0119
2294.00,0.0118
2293.00,0.0118
2292.00,0.0118
2291.00,0.0118
2290.00,0.0117
2289.00,0.0117
2288.00,0.0116
2287.00,0.0116
2286.00,0.0116
2285.00,0.0116
2284.00,0.0115
2283.00,0.0115
2282.00,0.0115
2281.00,0.0114
2280.00,0.0114
2279.00,0.0114
2278.00,0.0113
2277.00,0.0112
2276.00,0.0112
2275.00,0.0111
2274.00,0.0111
2273.00,0.0110
2272.00,0.0109
2271.00,0.0108
2270.00,0.0107
2269.00,0.0106
2268.00,0.0105
2267.00,0.0104
2266.00,0.0103
2265.00,0.0103
2264.00,0.0102
2263.00,0.0102
2262.00,0.0102
2261.00,0.0102
2260.00,0.0102
2259.00,0.0101
2258.00,0.0100
2257.00,0.0100
2256.00,0.0099
2255.00,0.0099
2254.00,0.0099
2253.00,0.0099
2252.00,0.0099
2251.00,0.0099
2250.00,0.0098
2249.00,0.0098
2248.00,0.0098
2247.00,0.0098
2246.00,0.0097
2245.00,0.0097
2244.00,0.0096
2243.00,0.0096
2242.00,0.0096
2241.00,0.0095
2240.00,0.0095
2239.00,0.0094
2238.00,0.0094
2237.00,0.0094
2236.00,0.0094
2235.00,0.0093
2234.00,0.0093
2233.00,0.0093
2232.00,0.0092
2231.00,0.0092
2230.00,0.0092
2229.00,0.0093
2228.00,0.0093
2227.00,0.0093
2226.00,0.0093
2225.00,0.0093
2224.00,0.0093
2223.00,0.0093
2222.00,0.0093
2221.00,0.0093
2220.00,0.0093
2219.00,0.0093
2218.00,0.0093
2217.00,0.0092
2216.00,0.0092
2215.00,0.0091
2214.00,0.0091
2213.00,0.0091
2212.00,0.0091
2211.00,0.0092
2210.00,0.0092
2209.00,0.0093
2208.00,0.0094
2207.00,0.0095
2206.00,0.0094
2205.00,0.0094
2204.00,0.0093
2203.00,0.0092
2202.00,0.0092
2201.00,0.0092
2200.00,0.0092
2199.00,0.0092
2198.00,0.0092
2197.00,0.0091
2196.00,0.0091
2195.00,0.0091
2194.00,0.0091
2193.00,0.0091
2192.00,0.0092
2191.00,0.0092
2190.00,0.0092
2189.00,0.0092
2188.00,0.0091
2187.00,0.0091
2186.00,0.0090
2185.00,0.0090
2184.00,0.0090
2183.00,0.0090
2182.00,0.0090
2181.00,0.0091
2180.00,0.0091
2179.00,0.0090
2178.00,0.0088
2177.00,0.0088
2176.00,0.0088
2175.00,0.0088
2174.00,0.0089
2173.00,0.0089
2172.00,0.0090
2171.00,0.0090
2170.00,0.0090
2169.00,0.0089
2168.00,0.0089
2167.00,0.0088
2166.00,0.0088
2165.00,0.0089
2164.00,0.0089
2163.00,0.0088
2162.00,0.0083
2161.00,0.0078
2160.00,0.0074
2159.00,0.0071
2158.00,0.0072
2157.00,0.0073
2156.00,0.0075
2155.00,0.0076
2154.00,0.0076
2153.00,0.0077
2152.00,0.0078
2151.00,0.0078
2150.00,0.0078
2149.00,0.0079
2148.00,0.0079
2147.00,0.0079
2146.00,0.0078
2145.00,0.0079
2144.00,0.0079
2143.00,0.0080
2142.00,0.0080
2141.00,0.0081
2140.00,0.0082
2139.00,0.0081
2138.00,0.0081
2137.00,0.0080
2136.00,0.0080
2135.00,0.0080
2134.00,0.0081
2133.00,0.0081
2132.00,0.0082
2131.00,0.0083
2130.00,0.0083
2129.00,0.0083
2128.00,0.0083
2127.00,0.0083
2126.00,0.0083
2125.00,0.0083
2124.00,0.0083
2123.00,0.0084
2122.00,0.0084
2121.00,0.0084
2120.00,0.0085
2119.00,0.0085
2118.00,0.0085
2117.00,0.0086
2116.00,0.0086
2115.00,0.0085
2114.00,0.0085
2113.00,0.0084
2112.00,0.0084
2111.00,0.0083
2110.00,0.0083
2109.00,0.0084
2108.00,0.0084
2107.00,0.0083
2106.00,0.0083
2105.00,0.0083
2104.00,0.0083
2103.00,0.0083
2102.00,0.0082
2101.00,0.0083
2100.00,0.0083
2099.00,0.0084
2098.00,0.0083
2097.00,0.0083
2096.00,0.0083
2095.00,0.0083
2094.00,0.0083
2093.00,0.0083
2092.00,0.0083
2091.00,0.0083
2090.00,0.0082
2089.00,0.0082
2088.00,0.0082
2087.00,0.0082
2086.00,0.0082
2085.00,0.0081
2084.00,0.0080
2083.00,0.0080
2082.00,0.0079
2081.00,0.0079
2080.00,0.0079
2079.00,0.0078
2078.00,0.0077
2077.00,0.0077
2076.00,0.0077
2075.00,0.0077
2074.00,0.0076
2073.00,0.0076
2072.00,0.0076
2071.00,0.0076
2070.00,0.0076
2069.00,0.0077
2068.00,0.0077
2067.00,0.0077
2066.00,0.0077
2065.00,0.0077
2064.00,0.0077
2063.00,0.0077
2062.00,0.0077
2061.00,0.0077
2060.00,0.0078
2059.00,0.0078
2058.00,0.0078
2057.00,0.0078
2056.00,0.0078
2055.00,0.0078
2054.00,0.0079
2053.00,0.0079
2052.00,0.0080
2051.00,0.0079
2050.00,0.0078
2049.00,0.0078
2048.00,0.0079
2047.00,0.0080
2046.00,0.0080
2045.00,0.0081
2044.00,0.0082
2043.00,0.0082
2042.00,0.0081
2041.00,0.0081
2040.00,0.0081
2039.00,0.0080
2038.00,0.0078
2037.00,0.0078
2036.00,0.0078
2035.00,0.0078
2034.00,0.0078
2033.00,0.0079
2032.00,0.0080
2031.00,0.0080
2030.00,0.0079
2029.00,0.0078
2028.00,0.0077
2027.00,0.0076
2026.00,0.0075
2025.00,0.0075
2024.00,0.0074
2023.00,0.0074
2022.00,0.0073
2021.00,0.0073
2020.00,0.0074
2019.00,0.0073
2018.00,0.0072
2017.00,0.0071
2016.00,0.0071
2015.00,0.0070
2014.00,0.0069
2013.00,0.0069
2012.00,0.0069
2011.00,0.0068
2010.00,0.0067
2009.00,0.0067
2008.00,0.0068
2007.00,0.0068
2006.00,0.0068
2005.00,0.0069
2004.00,0.0070
2003.00,0.0070
2002.00,0.0070
2001.00,0.0071
2000.00,0.0071
1999.00,0.0071
1998.00,0.0070
1997.00,0.0070
1996.00,0.0071
1995.00,0.0071
1994.00,0.0071
1993.00,0.0071
1992.00,0.0071
1991.00,0.0071
1990.00,0.0070
1989.00,0.0071
1988.00,0.0072
1987.00,0.0072
1986.00,0.0073
1985.00,0.0073
1984.00,0.0074
1983.00,0.0075
1982.00,0.0075
1981.00,0.0074
1980.00,0.0074
1979.00,0.0072
1978.00,0.0071
1977.00,0.0071
1976.00,0.0071
1975.00,0.0071
1974.00,0.0071
1973.00,0.0071
1972.00,0.0072
1971.00,0.0072
1970.00,0.0071
1969.00,0.0071
1968.00,0.0071
1967.00,0.0071
1966.00,0.0071
1965.00,0.0072
1964.00,0.0072
1963.00,0.0071
1962.00,0.0070
1961.00,0.0070
1960.00,0.0071
1959.00,0.0072
1958.00,0.0072
1957.00,0.0072
1956.00,0.0072
1955.00,0.0071
1954.00,0.0070
1953.00,0.0070
1952.00,0.0070
1951.00,0.0070
1950.00,0.0070
1949.00,0.0071
1948.00,0.0071
1947.00,0.0072
1946.00,0.0071
1945.00,0.0071
1944.00,0.0071
1943.00,0.0071
1942.00,0.0071
1941.00,0.0071
1940.00,0.0073
1939.00,0.0073
1938.00,0.0073
1937.00,0.0074
1936.00,0.0074
1935.00,0.0074
1934.00,0.0074
1933.00,0.0074
1932.00,0.0075
1931.00,0.0075
1930.00,0.0075
1929.00,0.0075
1928.00,0.0075
1927.00,0.0075
1926.00,0.0075
1925.00,0.0076
1924.00,0.0077
1923.00,0.0077
1922.00,0.0077
1921.00,0.0077
1920.00,0.0078
1919.00,0.0078
1918.00,0.0077
1917.00,0.0078
1916.00,0.0078
1915.00,0.0078
1914.00,0.0079
1913.00,0.0079
1912.00,0.0079
1911.00,0.0079
1910.00,0.0079
1909.00,0.0080
1908.00,0.0080
1907.00,0.0080
1906.00,0.0080
1905.00,0.0080
1904.00,0.0080
1903.00,0.0080
1902.00,0.0080
1901.00,0.0080
1900.00,0.0080
1899.00,0.0080
1898.00,0.0080
1897.00,0.0081
1896.00,0.0081
1895.00,0.0081
1894.00,0.0081
1893.00,0.0081
1892.00,0.0081
1891.00,0.0081
1890.00,0.0081
1889.00,0.0081
1888.00,0.0081
1887.00,0.0081
1886.00,0.0081
1885.00,0.0081
1884.00,0.0081
1883.00,0.0081
1882.00,0.0081
1881.00,0.0082
1880.00,0.0082
1879.00,0.0082
1878.00,0.0082
1877.00,0.0082
1876.00,0.0082
1875.00,0.0082
1874.00,0.0082
1873.00,0.0082
1872.00,0.0082
1871.00,0.0082
1870.00,0.0082
1869.00,0.0083
1868.00,0.0083
1867.00,0.0084
1866.00,0.0084
1865.00,0.0084
1864.00,0.0085
1863.00,0.0085
1862.00,0.0085
1861.00,0.0086
1860.00,0.0086
1859.00,0.0086
1858.00,0.0086
1857.00,0.0086
1856.00,0.0087
1855.00,0.0087
1854.00,0.0087
1853.00,0.0087
1852.00,0.0087
1851.00,0.0087
1850.00,0.0086
1849.00,0.0086
1848.00,0.0087
1847.00,0.0086
1846.00,0.0086
1845.00,0.0087
1844.00,0.0087
1843.00,0.0088
1842.00,0.0088
1841.00,0.0088
1840.00,0.0088
1839.00,0.0088
1838.00,0.0088
1837.00,0.0088
1836.00,0.0089
1835.00,0.0088
1834.00,0.0088
1833.00,0.0088
1832.00,0.0088
1831.00,0.0087
1830.00,0.0087
1829.00,0.0087
1828.00,0.0087
1827.00,0.0087
1826.00,0.0087
1825.00,0.0087
1824.00,0.0087
1823.00,0.0087
1822.00,0.0087
1821.00,0.0087
1820.00,0.0087
1819.00,0.0086
1818.00,0.0086
1817.00,0.0086
1816.00,0.0086
1815.00,0.0086
1814.00,0.0086
1813.00,0.0086
1812.00,0.0087
1811.00,0.0087
1810.00,0.0087
1809.00,0.0088
1808.00,0.0089
1807.00,0.0089
1806.00,0.0089
1805.00,0.0089
1804.00,0.0090
1803.00,0.0090
1802.00,0.0090
1801.00,0.0090
1800.00,0.0091
1799.00,0.0091
1798.00,0.0091
1797.00,0.0091
1796.00,0.0091
1795.00,0.0091
1794.00,0.0091
1793.00,0.0092
1792.00,0.0092
1791.00,0.0092
1790.00,0.0092
1789.00,0.0092
1788.00,0.0092
1787.00,0.0092
1786.00,0.0092
1785.00,0.0092
1784.00,0.0092
1783.00,0.0092
1782.00,0.0092
1781.00,0.0092
1780.00,0.0093
1779.00,0.0093
1778.00,0.0093
1777.00,0.0093
1776.00,0.0093
1775.00,0.0093
1774.00,0.0093
1773.00,0.0093
1772.00,0.0094
1771.00,0.0095
1770.00,0.0095
1769.00,0.0096
1768.00,0.0096
1767.00,0.0096
1766.00,0.0095
1765.00,0.0095
1764.00,0.0096
1763.00,0.0096
1762.00,0.0095
1761.00,0.0095
1760.00,0.0096
1759.00,0.0096
1758.00,0.0096
1757.00,0.0096
1756.00,0.0096
1755.00,0.0096
1754.00,0.0096
1753.00,0.0096
1752.00,0.0097
1751.00,0.0097
1750.00,0.0097
1749.00,0.0097
1748.00,0.0097
1747.00,0.0097
1746.00,0.0097
1745.00,0.0097
1744.00,0.0097
1743.00,0.0097
1742.00,0.0097
1741.00,0.0097
1740.00,0.0097
1739.00,0.0097
1738.00,0.0097
1737.00,0.0097
1736.00,0.0098
1735.00,0.0098
1734.00,0.0098
1733.00,0.0099
1732.00,0.0099
1731.00,0.0099
1730.00,0.0099
1729.00,0.0099
1728.00,0.0099
1727.00,0.0098
1726.00,0.0098
1725.00,0.0098
1724.00,0.0098
1723.00,0.0097
1722.00,0.0097
1721.00,0.0096
1720.00,0.0097
1719.00,0.0096
1718.00,0.0096
1717.00,0.0097
1716.00,0.0098
1715.00,0.0098
1714.00,0.0098
1713.00,0.0098
1712.00,0.0099
1711.00,0.0099
1710.00,0.0099
1709.00,0.0100
1708.00,0.0101
1707.00,0.0102
1706.00,0.0103
1705.00,0.0105
1704.00,0.0106
1703.00,0.0107
1702.00,0.0108
1701.00,0.0109
1700.00,0.0111
1699.00,0.0113
1698.00,0.0114
1697.00,0.0116
1696.00,0.0118
1695.00,0.0119
1694.00,0.0119
1693.00,0.0120
1692.00,0.0121
1691.00,0.0122
1690.00,0.0122
1689.00,0.0123
1688.00,0.0124
1687.00,0.0125
1686.00,0.0126
1685.00,0.0128
1684.00,0.0131
1683.00,0.0134
1682.00,0.0136
1681.00,0.0138
1680.00,0.0139
1679.00,0.0141
1678.00,0.0142
1677.00,0.0145
1676.00,0.0149
1675.00,0.0154
1674.00,0.0159
1673.00,0.0164
1672.00,0.0170
1671.00,0.0177
1670.00,0.0186
1669.00,0.0195
1668.00,0.0204
1667.00,0.0209
1666.00,0.0211
1665.00,0.0212
1664.00,0.0213
1663.00,0.0214
1662.00,0.0215
1661.00,0.0216
1660.00,0.0218
1659.00,0.0220
1658.00,0.0221
1657.00,0.0223
1656.00,0.0225
1655.00,0.0229
1654.00,0.0235
1653.00,0.0247
1652.00,0.0257
1651.00,0.0262
1650.00,0.0264
1649.00,0.0268
1648.00,0.0277
1647.00,0.0289
1646.00,0.0304
1645.00,0.0320
1644.00,0.0336
1643.00,0.0353
1642.00,0.0371
1641.00,0.0393
1640.00,0.0417
1639.00,0.0441
1638.00,0.0467
1637.00,0.0503
1636.00,0.0555
1635.00,0.0614
1634.00,0.0670
1633.00,0.0720
1632.00,0.0771
1631.00,0.0828
1630.00,0.0892
1629.00,0.0967
1628.00,0.1051
1627.00,0.1136
1626.00,0.1217
1625.00,0.1304
1624.00,0.1405
1623.00,0.1517
1622.00,0.1624
1621.00,0.1717
1620.00,0.1799
1619.00,0.1882
1618.00,0.1983
1617.00,0.2109
1616.00,0.2241
1615.00,0.2346
1614.00,0.2412
1613.00,0.2453
1612.00,0.2478
1611.00,0.2484
1610.00,0.2463
1609.00,0.2417
1608.00,0.2353
1607.00,0.2274
1606.00,0.2184
1605.00,0.2089
1604.00,0.1994
1603.00,0.1902
1602.00,0.1813
1601.00,0.1729
1600.00,0.1651
1599.00,0.1580
1598.00,0.1514
1597.00,0.1452
1596.00,0.1395
1595.00,0.1342
1594.00,0.1290
1593.00,0.1240
1592.00,0.1191
1591.00,0.1145
1590.00,0.1100
1589.00,0.1056
1588.00,0.1015
1587.00,0.0976
1586.00,0.0940
1585.00,0.0906
1584.00,0.0876
1583.00,0.0851
1582.00,0.0830
1581.00,0.0813
1580.00,0.0801
1579.00,0.0793
1578.00,0.0793
1577.00,0.0808
1576.00,0.0839
1575.00,0.0879
1574.00,0.0920
1573.00,0.0964
1572.00,0.1019
1571.00,0.1095
1570.00,0.1193
1569.00,0.1296
1568.00,0.1382
1567.00,0.1436
1566.00,0.1458
1565.00,0.1451
1564.00,0.1415
1563.00,0.1355
1562.00,0.1275
1561.00,0.1178
1560.00,0.1061
1559.00,0.0934
1558.00,0.0825
1557.00,0.0750
1556.00,0.0693
1555.00,0.0644
1554.00,0.0601
1553.00,0.0564
1552.00,0.0534
1551.00,0.0509
1550.00,0.0487
1549.00,0.0467
1548.00,0.0451
1547.00,0.0436
1546.00,0.0423
1545.00,0.0410
1544.00,0.0399
1543.00,0.0389
1542.00,0.0381
1541.00,0.0374
1540.00,0.0370
1539.00,0.0368
1538.00,0.0364
1537.00,0.0358
1536.00,0.0353
1535.00,0.0349
1534.00,0.0346
1533.00,0.0345
1532.00,0.0345
1531.00,0.0343
1530.00,0.0342
1529.00,0.0341
1528.00,0.0341
1527.00,0.0342
1526.00,0.0344
1525.00,0.0345
1524.00,0.0347
1523.00,0.0349
1522.00,0.0354
1521.00,0.0359
1520.00,0.0364
1519.00,0.0367
1518.00,0.0371
1517.00,0.0376
1516.00,0.0382
1515.00,0.0388
1514.00,0.0393
1513.00,0.0398
1512.00,0.0404
1511.00,0.0409
1510.00,0.0414
1509.00,0.0418
1508.00,0.0426
1507.00,0.0438
1506.00,0.0451
1505.00,0.0460
1504.00,0.0464
1503.00,0.0467
1502.00,0.0470
1501.00,0.0474
1500.00,0.0480
1499.00,0.0486
1498.00,0.0493
1497.00,0.0501
1496.00,0.0508
1495.00,0.0513
1494.00,0.0514
1493.00,0.0513
1492.00,0.0512
1491.00,0.0510
1490.00,0.0507
1489.00,0.0502
1488.00,0.0495
1487.00,0.0485
1486.00,0.0474
1485.00,0.0463
1484.00,0.0452
1483.00,0.0443
1482.00,0.0436
1481.00,0.0433
1480.00,0.0433
1479.00,0.0437
1478.00,0.0446
1477.00,0.0462
1476.00,0.0484
1475.00,0.0512
1474.00,0.0551
1473.00,0.0603
1472.00,0.0662
1471.00,0.0716
1470.00,0.0761
1469.00,0.0799
1468.00,0.0833
1467.00,0.0864
1466.00,0.0895
1465.00,0.0924
1464.00,0.0947
1463.00,0.0961
1462.00,0.0966
1461.00,0.0964
1460.00,0.0958
1459.00,0.0952
1458.00,0.0952
1457.00,0.0964
1456.00,0.0982
1455.00,0.0998
1454.00,0.1009
1453.00,0.1018
1452.00,0.1026
1451.00,0.1031
1450.00,0.1035
1449.00,0.1042
1448.00,0.1051
1447.00,0.1061
1446.00,0.1068
1445.00,0.1069
1444.00,0.1066
1443.00,0.1059
1442.00,0.1047
1441.00,0.1032
1440.00,0.1011
1439.00,0.0986
1438.00,0.0958
1437.00,0.0929
1436.00,0.0902
1435.00,0.0879
1434.00,0.0859
1433.00,0.0841
1432.00,0.0825
1431.00,0.0808
1430.00,0.0789
1429.00,0.0769
1428.00,0.0750
1427.00,0.0736
1426.00,0.0729
1425.00,0.0725
1424.00,0.0720
1423.00,0.0705
1422.00,0.0678
1421.00,0.0640
1420.00,0.0596
1419.00,0.0556
1418.00,0.0526
1417.00,0.0508
1416.00,0.0497
1415.00,0.0494
1414.00,0.0496
1413.00,0.0504
1412.00,0.0518
1411.00,0.0539
1410.00,0.0567
1409.00,0.0601
1408.00,0.0641
1407.00,0.0689
1406.00,0.0745
1405.00,0.0806
1404.00,0.0864
1403.00,0.0912
1402.00,0.0943
1401.00,0.0958
1400.00,0.0955
1399.00,0.0936
1398.00,0.0903
1397.00,0.0863
1396.00,0.0819
1395.00,0.0776
1394.00,0.0737
1393.00,0.0707
1392.00,0.0689
1391.00,0.0685
1390.00,0.0699
1389.00,0.0731
1388.00,0.0778
1387.00,0.0828
1386.00,0.0864
1385.00,0.0881
1384.00,0.0889
1383.00,0.0896
1382.00,0.0912
1381.00,0.0939
1380.00,0.0977
1379.00,0.1024
1378.00,0.1075
1377.00,0.1128
1376.00,0.1183
1375.00,0.1239
1374.00,0.1287
1373.00,0.1318
1372.00,0.1333
1371.00,0.1340
1370.00,0.1353
1369.00,0.1378
1368.00,0.1412
1367.00,0.1444
1366.00,0.1457
1365.00,0.1441
1364.00,0.1392
1363.00,0.1317
1362.00,0.1234
1361.00,0.1162
1360.00,0.1115
1359.00,0.1094
1358.00,0.1094
1357.00,0.1104
1356.00,0.1109
1355.00,0.1096
1354.00,0.1062
1353.00,0.1009
1352.00,0.0945
1351.00,0.0879
1350.00,0.0816
1349.00,0.0761
1348.00,0.0716
1347.00,0.0683
1346.00,0.0658
1345.00,0.0637
1344.00,0.0615
1343.00,0.0593
1342.00,0.0569
1341.00,0.0545
1340.00,0.0521
1339.00,0.0499
1338.00,0.0480
1337.00,0.0463
1336.00,0.0450
1335.00,0.0441
1334.00,0.0436
1333.00,0.0434
1332.00,0.0436
1331.00,0.0440
1330.00,0.0448
1329.00,0.0457
1328.00,0.0467
1327.00,0.0478
1326.00,0.0488
1325.00,0.0497
1324.00,0.0505
1323.00,0.0510
1322.00,0.0514
1321.00,0.0514
1320.00,0.0510
1319.00,0.0504
1318.00,0.0497
1317.00,0.0490
1316.00,0.0484
1315.00,0.0480
1314.00,0.0479
1313.00,0.0479
1312.00,0.0481
1311.00,0.0483
1310.00,0.0486
1309.00,0.0489
1308.00,0.0493
1307.00,0.0499
1306.00,0.0506
1305.00,0.0511
1304.00,0.0514
1303.00,0.0515
1302.00,0.0514
1301.00,0.0514
1300.00,0.0518
1299.00,0.0528
1298.00,0.0543
1297.00,0.0564
1296.00,0.0590
1295.00,0.0619
1294.00,0.0651
1293.00,0.0686
1292.00,0.0724
1291.00,0.0764
1290.00,0.0806
1289.00,0.0846
1288.00,0.0880
1287.00,0.0907
1286.00,0.0923
1285.00,0.0930
1284.00,0.0930
1283.00,0.0927
1282.00,0.0925
1281.00,0.0930
1280.00,0.0944
1279.00,0.0973
1278.00,0.1016
1277.00,0.1077
1276.00,0.1155
1275.00,0.1245
1274.00,0.1339
1273.00,0.1430
1272.00,0.1509
1271.00,0.1573
1270.00,0.1622
1269.00,0.1662
1268.00,0.1699
1267.00,0.1737
1266.00,0.1778
1265.00,0.1822
1264.00,0.1874
1263.00,0.1934
1262.00,0.2004
1261.00,0.2086
1260.00,0.2177
1259.00,0.2274
1258.00,0.2371
1257.00,0.2463
1256.00,0.2547
1255.00,0.2615
1254.00,0.2666
1253.00,0.2700
1252.00,0.2720
1251.00,0.2731
1250.00,0.2734
1249.00,0.2723
1248.00,0.2688
1247.00,0.2622
1246.00,0.2523
1245.00,0.2404
1244.00,0.2280
1243.00,0.2166
1242.00,0.2072
1241.00,0.2001
1240.00,0.1951
1239.00,0.1916
1238.00,0.1889
1237.00,0.1867
1236.00,0.1844
1235.00,0.1813
1234.00,0.1768
1233.00,0.1707
1232.00,0.1631
1231.00,0.1545
1230.00,0.1454
1229.00,0.1366
1228.00,0.1285
1227.00,0.1214
1226.00,0.1154
1225.00,0.1105
1224.00,0.1063
1223.00,0.1023
1222.00,0.0982
1221.00,0.0940
1220.00,0.0896
1219.00,0.0853
1218.00,0.0812
1217.00,0.0775
1216.00,0.0742
1215.00,0.0713
1214.00,0.0689
1213.00,0.0668
1212.00,0.0650
1211.00,0.0636
1210.00,0.0625
1209.00,0.0619
1208.00,0.0618
1207.00,0.0624
1206.00,0.0638
1205.00,0.0664
1204.00,0.0704
1203.00,0.0762
1202.00,0.0843
1201.00,0.0949
1200.00,0.1080
1199.00,0.1232
1198.00,0.1394
1197.00,0.1550
1196.00,0.1679
1195.00,0.1764
1194.00,0.1801
1193.00,0.1800
1192.00,0.1778
1191.00,0.1751
1190.00,0.1732
1189.00,0.1725
1188.00,0.1730
1187.00,0.1743
1186.00,0.1752
1185.00,0.1745
1184.00,0.1712
1183.00,0.1650
1182.00,0.1565
1181.00,0.1467
1180.00,0.1365
1179.00,0.1268
1178.00,0.1184
1177.00,0.1117
1176.00,0.1073
1175.00,0.1050
1174.00,0.1045
1173.00,0.1046
1172.00,0.1038
1171.00,0.1011
1170.00,0.0963
1169.00,0.0899
1168.00,0.0830
1167.00,0.0763
1166.00,0.0705
1165.00,0.0656
1164.00,0.0616
1163.00,0.0584
1162.00,0.0557
1161.00,0.0534
1160.00,0.0515
1159.00,0.0498
1158.00,0.0484
1157.00,0.0474
1156.00,0.0468
1155.00,0.0468
1154.00,0.0476
1153.00,0.0495
1152.00,0.0529
1151.00,0.0583
1150.00,0.0655
1149.00,0.0739
1148.00,0.0818
1147.00,0.0871
1146.00,0.0883
1145.00,0.0851
1144.00,0.0791
1143.00,0.0725
1142.00,0.0671
1141.00,0.0640
1140.00,0.0636
1139.00,0.0657
1138.00,0.0706
1137.00,0.0783
1136.00,0.0893
1135.00,0.1038
1134.00,0.1211
1133.00,0.1394
1132.00,0.1556
1131.00,0.1662
1130.00,0.1689
1129.00,0.1644
1128.00,0.1556
1127.00,0.1469
1126.00,0.1415
1125.00,0.1416
1124.00,0.1472
1123.00,0.1573
1122.00,0.1697
1121.00,0.1816
1120.00,0.1905
1119.00,0.1941
1118.00,0.1917
1117.00,0.1842
1116.00,0.1735
1115.00,0.1617
1114.00,0.1506
1113.00,0.1408
1112.00,0.1326
1111.00,0.1256
1110.00,0.1195
1109.00,0.1138
1108.00,0.1082
1107.00,0.1025
1106.00,0.0966
1105.00,0.0907
1104.00,0.0849
1103.00,0.0795
1102.00,0.0748
1101.00,0.0706
1100.00,0.0670
1099.00,0.0637
1098.00,0.0607
1097.00,0.0578
1096.00,0.0550
1095.00,0.0525
1094.00,0.0503
1093.00,0.0484
1092.00,0.0468
1091.00,0.0454
1090.00,0.0444
1089.00,0.0436
1088.00,0.0433
1087.00,0.0435
1086.00,0.0443
1085.00,0.0460
1084.00,0.0487
1083.00,0.0527
1082.00,0.0581
1081.00,0.0650
1080.00,0.0726
1079.00,0.0802
1078.00,0.0864
1077.00,0.0898
1076.00,0.0898
1075.00,0.0867
1074.00,0.0815
1073.00,0.0754
1072.00,0.0696
1071.00,0.0646
1070.00,0.0605
1069.00,0.0572
1068.00,0.0545
1067.00,0.0524
1066.00,0.0507
1065.00,0.0495
1064.00,0.0487
1063.00,0.0483
1062.00,0.0484
1061.00,0.0493
1060.00,0.0513
1059.00,0.0548
1058.00,0.0596
1057.00,0.0653
1056.00,0.0709
1055.00,0.0751
1054.00,0.0772
1053.00,0.0766
1052.00,0.0737
1051.00,0.0694
1050.00,0.0647
1049.00,0.0604
1048.00,0.0572
1047.00,0.0555
1046.00,0.0554
1045.00,0.0568
1044.00,0.0596
1043.00,0.0635
1042.00,0.0679
1041.00,0.0719
1040.00,0.0748
1039.00,0.0758
1038.00,0.0748
1037.00,0.0723
1036.00,0.0689
1035.00,0.0656
1034.00,0.0625
1033.00,0.0597
1032.00,0.0568
1031.00,0.0537
1030.00,0.0505
1029.00,0.0473
1028.00,0.0444
1027.00,0.0421
1026.00,0.0403
1025.00,0.0391
1024.00,0.0382
1023.00,0.0377
1022.00,0.0374
1021.00,0.0374
1020.00,0.0376
1019.00,0.0381
1018.00,0.0390
1017.00,0.0401
1016.00,0.0410
1015.00,0.0418
1014.00,0.0424
1013.00,0.0429
1012.00,0.0436
1011.00,0.0444
1010.00,0.0452
1009.00,0.0456
1008.00,0.0455
1007.00,0.0448
1006.00,0.0439
1005.00,0.0431
1004.00,0.0425
1003.00,0.0419
1002.00,0.0413
1001.00,0.0405
1000.00,0.0396
999.00,0.0387
998.00,0.0380
997.00,0.0375
996.00,0.0371
995.00,0.0367
994.00,0.0362
993.00,0.0355
992.00,0.0345
991.00,0.0335
990.00,0.0325
989.00,0.0317
988.00,0.0311
987.00,0.0308
986.00,0.0307
985.00,0.0309
984.00,0.0312
983.00,0.0317
982.00,0.0322
981.00,0.0328
980.00,0.0333
979.00,0.0339
978.00,0.0346
977.00,0.0356
976.00,0.0367
975.00,0.0377
974.00,0.0386
973.00,0.0391
972.00,0.0391
971.00,0.0385
970.00,0.0375
969.00,0.0363
968.00,0.0350
967.00,0.0340
966.00,0.0333
965.00,0.0327
964.00,0.0324
963.00,0.0321
962.00,0.0319
961.00,0.0317
960.00,0.0316
959.00,0.0316
958.00,0.0318
957.00,0.0322
956.00,0.0327
955.00,0.0333
954.00,0.0340
953.00,0.0349
952.00,0.0360
951.00,0.0377
950.00,0.0399
949.00,0.0426
948.00,0.0456
947.00,0.0486
946.00,0.0511
945.00,0.0529
944.00,0.0539
943.00,0.0541
942.00,0.0536
941.00,0.0527
940.00,0.0516
939.00,0.0507
938.00,0.0500
937.00,0.0498
936.00,0.0499
935.00,0.0501
934.00,0.0505
933.00,0.0510
932.00,0.0516
931.00,0.0523
930.00,0.0534
929.00,0.0547
928.00,0.0562
927.00,0.0578
926.00,0.0594
925.00,0.0610
924.00,0.0624
923.00,0.0637
922.00,0.0649
921.00,0.0660
920.00,0.0671
919.00,0.0682
918.00,0.0696
917.00,0.0715
916.00,0.0741
915.00,0.0775
914.00,0.0817
913.00,0.0865
912.00,0.0914
911.00,0.0960
910.00,0.1000
909.00,0.1036
908.00,0.1063
907.00,0.1076
906.00,0.1067
905.00,0.1037
904.00,0.0992
903.00,0.0942
902.00,0.0896
901.00,0.0862
900.00,0.0842
899.00,0.0838
898.00,0.0850
897.00,0.0873
896.00,0.0901
895.00,0.0928
894.00,0.0951
893.00,0.0967
892.00,0.0972
891.00,0.0963
890.00,0.0935
889.00,0.0892
888.00,0.0841
887.00,0.0790
886.00,0.0745
885.00,0.0706
884.00,0.0675
883.00,0.0650
882.00,0.0628
881.00,0.0610
880.00,0.0594
879.00,0.0581
878.00,0.0570
877.00,0.0560
876.00,0.0551
875.00,0.0545
874.00,0.0540
873.00,0.0537
872.00,0.0537
871.00,0.0540
870.00,0.0547
869.00,0.0558
868.00,0.0574
867.00,0.0595
866.00,0.0622
865.00,0.0657
864.00,0.0704
863.00,0.0763
862.00,0.0835
861.00,0.0917
860.00,0.0999
859.00,0.1070
858.00,0.1116
857.00,0.1131
856.00,0.1119
855.00,0.1088
854.00,0.1053
853.00,0.1021
852.00,0.0995
851.00,0.0973
850.00,0.0952
849.00,0.0930
848.00,0.0909
847.00,0.0888
846.00,0.0869
845.00,0.0855
844.00,0.0846
843.00,0.0842
842.00,0.0843
841.00,0.0847
840.00,0.0853
839.00,0.0860
838.00,0.0869
837.00,0.0882
836.00,0.0898
835.00,0.0912
834.00,0.0917
833.00,0.0911
832.00,0.0889
831.00,0.0855
830.00,0.0815
829.00,0.0775
828.00,0.0739
827.00,0.0706
826.00,0.0676
825.00,0.0649
824.00,0.0622
823.00,0.0599
822.00,0.0578
821.00,0.0563
820.00,0.0552
819.00,0.0547
818.00,0.0547
817.00,0.0553
816.00,0.0566
815.00,0.0587
814.00,0.0616
813.00,0.0652
812.00,0.0695
811.00,0.0739
810.00,0.0778
809.00,0.0808
808.00,0.0820
807.00,0.0804
806.00,0.0758
805.00,0.0685
804.00,0.0602
803.00,0.0526
802.00,0.0467
801.00,0.0427
800.00,0.0403
799.00,0.0391
798.00,0.0387
797.00,0.0391
796.00,0.0402
795.00,0.0421
794.00,0.0449
793.00,0.0486
792.00,0.0533
791.00,0.0583
790.00,0.0630
789.00,0.0662
788.00,0.0675
787.00,0.0667
786.00,0.0645
785.00,0.0620
784.00,0.0600
783.00,0.0588
782.00,0.0587
781.00,0.0596
780.00,0.0614
779.00,0.0642
778.00,0.0678
777.00,0.0722
776.00,0.0770
775.00,0.0817
774.00,0.0858
773.00,0.0884
772.00,0.0889
771.00,0.0869
770.00,0.0827
769.00,0.0776
768.00,0.0729
767.00,0.0696
766.00,0.0681
765.00,0.0679
764.00,0.0685
763.00,0.0695
762.00,0.0703
761.00,0.0709
760.00,0.0712
759.00,0.0710
758.00,0.0705
757.00,0.0697
756.00,0.0687
755.00,0.0676
754.00,0.0665
753.00,0.0654
752.00,0.0644
751.00,0.0635
750.00,0.0628
749.00,0.0622
748.00,0.0618
747.00,0.0617
746.00,0.0618
745.00,0.0622
744.00,0.0628
743.00,0.0637
742.00,0.0648
741.00,0.0661
740.00,0.0676
739.00,0.0692
738.00,0.0709
737.00,0.0723
736.00,0.0731
735.00,0.0731
734.00,0.0725
733.00,0.0715
732.00,0.0708
731.00,0.0706
730.00,0.0711
729.00,0.0724
728.00,0.0744
727.00,0.0771
726.00,0.0804
725.00,0.0843
724.00,0.0886
723.00,0.0931
722.00,0.0974
721.00,0.1015
720.00,0.1057
719.00,0.1105
718.00,0.1162
717.00,0.1226
716.00,0.1290
715.00,0.1341
714.00,0.1371
713.00,0.1376
712.00,0.1357
711.00,0.1319
710.00,0.1267
709.00,0.1203
708.00,0.1133
707.00,0.1060
706.00,0.0988
705.00,0.0921
704.00,0.0860
703.00,0.0806
702.00,0.0760
701.00,0.0720
700.00,0.0686
699.00,0.0656
698.00,0.0631
697.00,0.0609
696.00,0.0589
695.00,0.0573
694.00,0.0560
693.00,0.0548
692.00,0.0537
691.00,0.0526
690.00,0.0515
689.00,0.0502
688.00,0.0489
687.00,0.0476
686.00,0.0464
685.00,0.0453
684.00,0.0442
683.00,0.0432
682.00,0.0422
681.00,0.0412
680.00,0.0403
679.00,0.0395
678.00,0.0387
677.00,0.0381
676.00,0.0376
675.00,0.0372
674.00,0.0370
673.00,0.0369
672.00,0.0369
671.00,0.0371
670.00,0.0375
669.00,0.0383
668.00,0.0395
667.00,0.0406
666.00,0.0413
665.00,0.0419
664.00,0.0428
663.00,0.0442
662.00,0.0459
661.00,0.0476
660.00,0.0487
659.00,0.0491
658.00,0.0488
657.00,0.0484
656.00,0.0483
655.00,0.0486
654.00,0.0488
653.00,0.0485
652.00,0.0474
651.00,0.0464
650.00,0.0460
649.00,0.0472
648.00,0.0496
647.00,0.0526
646.00,0.0549
645.00,0.0558
644.00,0.0558
643.00,0.0557
642.00,0.0564
641.00,0.0578
640.00,0.0595
639.00,0.0606
638.00,0.0606
637.00,0.0592
636.00,0.0566
635.00,0.0532
634.00,0.0498
633.00,0.0465
632.00,0.0438
631.00,0.0416
630.00,0.0400
629.00,0.0391
628.00,0.0391
627.00,0.0399
626.00,0.0415
625.00,0.0436
624.00,0.0456
623.00,0.0471
622.00,0.0481
621.00,0.0487
620.00,0.0492
619.00,0.0493
618.00,0.0488
617.00,0.0473
616.00,0.0451
615.00,0.0428
614.00,0.0407
613.00,0.0392
612.00,0.0386
611.00,0.0388
610.00,0.0394
609.00,0.0401
608.00,0.0405
607.00,0.0404
606.00,0.0399
605.00,0.0393
604.00,0.0389
603.00,0.0392
602.00,0.0403
601.00,0.0426
600.00,0.0461
599.00,0.0507
598.00,0.0563
597.00,0.0622
596.00,0.0677
595.00,0.0723
594.00,0.0755
593.00,0.0767
592.00,0.0758
591.00,0.0729
590.00,0.0684
589.00,0.0630
588.00,0.0573
587.00,0.0520
586.00,0.0473
585.00,0.0433
584.00,0.0400
583.00,0.0374
582.00,0.0352
581.00,0.0334
580.00,0.0318
579.00,0.0306
578.00,0.0296
577.00,0.0289
576.00,0.0285
575.00,0.0285
574.00,0.0290
573.00,0.0302
572.00,0.0318
571.00,0.0340
570.00,0.0365
569.00,0.0386
568.00,0.0401
567.00,0.0407
566.00,0.0401
565.00,0.0387
564.00,0.0368
563.00,0.0350
562.00,0.0337
561.00,0.0328
560.00,0.0325
559.00,0.0325
558.00,0.0326
557.00,0.0328
556.00,0.0328
555.00,0.0328
554.00,0.0330
553.00,0.0334
552.00,0.0343
551.00,0.0358
550.00,0.0379
549.00,0.0401
548.00,0.0418
547.00,0.0426
546.00,0.0421
545.00,0.0404
544.00,0.0378
543.00,0.0350
542.00,0.0324
541.00,0.0301
540.00,0.0284
539.00,0.0271
538.00,0.0261
537.00,0.0255
536.00,0.0252
535.00,0.0252
534.00,0.0255
533.00,0.0261
532.00,0.0271
531.00,0.0285
530.00,0.0305
529.00,0.0331
528.00,0.0362
527.00,0.0398
526.00,0.0433
525.00,0.0453
524.00,0.0452
523.00,0.0429
522.00,0.0394
521.00,0.0358
520.00,0.0329
519.00,0.0309
518.00,0.0299
517.00,0.0295
516.00,0.0296
515.00,0.0303
514.00,0.0315
513.00,0.0332
512.00,0.0356
511.00,0.0389
510.00,0.0432
509.00,0.0484
508.00,0.0544
507.00,0.0610
506.00,0.0673
505.00,0.0723
504.00,0.0752
503.00,0.0756
502.00,0.0737
501.00,0.0705
500.00,0.0676
499.00,0.0663
498.00,0.0675
497.00,0.0713
496.00,0.0767
495.00,0.0817
494.00,0.0838
493.00,0.0819
492.00,0.0762
491.00,0.0683
490.00,0.0600
489.00,0.0523
488.00,0.0458
487.00,0.0409
486.00,0.0373
485.00,0.0349
484.00,0.0335
483.00,0.0331
482.00,0.0335
481.00,0.0346
480.00,0.0360
479.00,0.0376
478.00,0.0389
477.00,0.0397
476.00,0.0399
475.00,0.0399
474.00,0.0399
473.00,0.0403
472.00,0.0409
471.00,0.0415
470.00,0.0417
469.00,0.0415
468.00,0.0406
467.00,0.0394
466.00,0.0379
465.00,0.0363
464.00,0.0347
463.00,0.0332
462.00,0.0319
461.00,0.0308
460.00,0.0300
459.00,0.0295
458.00,0.0291
457.00,0.0290
456.00,0.0291
455.00,0.0294
454.00,0.0299
453.00,0.0304
452.00,0.0307
451.00,0.0311
450.00,0.0316
449.00,0.0321
448.00,0.0328
447.00,0.0337
446.00,0.0347
445.00,0.0360
444.00,0.0376
443.00,0.0399
442.00,0.0428
441.00,0.0461
440.00,0.0495
439.00,0.0529
438.00,0.0561
437.00,0.0592
436.00,0.0619
435.00,0.0643
434.00,0.0663
433.00,0.0681
432.00,0.0696
431.00,0.0709
430.00,0.0720
429.00,0.0729
428.00,0.0736
427.00,0.0745
426.00,0.0758
425.00,0.0774
424.00,0.0790
423.00,0.0800
422.00,0.0798
421.00,0.0782
420.00,0.0753
419.00,0.0714
418.00,0.0680
417.00,0.0660
416.00,0.0652
415.00,0.0653
414.00,0.0656
413.00,0.0656
412.00,0.0648
411.00,0.0630
410.00,0.0602
409.00,0.0567
408.00,0.0531
407.00,0.0500
406.00,0.0477
405.00,0.0459
404.00,0.0442
403.00,0.0428
402.00,0.0420
401.00,0.0417
400.00,0.0416
