Created as New Dataset,Sample 285 By YargerLab Date Saturday, July 27 2024
cm-1,A
4000.00,-0.0001
3999.00,-0.0001
3998.00,-0.0001
3997.00,-0.0001
3996.00,-0.0001
3995.00,-0.0001
3994.00,-0.0001
3993.00,-0.0001
3992.00,-0.0001
3991.00,-0.0001
3990.00,-0.0001
3989.00,-0.0001
3988.00,-0.0001
3987.00,-0.0001
3986.00,-0.0001
3985.00,-0.0001
3984.00,-0.0001
3983.00,-0.0001
3982.00,-0.0001
3981.00,-0.0001
3980.00,-0.0001
3979.00,-0.0001
3978.00,-0.0001
3977.00,-0.0001
3976.00,-0.0001
3975.00,-0.0001
3974.00,-0.0001
3973.00,-0.0001
3972.00,-0.0001
3971.00,-0.0001
3970.00,-0.0001
3969.00,-0.0001
3968.00,-0.0001
3967.00,-0.0001
3966.00,-0.0001
3965.00,-0.0001
3964.00,-0.0001
3963.00,-0.0001
3962.00,-0.0001
3961.00,-0.0001
3960.00,-0.0002
3959.00,-0.0002
3958.00,-0.0002
3957.00,-0.0002
3956.00,-0.0002
3955.00,-0.0002
3954.00,-0.0001
3953.00,-0.0002
3952.00,-0.0002
3951.00,-0.0002
3950.00,-0.0001
3949.00,-0.0001
3948.00,-0.0001
3947.00,-0.0001
3946.00,-0.0001
3945.00,-0.0001
3944.00,-0.0001
3943.00,-0.0001
3942.00,-0.0001
3941.00,-0.0001
3940.00,-0.0001
3939.00,-0.0001
3938.00,-0.0001
3937.00,-0.0001
3936.00,-0.0001
3935.00,-0.0001
3934.00,-0.0001
3933.00,-0.0001
3932.00,-0.0001
3931.00,-0.0001
3930.00,-0.0001
3929.00,-0.0001
3928.00,-0.0001
3927.00,-0.0001
3926.00,-0.0002
3925.00,-0.0002
3924.00,-0.0002
3923.00,-0.0001
3922.00,-0.0001
3921.00,-0.0001
3920.00,-0.0001
3919.00,-0.0001
3918.00,-0.0001
3917.00,-0.0001
3916.00,-0.0001
3915.00,-0.0001
3914.00,-0.0002
3913.00,-0.0002
3912.00,-0.0002
3911.00,-0.0002
3910.00,-0.0002
3909.00,-0.0001
3908.00,-0.0001
3907.00,-0.0001
3906.00,-0.0000
3905.00,-0.0000
3904.00,-0.0000
3903.00,-0.0000
3902.00,-0.0000
3901.00,-0.0000
3900.00,-0.0000
3899.00,-0.0001
3898.00,-0.0001
3897.00,-0.0001
3896.00,-0.0001
3895.00,-0.0001
3894.00,-0.0001
3893.00,-0.0001
3892.00,-0.0001
3891.00,-0.0001
3890.00,-0.0001
3889.00,-0.0001
3888.00,-0.0001
3887.00,-0.0001
3886.00,-0.0001
3885.00,-0.0001
3884.00,-0.0001
3883.00,-0.0001
3882.00,-0.0001
3881.00,-0.0001
3880.00,-0.0001
3879.00,-0.0001
3878.00,-0.0001
3877.00,-0.0001
3876.00,-0.0001
3875.00,-0.0001
3874.00,-0.0001
3873.00,-0.0001
3872.00,-0.0001
3871.00,-0.0001
3870.00,-0.0001
3869.00,-0.0001
3868.00,-0.0000
3867.00,-0.0000
3866.00,-0.0001
3865.00,-0.0001
3864.00,-0.0001
3863.00,-0.0001
3862.00,-0.0001
3861.00,-0.0001
3860.00,-0.0001
3859.00,-0.0001
3858.00,-0.0001
3857.00,-0.0000
3856.00,0.0000
3855.00,0.0000
3854.00,-0.0000
3853.00,-0.0001
3852.00,-0.0000
3851.00,-0.0000
3850.00,-0.0001
3849.00,-0.0001
3848.00,-0.0002
3847.00,-0.0002
3846.00,-0.0002
3845.00,-0.0002
3844.00,-0.0001
3843.00,-0.0001
3842.00,-0.0001
3841.00,-0.0001
3840.00,-0.0001
3839.00,-0.0001
3838.00,-0.0001
3837.00,-0.0001
3836.00,-0.0001
3835.00,-0.0001
3834.00,-0.0001
3833.00,-0.0001
3832.00,-0.0002
3831.00,-0.0002
3830.00,-0.0002
3829.00,-0.0002
3828.00,-0.0002
3827.00,-0.0002
3826.00,-0.0002
3825.00,-0.0001
3824.00,-0.0001
3823.00,-0.0001
3822.00,-0.0001
3821.00,-0.0001
3820.00,-0.0001
3819.00,-0.0001
3818.00,-0.0001
3817.00,-0.0001
3816.00,-0.0002
3815.00,-0.0002
3814.00,-0.0001
3813.00,-0.0002
3812.00,-0.0002
3811.00,-0.0002
3810.00,-0.0002
3809.00,-0.0001
3808.00,-0.0001
3807.00,-0.0001
3806.00,-0.0001
3805.00,-0.0001
3804.00,-0.0001
3803.00,-0.0001
3802.00,-0.0001
3801.00,-0.0001
3800.00,-0.0001
3799.00,-0.0001
3798.00,-0.0001
3797.00,-0.0002
3796.00,-0.0002
3795.00,-0.0002
3794.00,-0.0002
3793.00,-0.0002
3792.00,-0.0002
3791.00,-0.0002
3790.00,-0.0002
3789.00,-0.0002
3788.00,-0.0002
3787.00,-0.0002
3786.00,-0.0002
3785.00,-0.0002
3784.00,-0.0002
3783.00,-0.0002
3782.00,-0.0002
3781.00,-0.0002
3780.00,-0.0002
3779.00,-0.0002
3778.00,-0.0002
3777.00,-0.0002
3776.00,-0.0002
3775.00,-0.0002
3774.00,-0.0002
3773.00,-0.0001
3772.00,-0.0001
3771.00,-0.0001
3770.00,-0.0001
3769.00,-0.0001
3768.00,-0.0001
3767.00,-0.0001
3766.00,-0.0001
3765.00,-0.0001
3764.00,-0.0001
3763.00,-0.0001
3762.00,-0.0001
3761.00,-0.0001
3760.00,-0.0001
3759.00,-0.0001
3758.00,-0.0001
3757.00,-0.0001
3756.00,-0.0001
3755.00,-0.0001
3754.00,-0.0000
3753.00,-0.0000
3752.00,-0.0000
3751.00,-0.0000
3750.00,-0.0000
3749.00,-0.0000
3748.00,-0.0000
3747.00,0.0000
3746.00,-0.0000
3745.00,-0.0000
3744.00,-0.0000
3743.00,0.0000
3742.00,0.0000
3741.00,-0.0000
3740.00,-0.0000
3739.00,-0.0000
3738.00,0.0000
3737.00,0.0000
3736.00,0.0000
3735.00,0.0000
3734.00,0.0000
3733.00,0.0000
3732.00,-0.0000
3731.00,-0.0000
3730.00,-0.0001
3729.00,-0.0001
3728.00,-0.0001
3727.00,-0.0001
3726.00,-0.0001
3725.00,-0.0001
3724.00,-0.0000
3723.00,-0.0000
3722.00,-0.0000
3721.00,-0.0000
3720.00,-0.0001
3719.00,-0.0001
3718.00,-0.0001
3717.00,-0.0001
3716.00,-0.0001
3715.00,-0.0000
3714.00,-0.0000
3713.00,-0.0000
3712.00,-0.0000
3711.00,-0.0000
3710.00,-0.0000
3709.00,-0.0000
3708.00,-0.0000
3707.00,-0.0001
3706.00,-0.0001
3705.00,-0.0001
3704.00,-0.0001
3703.00,-0.0001
3702.00,-0.0001
3701.00,-0.0001
3700.00,-0.0000
3699.00,-0.0000
3698.00,-0.0001
3697.00,-0.0001
3696.00,-0.0001
3695.00,-0.0001
3694.00,-0.0000
3693.00,-0.0000
3692.00,0.0000
3691.00,0.0000
3690.00,0.0000
3689.00,0.0000
3688.00,0.0000
3687.00,0.0000
3686.00,0.0000
3685.00,-0.0000
3684.00,-0.0000
3683.00,-0.0000
3682.00,0.0000
3681.00,0.0000
3680.00,0.0001
3679.00,0.0001
3678.00,0.0002
3677.00,0.0002
3676.00,0.0002
3675.00,0.0002
3674.00,0.0003
3673.00,0.0003
3672.00,0.0002
3671.00,0.0002
3670.00,0.0001
3669.00,0.0002
3668.00,0.0002
3667.00,0.0002
3666.00,0.0002
3665.00,0.0001
3664.00,0.0001
3663.00,0.0002
3662.00,0.0002
3661.00,0.0002
3660.00,0.0002
3659.00,0.0002
3658.00,0.0003
3657.00,0.0003
3656.00,0.0003
3655.00,0.0003
3654.00,0.0004
3653.00,0.0004
3652.00,0.0005
3651.00,0.0005
3650.00,0.0005
3649.00,0.0005
3648.00,0.0005
3647.00,0.0005
3646.00,0.0005
3645.00,0.0005
3644.00,0.0004
3643.00,0.0004
3642.00,0.0004
3641.00,0.0005
3640.00,0.0005
3639.00,0.0005
3638.00,0.0005
3637.00,0.0005
3636.00,0.0006
3635.00,0.0006
3634.00,0.0006
3633.00,0.0007
3632.00,0.0008
3631.00,0.0008
3630.00,0.0008
3629.00,0.0007
3628.00,0.0007
3627.00,0.0008
3626.00,0.0008
3625.00,0.0008
3624.00,0.0008
3623.00,0.0008
3622.00,0.0009
3621.00,0.0009
3620.00,0.0009
3619.00,0.0009
3618.00,0.0009
3617.00,0.0010
3616.00,0.0010
3615.00,0.0009
3614.00,0.0010
3613.00,0.0010
3612.00,0.0010
3611.00,0.0011
3610.00,0.0011
3609.00,0.0011
3608.00,0.0011
3607.00,0.0011
3606.00,0.0011
3605.00,0.0011
3604.00,0.0011
3603.00,0.0011
3602.00,0.0011
3601.00,0.0012
3600.00,0.0012
3599.00,0.0012
3598.00,0.0012
3597.00,0.0013
3596.00,0.0013
3595.00,0.0013
3594.00,0.0013
3593.00,0.0013
3592.00,0.0014
3591.00,0.0014
3590.00,0.0015
3589.00,0.0015
3588.00,0.0014
3587.00,0.0015
3586.00,0.0015
3585.00,0.0015
3584.00,0.0015
3583.00,0.0015
3582.00,0.0015
3581.00,0.0016
3580.00,0.0016
3579.00,0.0016
3578.00,0.0016
3577.00,0.0016
3576.00,0.0016
3575.00,0.0017
3574.00,0.0017
3573.00,0.0017
3572.00,0.0018
3571.00,0.0018
3570.00,0.0019
3569.00,0.0019
3568.00,0.0019
3567.00,0.0019
3566.00,0.0019
3565.00,0.0019
3564.00,0.0020
3563.00,0.0020
3562.00,0.0020
3561.00,0.0020
3560.00,0.0020
3559.00,0.0020
3558.00,0.0020
3557.00,0.0021
3556.00,0.0021
3555.00,0.0021
3554.00,0.0021
3553.00,0.0021
3552.00,0.0022
3551.00,0.0022
3550.00,0.0022
3549.00,0.0022
3548.00,0.0022
3547.00,0.0022
3546.00,0.0023
3545.00,0.0023
3544.00,0.0023
3543.00,0.0023
3542.00,0.0023
3541.00,0.0024
3540.00,0.0024
3539.00,0.0024
3538.00,0.0024
3537.00,0.0024
3536.00,0.0025
3535.00,0.0025
3534.00,0.0025
3533.00,0.0025
3532.00,0.0026
3531.00,0.0026
3530.00,0.0026
3529.00,0.0026
3528.00,0.0026
3527.00,0.0026
3526.00,0.0027
3525.00,0.0027
3524.00,0.0027
3523.00,0.0027
3522.00,0.0027
3521.00,0.0027
3520.00,0.0027
3519.00,0.0028
3518.00,0.0028
3517.00,0.0028
3516.00,0.0028
3515.00,0.0029
3514.00,0.0029
3513.00,0.0029
3512.00,0.0029
3511.00,0.0029
3510.00,0.0030
3509.00,0.0030
3508.00,0.0030
3507.00,0.0030
3506.00,0.0031
3505.00,0.0031
3504.00,0.0031
3503.00,0.0031
3502.00,0.0031
3501.00,0.0032
3500.00,0.0032
3499.00,0.0032
3498.00,0.0032
3497.00,0.0032
3496.00,0.0032
3495.00,0.0032
3494.00,0.0033
3493.00,0.0033
3492.00,0.0033
3491.00,0.0034
3490.00,0.0034
3489.00,0.0034
3488.00,0.0034
3487.00,0.0034
3486.00,0.0035
3485.00,0.0035
3484.00,0.0035
3483.00,0.0035
3482.00,0.0035
3481.00,0.0035
3480.00,0.0036
3479.00,0.0036
3478.00,0.0036
3477.00,0.0037
3476.00,0.0037
3475.00,0.0037
3474.00,0.0037
3473.00,0.0037
3472.00,0.0037
3471.00,0.0038
3470.00,0.0038
3469.00,0.0038
3468.00,0.0038
3467.00,0.0038
3466.00,0.0039
3465.00,0.0039
3464.00,0.0039
3463.00,0.0039
3462.00,0.0039
3461.00,0.0040
3460.00,0.0040
3459.00,0.0040
3458.00,0.0040
3457.00,0.0040
3456.00,0.0040
3455.00,0.0041
3454.00,0.0041
3453.00,0.0041
3452.00,0.0041
3451.00,0.0042
3450.00,0.0042
3449.00,0.0042
3448.00,0.0042
3447.00,0.0042
3446.00,0.0042
3445.00,0.0043
3444.00,0.0043
3443.00,0.0043
3442.00,0.0043
3441.00,0.0043
3440.00,0.0044
3439.00,0.0044
3438.00,0.0044
3437.00,0.0044
3436.00,0.0044
3435.00,0.0045
3434.00,0.0045
3433.00,0.0045
3432.00,0.0045
3431.00,0.0045
3430.00,0.0045
3429.00,0.0046
3428.00,0.0046
3427.00,0.0046
3426.00,0.0047
3425.00,0.0047
3424.00,0.0047
3423.00,0.0047
3422.00,0.0047
3421.00,0.0047
3420.00,0.0047
3419.00,0.0048
3418.00,0.0048
3417.00,0.0048
3416.00,0.0049
3415.00,0.0049
3414.00,0.0049
3413.00,0.0049
3412.00,0.0049
3411.00,0.0049
3410.00,0.0050
3409.00,0.0050
3408.00,0.0050
3407.00,0.0050
3406.00,0.0050
3405.00,0.0050
3404.00,0.0051
3403.00,0.0051
3402.00,0.0051
3401.00,0.0051
3400.00,0.0051
3399.00,0.0052
3398.00,0.0052
3397.00,0.0052
3396.00,0.0052
3395.00,0.0052
3394.00,0.0053
3393.00,0.0053
3392.00,0.0053
3391.00,0.0053
3390.00,0.0053
3389.00,0.0053
3388.00,0.0053
3387.00,0.0054
3386.00,0.0054
3385.00,0.0054
3384.00,0.0054
3383.00,0.0054
3382.00,0.0055
3381.00,0.0055
3380.00,0.0055
3379.00,0.0055
3378.00,0.0056
3377.00,0.0056
3376.00,0.0056
3375.00,0.0056
3374.00,0.0057
3373.00,0.0057
3372.00,0.0057
3371.00,0.0058
3370.00,0.0058
3369.00,0.0058
3368.00,0.0059
3367.00,0.0059
3366.00,0.0059
3365.00,0.0059
3364.00,0.0060
3363.00,0.0060
3362.00,0.0060
3361.00,0.0060
3360.00,0.0061
3359.00,0.0061
3358.00,0.0061
3357.00,0.0061
3356.00,0.0062
3355.00,0.0062
3354.00,0.0062
3353.00,0.0063
3352.00,0.0063
3351.00,0.0063
3350.00,0.0064
3349.00,0.0064
3348.00,0.0064
3347.00,0.0065
3346.00,0.0065
3345.00,0.0065
3344.00,0.0066
3343.00,0.0066
3342.00,0.0066
3341.00,0.0067
3340.00,0.0067
3339.00,0.0068
3338.00,0.0068
3337.00,0.0069
3336.00,0.0069
3335.00,0.0069
3334.00,0.0070
3333.00,0.0070
3332.00,0.0071
3331.00,0.0071
3330.00,0.0072
3329.00,0.0072
3328.00,0.0073
3327.00,0.0073
3326.00,0.0074
3325.00,0.0075
3324.00,0.0075
3323.00,0.0076
3322.00,0.0076
3321.00,0.0077
3320.00,0.0078
3319.00,0.0078
3318.00,0.0079
3317.00,0.0079
3316.00,0.0080
3315.00,0.0081
3314.00,0.0081
3313.00,0.0082
3312.00,0.0083
3311.00,0.0083
3310.00,0.0084
3309.00,0.0085
3308.00,0.0085
3307.00,0.0086
3306.00,0.0087
3305.00,0.0088
3304.00,0.0088
3303.00,0.0089
3302.00,0.0090
3301.00,0.0090
3300.00,0.0091
3299.00,0.0092
3298.00,0.0093
3297.00,0.0093
3296.00,0.0094
3295.00,0.0095
3294.00,0.0096
3293.00,0.0097
3292.00,0.0097
3291.00,0.0098
3290.00,0.0098
3289.00,0.0099
3288.00,0.0100
3287.00,0.0100
3286.00,0.0101
3285.00,0.0101
3284.00,0.0102
3283.00,0.0103
3282.00,0.0103
3281.00,0.0104
3280.00,0.0104
3279.00,0.0105
3278.00,0.0105
3277.00,0.0106
3276.00,0.0106
3275.00,0.0106
3274.00,0.0106
3273.00,0.0106
3272.00,0.0106
3271.00,0.0106
3270.00,0.0106
3269.00,0.0106
3268.00,0.0106
3267.00,0.0105
3266.00,0.0105
3265.00,0.0104
3264.00,0.0104
3263.00,0.0103
3262.00,0.0103
3261.00,0.0102
3260.00,0.0102
3259.00,0.0101
3258.00,0.0101
3257.00,0.0100
3256.00,0.0100
3255.00,0.0099
3254.00,0.0098
3253.00,0.0097
3252.00,0.0097
3251.00,0.0096
3250.00,0.0095
3249.00,0.0095
3248.00,0.0094
3247.00,0.0094
3246.00,0.0093
3245.00,0.0092
3244.00,0.0091
3243.00,0.0091
3242.00,0.0090
3241.00,0.0089
3240.00,0.0089
3239.00,0.0088
3238.00,0.0088
3237.00,0.0087
3236.00,0.0087
3235.00,0.0086
3234.00,0.0086
3233.00,0.0085
3232.00,0.0085
3231.00,0.0084
3230.00,0.0084
3229.00,0.0083
3228.00,0.0083
3227.00,0.0082
3226.00,0.0082
3225.00,0.0081
3224.00,0.0081
3223.00,0.0080
3222.00,0.0080
3221.00,0.0080
3220.00,0.0079
3219.00,0.0079
3218.00,0.0078
3217.00,0.0078
3216.00,0.0078
3215.00,0.0078
3214.00,0.0077
3213.00,0.0077
3212.00,0.0077
3211.00,0.0076
3210.00,0.0076
3209.00,0.0075
3208.00,0.0075
3207.00,0.0075
3206.00,0.0074
3205.00,0.0074
3204.00,0.0074
3203.00,0.0073
3202.00,0.0073
3201.00,0.0073
3200.00,0.0072
3199.00,0.0072
3198.00,0.0071
3197.00,0.0071
3196.00,0.0071
3195.00,0.0070
3194.00,0.0070
3193.00,0.0070
3192.00,0.0069
3191.00,0.0069
3190.00,0.0069
3189.00,0.0068
3188.00,0.0068
3187.00,0.0068
3186.00,0.0067
3185.00,0.0067
3184.00,0.0067
3183.00,0.0066
3182.00,0.0066
3181.00,0.0066
3180.00,0.0066
3179.00,0.0065
3178.00,0.0065
3177.00,0.0065
3176.00,0.0064
3175.00,0.0064
3174.00,0.0063
3173.00,0.0063
3172.00,0.0063
3171.00,0.0062
3170.00,0.0062
3169.00,0.0062
3168.00,0.0061
3167.00,0.0061
3166.00,0.0061
3165.00,0.0061
3164.00,0.0060
3163.00,0.0060
3162.00,0.0060
3161.00,0.0059
3160.00,0.0059
3159.00,0.0059
3158.00,0.0058
3157.00,0.0058
3156.00,0.0058
3155.00,0.0057
3154.00,0.0057
3153.00,0.0057
3152.00,0.0057
3151.00,0.0057
3150.00,0.0056
3149.00,0.0056
3148.00,0.0056
3147.00,0.0055
3146.00,0.0055
3145.00,0.0055
3144.00,0.0055
3143.00,0.0055
3142.00,0.0055
3141.00,0.0054
3140.00,0.0054
3139.00,0.0054
3138.00,0.0054
3137.00,0.0053
3136.00,0.0053
3135.00,0.0053
3134.00,0.0053
3133.00,0.0053
3132.00,0.0053
3131.00,0.0052
3130.00,0.0052
3129.00,0.0052
3128.00,0.0052
3127.00,0.0052
3126.00,0.0052
3125.00,0.0052
3124.00,0.0052
3123.00,0.0052
3122.00,0.0051
3121.00,0.0051
3120.00,0.0051
3119.00,0.0051
3118.00,0.0051
3117.00,0.0051
3116.00,0.0051
3115.00,0.0051
3114.00,0.0051
3113.00,0.0051
3112.00,0.0051
3111.00,0.0051
3110.00,0.0051
3109.00,0.0051
3108.00,0.0051
3107.00,0.0051
3106.00,0.0051
3105.00,0.0051
3104.00,0.0051
3103.00,0.0051
3102.00,0.0051
3101.00,0.0051
3100.00,0.0051
3099.00,0.0051
3098.00,0.0052
3097.00,0.0052
3096.00,0.0052
3095.00,0.0052
3094.00,0.0052
3093.00,0.0052
3092.00,0.0052
3091.00,0.0052
3090.00,0.0052
3089.00,0.0052
3088.00,0.0052
3087.00,0.0053
3086.00,0.0053
3085.00,0.0052
3084.00,0.0052
3083.00,0.0052
3082.00,0.0052
3081.00,0.0052
3080.00,0.0052
3079.00,0.0052
3078.00,0.0052
3077.00,0.0052
3076.00,0.0052
3075.00,0.0052
3074.00,0.0052
3073.00,0.0052
3072.00,0.0052
3071.00,0.0052
3070.00,0.0052
3069.00,0.0052
3068.00,0.0052
3067.00,0.0052
3066.00,0.0051
3065.00,0.0051
3064.00,0.0051
3063.00,0.0051
3062.00,0.0051
3061.00,0.0051
3060.00,0.0050
3059.00,0.0050
3058.00,0.0050
3057.00,0.0049
3056.00,0.0049
3055.00,0.0049
3054.00,0.0049
3053.00,0.0048
3052.00,0.0048
3051.00,0.0048
3050.00,0.0047
3049.00,0.0047
3048.00,0.0047
3047.00,0.0046
3046.00,0.0046
3045.00,0.0046
3044.00,0.0046
3043.00,0.0045
3042.00,0.0045
3041.00,0.0045
3040.00,0.0044
3039.00,0.0044
3038.00,0.0044
3037.00,0.0044
3036.00,0.0043
3035.00,0.0043
3034.00,0.0043
3033.00,0.0043
3032.00,0.0042
3031.00,0.0042
3030.00,0.0042
3029.00,0.0042
3028.00,0.0041
3027.00,0.0041
3026.00,0.0041
3025.00,0.0041
3024.00,0.0041
3023.00,0.0040
3022.00,0.0040
3021.00,0.0040
3020.00,0.0040
3019.00,0.0039
3018.00,0.0039
3017.00,0.0039
3016.00,0.0038
3015.00,0.0038
3014.00,0.0038
3013.00,0.0038
3012.00,0.0038
3011.00,0.0038
3010.00,0.0038
3009.00,0.0038
3008.00,0.0038
3007.00,0.0037
3006.00,0.0037
3005.00,0.0037
3004.00,0.0037
3003.00,0.0037
3002.00,0.0037
3001.00,0.0037
3000.00,0.0037
2999.00,0.0037
2998.00,0.0037
2997.00,0.0038
2996.00,0.0038
2995.00,0.0038
2994.00,0.0038
2993.00,0.0038
2992.00,0.0039
2991.00,0.0039
2990.00,0.0039
2989.00,0.0040
2988.00,0.0040
2987.00,0.0041
2986.00,0.0041
2985.00,0.0041
2984.00,0.0042
2983.00,0.0042
2982.00,0.0043
2981.00,0.0043
2980.00,0.0044
2979.00,0.0045
2978.00,0.0045
2977.00,0.0046
2976.00,0.0046
2975.00,0.0047
2974.00,0.0047
2973.00,0.0048
2972.00,0.0049
2971.00,0.0049
2970.00,0.0050
2969.00,0.0050
2968.00,0.0051
2967.00,0.0051
2966.00,0.0052
2965.00,0.0052
2964.00,0.0052
2963.00,0.0052
2962.00,0.0052
2961.00,0.0052
2960.00,0.0052
2959.00,0.0052
2958.00,0.0052
2957.00,0.0051
2956.00,0.0051
2955.00,0.0051
2954.00,0.0050
2953.00,0.0050
2952.00,0.0049
2951.00,0.0049
2950.00,0.0049
2949.00,0.0048
2948.00,0.0048
2947.00,0.0048
2946.00,0.0048
2945.00,0.0048
2944.00,0.0049
2943.00,0.0049
2942.00,0.0049
2941.00,0.0050
2940.00,0.0050
2939.00,0.0050
2938.00,0.0051
2937.00,0.0051
2936.00,0.0051
2935.00,0.0052
2934.00,0.0052
2933.00,0.0052
2932.00,0.0052
2931.00,0.0052
2930.00,0.0052
2929.00,0.0052
2928.00,0.0052
2927.00,0.0052
2926.00,0.0052
2925.00,0.0052
2924.00,0.0052
2923.00,0.0051
2922.00,0.0051
2921.00,0.0051
2920.00,0.0051
2919.00,0.0050
2918.00,0.0049
2917.00,0.0049
2916.00,0.0048
2915.00,0.0048
2914.00,0.0047
2913.00,0.0046
2912.00,0.0046
2911.00,0.0045
2910.00,0.0044
2909.00,0.0044
2908.00,0.0044
2907.00,0.0043
2906.00,0.0043
2905.00,0.0042
2904.00,0.0042
2903.00,0.0041
2902.00,0.0041
2901.00,0.0041
2900.00,0.0040
2899.00,0.0040
2898.00,0.0040
2897.00,0.0039
2896.00,0.0039
2895.00,0.0039
2894.00,0.0038
2893.00,0.0038
2892.00,0.0038
2891.00,0.0038
2890.00,0.0038
2889.00,0.0038
2888.00,0.0038
2887.00,0.0038
2886.00,0.0038
2885.00,0.0038
2884.00,0.0038
2883.00,0.0039
2882.00,0.0039
2881.00,0.0039
2880.00,0.0039
2879.00,0.0039
2878.00,0.0040
2877.00,0.0040
2876.00,0.0040
2875.00,0.0040
2874.00,0.0040
2873.00,0.0039
2872.00,0.0039
2871.00,0.0039
2870.00,0.0039
2869.00,0.0038
2868.00,0.0038
2867.00,0.0037
2866.00,0.0037
2865.00,0.0036
2864.00,0.0036
2863.00,0.0036
2862.00,0.0035
2861.00,0.0035
2860.00,0.0035
2859.00,0.0034
2858.00,0.0034
2857.00,0.0034
2856.00,0.0034
2855.00,0.0034
2854.00,0.0034
2853.00,0.0034
2852.00,0.0034
2851.00,0.0034
2850.00,0.0033
2849.00,0.0033
2848.00,0.0032
2847.00,0.0032
2846.00,0.0031
2845.00,0.0030
2844.00,0.0030
2843.00,0.0029
2842.00,0.0029
2841.00,0.0028
2840.00,0.0028
2839.00,0.0027
2838.00,0.0027
2837.00,0.0027
2836.00,0.0027
2835.00,0.0026
2834.00,0.0026
2833.00,0.0026
2832.00,0.0026
2831.00,0.0026
2830.00,0.0026
2829.00,0.0026
2828.00,0.0026
2827.00,0.0026
2826.00,0.0025
2825.00,0.0025
2824.00,0.0025
2823.00,0.0025
2822.00,0.0025
2821.00,0.0025
2820.00,0.0025
2819.00,0.0025
2818.00,0.0025
2817.00,0.0025
2816.00,0.0025
2815.00,0.0025
2814.00,0.0024
2813.00,0.0024
2812.00,0.0024
2811.00,0.0024
2810.00,0.0024
2809.00,0.0024
2808.00,0.0024
2807.00,0.0024
2806.00,0.0024
2805.00,0.0024
2804.00,0.0024
2803.00,0.0024
2802.00,0.0024
2801.00,0.0024
2800.00,0.0024
2799.00,0.0024
2798.00,0.0023
2797.00,0.0023
2796.00,0.0023
2795.00,0.0023
2794.00,0.0023
2793.00,0.0023
2792.00,0.0023
2791.00,0.0023
2790.00,0.0022
2789.00,0.0022
2788.00,0.0022
2787.00,0.0022
2786.00,0.0022
2785.00,0.0022
2784.00,0.0022
2783.00,0.0022
2782.00,0.0022
2781.00,0.0022
2780.00,0.0021
2779.00,0.0021
2778.00,0.0021
2777.00,0.0021
2776.00,0.0021
2775.00,0.0021
2774.00,0.0020
2773.00,0.0020
2772.00,0.0020
2771.00,0.0020
2770.00,0.0020
2769.00,0.0020
2768.00,0.0020
2767.00,0.0020
2766.00,0.0020
2765.00,0.0019
2764.00,0.0019
2763.00,0.0019
2762.00,0.0019
2761.00,0.0019
2760.00,0.0019
2759.00,0.0018
2758.00,0.0018
2757.00,0.0018
2756.00,0.0018
2755.00,0.0018
2754.00,0.0018
2753.00,0.0018
2752.00,0.0018
2751.00,0.0018
2750.00,0.0017
2749.00,0.0017
2748.00,0.0017
2747.00,0.0017
2746.00,0.0017
2745.00,0.0017
2744.00,0.0017
2743.00,0.0017
2742.00,0.0017
2741.00,0.0017
2740.00,0.0017
2739.00,0.0017
2738.00,0.0016
2737.00,0.0016
2736.00,0.0016
2735.00,0.0016
2734.00,0.0016
2733.00,0.0016
2732.00,0.0016
2731.00,0.0016
2730.00,0.0016
2729.00,0.0016
2728.00,0.0016
2727.00,0.0015
2726.00,0.0015
2725.00,0.0015
2724.00,0.0015
2723.00,0.0015
2722.00,0.0015
2721.00,0.0015
2720.00,0.0015
2719.00,0.0015
2718.00,0.0015
2717.00,0.0015
2716.00,0.0014
2715.00,0.0014
2714.00,0.0014
2713.00,0.0014
2712.00,0.0014
2711.00,0.0014
2710.00,0.0014
2709.00,0.0014
2708.00,0.0014
2707.00,0.0014
2706.00,0.0014
2705.00,0.0014
2704.00,0.0014
2703.00,0.0014
2702.00,0.0014
2701.00,0.0014
2700.00,0.0014
2699.00,0.0013
2698.00,0.0013
2697.00,0.0013
2696.00,0.0013
2695.00,0.0013
2694.00,0.0013
2693.00,0.0013
2692.00,0.0013
2691.00,0.0013
2690.00,0.0013
2689.00,0.0013
2688.00,0.0013
2687.00,0.0013
2686.00,0.0013
2685.00,0.0013
2684.00,0.0013
2683.00,0.0013
2682.00,0.0013
2681.00,0.0013
2680.00,0.0012
2679.00,0.0012
2678.00,0.0012
2677.00,0.0012
2676.00,0.0012
2675.00,0.0012
2674.00,0.0012
2673.00,0.0012
2672.00,0.0012
2671.00,0.0012
2670.00,0.0012
2669.00,0.0012
2668.00,0.0012
2667.00,0.0012
2666.00,0.0011
2665.00,0.0011
2664.00,0.0011
2663.00,0.0011
2662.00,0.0011
2661.00,0.0011
2660.00,0.0011
2659.00,0.0011
2658.00,0.0011
2657.00,0.0011
2656.00,0.0010
2655.00,0.0010
2654.00,0.0010
2653.00,0.0010
2652.00,0.0010
2651.00,0.0010
2650.00,0.0010
2649.00,0.0010
2648.00,0.0010
2647.00,0.0010
2646.00,0.0010
2645.00,0.0010
2644.00,0.0010
2643.00,0.0010
2642.00,0.0010
2641.00,0.0010
2640.00,0.0010
2639.00,0.0010
2638.00,0.0010
2637.00,0.0009
2636.00,0.0009
2635.00,0.0009
2634.00,0.0009
2633.00,0.0009
2632.00,0.0009
2631.00,0.0009
2630.00,0.0009
2629.00,0.0009
2628.00,0.0009
2627.00,0.0009
2626.00,0.0009
2625.00,0.0009
2624.00,0.0009
2623.00,0.0009
2622.00,0.0009
2621.00,0.0009
2620.00,0.0009
2619.00,0.0009
2618.00,0.0009
2617.00,0.0009
2616.00,0.0009
2615.00,0.0009
2614.00,0.0009
2613.00,0.0009
2612.00,0.0009
2611.00,0.0009
2610.00,0.0009
2609.00,0.0009
2608.00,0.0009
2607.00,0.0009
2606.00,0.0009
2605.00,0.0009
2604.00,0.0009
2603.00,0.0009
2602.00,0.0009
2601.00,0.0008
2600.00,0.0008
2599.00,0.0008
2598.00,0.0008
2597.00,0.0008
2596.00,0.0008
2595.00,0.0008
2594.00,0.0008
2593.00,0.0008
2592.00,0.0008
2591.00,0.0008
2590.00,0.0008
2589.00,0.0008
2588.00,0.0008
2587.00,0.0008
2586.00,0.0008
2585.00,0.0008
2584.00,0.0008
2583.00,0.0008
2582.00,0.0008
2581.00,0.0008
2580.00,0.0008
2579.00,0.0008
2578.00,0.0008
2577.00,0.0008
2576.00,0.0008
2575.00,0.0008
2574.00,0.0008
2573.00,0.0008
2572.00,0.0008
2571.00,0.0007
2570.00,0.0007
2569.00,0.0007
2568.00,0.0007
2567.00,0.0007
2566.00,0.0007
2565.00,0.0007
2564.00,0.0007
2563.00,0.0007
2562.00,0.0007
2561.00,0.0007
2560.00,0.0007
2559.00,0.0007
2558.00,0.0007
2557.00,0.0007
2556.00,0.0007
2555.00,0.0007
2554.00,0.0007
2553.00,0.0007
2552.00,0.0007
2551.00,0.0007
2550.00,0.0007
2549.00,0.0007
2548.00,0.0006
2547.00,0.0006
2546.00,0.0006
2545.00,0.0006
2544.00,0.0006
2543.00,0.0006
2542.00,0.0006
2541.00,0.0006
2540.00,0.0006
2539.00,0.0006
2538.00,0.0006
2537.00,0.0006
2536.00,0.0006
2535.00,0.0006
2534.00,0.0006
2533.00,0.0006
2532.00,0.0006
2531.00,0.0006
2530.00,0.0006
2529.00,0.0006
2528.00,0.0006
2527.00,0.0006
2526.00,0.0006
2525.00,0.0006
2524.00,0.0006
2523.00,0.0006
2522.00,0.0006
2521.00,0.0006
2520.00,0.0006
2519.00,0.0006
2518.00,0.0006
2517.00,0.0006
2516.00,0.0006
2515.00,0.0005
2514.00,0.0005
2513.00,0.0005
2512.00,0.0005
2511.00,0.0005
2510.00,0.0006
2509.00,0.0006
2508.00,0.0006
2507.00,0.0006
2506.00,0.0006
2505.00,0.0006
2504.00,0.0006
2503.00,0.0005
2502.00,0.0005
2501.00,0.0005
2500.00,0.0005
2499.00,0.0005
2498.00,0.0005
2497.00,0.0005
2496.00,0.0005
2495.00,0.0005
2494.00,0.0005
2493.00,0.0005
2492.00,0.0005
2491.00,0.0005
2490.00,0.0005
2489.00,0.0005
2488.00,0.0005
2487.00,0.0005
2486.00,0.0005
2485.00,0.0005
2484.00,0.0005
2483.00,0.0005
2482.00,0.0005
2481.00,0.0005
2480.00,0.0004
2479.00,0.0004
2478.00,0.0004
2477.00,0.0004
2476.00,0.0004
2475.00,0.0004
2474.00,0.0004
2473.00,0.0005
2472.00,0.0005
2471.00,0.0005
2470.00,0.0005
2469.00,0.0004
2468.00,0.0004
2467.00,0.0004
2466.00,0.0004
2465.00,0.0004
2464.00,0.0004
2463.00,0.0004
2462.00,0.0004
2461.00,0.0004
2460.00,0.0004
2459.00,0.0004
2458.00,0.0004
2457.00,0.0004
2456.00,0.0004
2455.00,0.0004
2454.00,0.0004
2453.00,0.0004
2452.00,0.0004
2451.00,0.0004
2450.00,0.0004
2449.00,0.0004
2448.00,0.0004
2447.00,0.0004
2446.00,0.0004
2445.00,0.0004
2444.00,0.0004
2443.00,0.0004
2442.00,0.0003
2441.00,0.0003
2440.00,0.0003
2439.00,0.0003
2438.00,0.0003
2437.00,0.0003
2436.00,0.0003
2435.00,0.0003
2434.00,0.0003
2433.00,0.0003
2432.00,0.0003
2431.00,0.0003
2430.00,0.0003
2429.00,0.0003
2428.00,0.0003
2427.00,0.0003
2426.00,0.0003
2425.00,0.0003
2424.00,0.0003
2423.00,0.0003
2422.00,0.0003
2421.00,0.0003
2420.00,0.0003
2419.00,0.0002
2418.00,0.0002
2417.00,0.0002
2416.00,0.0002
2415.00,0.0002
2414.00,0.0002
2413.00,0.0003
2412.00,0.0003
2411.00,0.0003
2410.00,0.0002
2409.00,0.0002
2408.00,0.0002
2407.00,0.0002
2406.00,0.0003
2405.00,0.0003
2404.00,0.0003
2403.00,0.0002
2402.00,0.0002
2401.00,0.0002
2400.00,0.0002
2399.00,0.0002
2398.00,0.0002
2397.00,0.0002
2396.00,0.0002
2395.00,0.0002
2394.00,0.0002
2393.00,0.0002
2392.00,0.0002
2391.00,0.0002
2390.00,0.0002
2389.00,0.0002
2388.00,0.0002
2387.00,0.0001
2386.00,0.0002
2385.00,0.0002
2384.00,0.0002
2383.00,0.0002
2382.00,0.0002
2381.00,0.0002
2380.00,0.0002
2379.00,0.0002
2378.00,0.0002
2377.00,0.0002
2376.00,0.0002
2375.00,0.0002
2374.00,0.0002
2373.00,0.0002
2372.00,0.0002
2371.00,0.0002
2370.00,0.0002
2369.00,0.0002
2368.00,0.0002
2367.00,0.0002
2366.00,0.0002
2365.00,0.0002
2364.00,0.0002
2363.00,0.0002
2362.00,0.0002
2361.00,0.0002
2360.00,0.0002
2359.00,0.0002
2358.00,0.0001
2357.00,0.0001
2356.00,0.0001
2355.00,0.0001
2354.00,0.0001
2353.00,0.0001
2352.00,0.0001
2351.00,0.0001
2350.00,0.0001
2349.00,0.0002
2348.00,0.0002
2347.00,0.0002
2346.00,0.0003
2345.00,0.0003
2344.00,0.0002
2343.00,0.0002
2342.00,0.0001
2341.00,0.0001
2340.00,0.0001
2339.00,0.0001
2338.00,0.0001
2337.00,0.0001
2336.00,0.0001
2335.00,0.0000
2334.00,0.0000
2333.00,0.0001
2332.00,0.0001
2331.00,0.0001
2330.00,0.0001
2329.00,0.0000
2328.00,0.0000
2327.00,-0.0000
2326.00,-0.0000
2325.00,-0.0000
2324.00,-0.0000
2323.00,0.0000
2322.00,0.0000
2321.00,0.0000
2320.00,0.0000
2319.00,0.0000
2318.00,0.0000
2317.00,0.0000
2316.00,0.0001
2315.00,0.0001
2314.00,0.0001
2313.00,0.0001
2312.00,0.0001
2311.00,0.0001
2310.00,0.0001
2309.00,0.0000
2308.00,0.0000
2307.00,0.0000
2306.00,0.0000
2305.00,0.0000
2304.00,0.0000
2303.00,0.0001
2302.00,0.0001
2301.00,0.0001
2300.00,0.0001
2299.00,0.0000
2298.00,0.0000
2297.00,0.0000
2296.00,0.0000
2295.00,0.0000
2294.00,0.0000
2293.00,0.0000
2292.00,0.0000
2291.00,0.0000
2290.00,0.0000
2289.00,0.0000
2288.00,0.0000
2287.00,0.0001
2286.00,0.0001
2285.00,0.0001
2284.00,0.0001
2283.00,0.0001
2282.00,0.0001
2281.00,0.0001
2280.00,0.0001
2279.00,0.0001
2278.00,0.0001
2277.00,0.0001
2276.00,0.0000
2275.00,0.0001
2274.00,0.0001
2273.00,0.0001
2272.00,0.0001
2271.00,0.0001
2270.00,0.0001
2269.00,0.0001
2268.00,0.0001
2267.00,0.0001
2266.00,0.0001
2265.00,0.0001
2264.00,0.0001
2263.00,0.0002
2262.00,0.0002
2261.00,0.0002
2260.00,0.0001
2259.00,0.0001
2258.00,0.0001
2257.00,0.0001
2256.00,0.0001
2255.00,0.0001
2254.00,0.0001
2253.00,0.0001
2252.00,0.0001
2251.00,0.0001
2250.00,0.0001
2249.00,0.0001
2248.00,0.0001
2247.00,0.0001
2246.00,0.0000
2245.00,0.0000
2244.00,0.0000
2243.00,0.0001
2242.00,0.0001
2241.00,0.0001
2240.00,0.0001
2239.00,0.0002
2238.00,0.0002
2237.00,0.0002
2236.00,0.0002
2235.00,0.0002
2234.00,0.0002
2233.00,0.0002
2232.00,0.0002
2231.00,0.0002
2230.00,0.0002
2229.00,0.0002
2228.00,0.0001
2227.00,0.0001
2226.00,0.0001
2225.00,0.0001
2224.00,0.0001
2223.00,0.0001
2222.00,0.0002
2221.00,0.0002
2220.00,0.0002
2219.00,0.0002
2218.00,0.0002
2217.00,0.0002
2216.00,0.0002
2215.00,0.0002
2214.00,0.0002
2213.00,0.0001
2212.00,0.0001
2211.00,0.0001
2210.00,0.0001
2209.00,0.0001
2208.00,0.0001
2207.00,0.0001
2206.00,0.0001
2205.00,0.0001
2204.00,0.0001
2203.00,0.0001
2202.00,0.0001
2201.00,0.0000
2200.00,0.0000
2199.00,0.0001
2198.00,0.0001
2197.00,0.0001
2196.00,0.0001
2195.00,0.0001
2194.00,0.0001
2193.00,0.0001
2192.00,0.0002
2191.00,0.0002
2190.00,0.0001
2189.00,0.0001
2188.00,0.0001
2187.00,0.0001
2186.00,0.0001
2185.00,0.0002
2184.00,0.0002
2183.00,0.0002
2182.00,0.0002
2181.00,0.0002
2180.00,0.0002
2179.00,0.0002
2178.00,0.0002
2177.00,0.0002
2176.00,0.0002
2175.00,0.0002
2174.00,0.0002
2173.00,0.0002
2172.00,0.0002
2171.00,0.0002
2170.00,0.0002
2169.00,0.0002
2168.00,0.0002
2167.00,0.0003
2166.00,0.0003
2165.00,0.0003
2164.00,0.0003
2163.00,0.0002
2162.00,0.0002
2161.00,0.0002
2160.00,0.0003
2159.00,0.0003
2158.00,0.0004
2157.00,0.0004
2156.00,0.0004
2155.00,0.0004
2154.00,0.0003
2153.00,0.0002
2152.00,0.0002
2151.00,0.0001
2150.00,0.0001
2149.00,0.0002
2148.00,0.0002
2147.00,0.0002
2146.00,0.0002
2145.00,0.0001
2144.00,0.0002
2143.00,0.0002
2142.00,0.0002
2141.00,0.0002
2140.00,0.0003
2139.00,0.0002
2138.00,0.0002
2137.00,0.0002
2136.00,0.0002
2135.00,0.0002
2134.00,0.0002
2133.00,0.0002
2132.00,0.0002
2131.00,0.0002
2130.00,0.0001
2129.00,0.0001
2128.00,0.0000
2127.00,0.0000
2126.00,0.0001
2125.00,0.0001
2124.00,0.0001
2123.00,0.0001
2122.00,0.0001
2121.00,0.0001
2120.00,0.0001
2119.00,0.0001
2118.00,0.0002
2117.00,0.0002
2116.00,0.0001
2115.00,0.0001
2114.00,0.0001
2113.00,0.0001
2112.00,0.0001
2111.00,0.0001
2110.00,0.0001
2109.00,0.0001
2108.00,0.0001
2107.00,0.0001
2106.00,0.0001
2105.00,0.0001
2104.00,0.0001
2103.00,0.0001
2102.00,0.0001
2101.00,0.0000
2100.00,0.0000
2099.00,0.0000
2098.00,0.0000
2097.00,0.0001
2096.00,0.0001
2095.00,0.0001
2094.00,0.0001
2093.00,0.0001
2092.00,0.0001
2091.00,0.0000
2090.00,0.0001
2089.00,0.0001
2088.00,0.0001
2087.00,0.0001
2086.00,0.0001
2085.00,0.0001
2084.00,0.0001
2083.00,0.0001
2082.00,0.0001
2081.00,0.0000
2080.00,0.0000
2079.00,0.0000
2078.00,0.0000
2077.00,-0.0000
2076.00,-0.0000
2075.00,-0.0000
2074.00,0.0000
2073.00,0.0000
2072.00,0.0000
2071.00,0.0000
2070.00,0.0000
2069.00,0.0001
2068.00,0.0001
2067.00,0.0000
2066.00,0.0000
2065.00,0.0000
2064.00,0.0000
2063.00,0.0001
2062.00,0.0001
2061.00,0.0000
2060.00,0.0000
2059.00,-0.0000
2058.00,-0.0000
2057.00,-0.0000
2056.00,-0.0000
2055.00,0.0000
2054.00,-0.0000
2053.00,-0.0000
2052.00,-0.0001
2051.00,-0.0001
2050.00,-0.0001
2049.00,-0.0001
2048.00,-0.0001
2047.00,-0.0001
2046.00,-0.0001
2045.00,-0.0001
2044.00,-0.0001
2043.00,-0.0001
2042.00,-0.0001
2041.00,-0.0001
2040.00,-0.0000
2039.00,0.0000
2038.00,0.0000
2037.00,0.0001
2036.00,0.0000
2035.00,-0.0000
2034.00,-0.0001
2033.00,-0.0002
2032.00,-0.0002
2031.00,-0.0002
2030.00,-0.0002
2029.00,-0.0001
2028.00,-0.0001
2027.00,-0.0001
2026.00,-0.0001
2025.00,-0.0001
2024.00,0.0000
2023.00,0.0001
2022.00,0.0001
2021.00,0.0001
2020.00,0.0001
2019.00,0.0001
2018.00,0.0001
2017.00,0.0001
2016.00,0.0000
2015.00,-0.0001
2014.00,-0.0001
2013.00,-0.0002
2012.00,-0.0002
2011.00,-0.0002
2010.00,-0.0002
2009.00,-0.0002
2008.00,-0.0001
2007.00,0.0000
2006.00,0.0001
2005.00,0.0001
2004.00,0.0001
2003.00,0.0001
2002.00,0.0001
2001.00,0.0000
2000.00,0.0001
1999.00,0.0001
1998.00,0.0000
1997.00,-0.0000
1996.00,-0.0001
1995.00,-0.0001
1994.00,-0.0001
1993.00,-0.0002
1992.00,-0.0002
1991.00,-0.0001
1990.00,-0.0001
1989.00,-0.0001
1988.00,-0.0000
1987.00,0.0000
1986.00,-0.0000
1985.00,-0.0001
1984.00,-0.0001
1983.00,-0.0002
1982.00,-0.0002
1981.00,-0.0001
1980.00,-0.0000
1979.00,0.0000
1978.00,0.0000
1977.00,0.0001
1976.00,0.0001
1975.00,0.0001
1974.00,0.0001
1973.00,-0.0000
1972.00,-0.0001
1971.00,-0.0002
1970.00,-0.0003
1969.00,-0.0003
1968.00,-0.0003
1967.00,-0.0003
1966.00,-0.0002
1965.00,-0.0001
1964.00,-0.0001
1963.00,-0.0001
1962.00,-0.0001
1961.00,-0.0001
1960.00,-0.0000
1959.00,0.0000
1958.00,0.0000
1957.00,0.0000
1956.00,-0.0000
1955.00,-0.0000
1954.00,-0.0000
1953.00,-0.0000
1952.00,-0.0000
1951.00,-0.0000
1950.00,-0.0000
1949.00,-0.0001
1948.00,-0.0001
1947.00,-0.0001
1946.00,-0.0001
1945.00,-0.0002
1944.00,-0.0002
1943.00,-0.0002
1942.00,-0.0002
1941.00,-0.0001
1940.00,-0.0000
1939.00,-0.0001
1938.00,-0.0001
1937.00,-0.0001
1936.00,-0.0001
1935.00,-0.0001
1934.00,-0.0001
1933.00,-0.0001
1932.00,-0.0001
1931.00,-0.0001
1930.00,-0.0001
1929.00,-0.0002
1928.00,-0.0002
1927.00,-0.0002
1926.00,-0.0002
1925.00,-0.0002
1924.00,-0.0002
1923.00,-0.0002
1922.00,-0.0002
1921.00,-0.0002
1920.00,-0.0003
1919.00,-0.0003
1918.00,-0.0002
1917.00,-0.0002
1916.00,-0.0002
1915.00,-0.0002
1914.00,-0.0002
1913.00,-0.0002
1912.00,-0.0002
1911.00,-0.0001
1910.00,-0.0001
1909.00,-0.0001
1908.00,-0.0001
1907.00,-0.0001
1906.00,-0.0001
1905.00,-0.0001
1904.00,-0.0002
1903.00,-0.0002
1902.00,-0.0002
1901.00,-0.0002
1900.00,-0.0002
1899.00,-0.0002
1898.00,-0.0002
1897.00,-0.0003
1896.00,-0.0003
1895.00,-0.0002
1894.00,-0.0002
1893.00,-0.0002
1892.00,-0.0002
1891.00,-0.0002
1890.00,-0.0002
1889.00,-0.0002
1888.00,-0.0002
1887.00,-0.0002
1886.00,-0.0002
1885.00,-0.0002
1884.00,-0.0002
1883.00,-0.0002
1882.00,-0.0002
1881.00,-0.0002
1880.00,-0.0002
1879.00,-0.0002
1878.00,-0.0002
1877.00,-0.0002
1876.00,-0.0002
1875.00,-0.0002
1874.00,-0.0002
1873.00,-0.0002
1872.00,-0.0002
1871.00,-0.0003
1870.00,-0.0003
1869.00,-0.0003
1868.00,-0.0002
1867.00,-0.0002
1866.00,-0.0002
1865.00,-0.0003
1864.00,-0.0003
1863.00,-0.0003
1862.00,-0.0003
1861.00,-0.0003
1860.00,-0.0002
1859.00,-0.0002
1858.00,-0.0002
1857.00,-0.0002
1856.00,-0.0002
1855.00,-0.0002
1854.00,-0.0002
1853.00,-0.0002
1852.00,-0.0002
1851.00,-0.0002
1850.00,-0.0002
1849.00,-0.0002
1848.00,-0.0002
1847.00,-0.0002
1846.00,-0.0002
1845.00,-0.0003
1844.00,-0.0003
1843.00,-0.0003
1842.00,-0.0003
1841.00,-0.0003
1840.00,-0.0003
1839.00,-0.0003
1838.00,-0.0003
1837.00,-0.0002
1836.00,-0.0002
1835.00,-0.0003
1834.00,-0.0003
1833.00,-0.0003
1832.00,-0.0004
1831.00,-0.0004
1830.00,-0.0003
1829.00,-0.0002
1828.00,-0.0002
1827.00,-0.0003
1826.00,-0.0003
1825.00,-0.0003
1824.00,-0.0002
1823.00,-0.0002
1822.00,-0.0003
1821.00,-0.0003
1820.00,-0.0003
1819.00,-0.0003
1818.00,-0.0003
1817.00,-0.0003
1816.00,-0.0003
1815.00,-0.0002
1814.00,-0.0003
1813.00,-0.0003
1812.00,-0.0003
1811.00,-0.0003
1810.00,-0.0002
1809.00,-0.0002
1808.00,-0.0002
1807.00,-0.0002
1806.00,-0.0002
1805.00,-0.0003
1804.00,-0.0003
1803.00,-0.0003
1802.00,-0.0004
1801.00,-0.0003
1800.00,-0.0003
1799.00,-0.0002
1798.00,-0.0002
1797.00,-0.0002
1796.00,-0.0003
1795.00,-0.0003
1794.00,-0.0004
1793.00,-0.0003
1792.00,-0.0002
1791.00,-0.0001
1790.00,-0.0001
1789.00,-0.0002
1788.00,-0.0002
1787.00,-0.0002
1786.00,-0.0002
1785.00,-0.0002
1784.00,-0.0002
1783.00,-0.0002
1782.00,-0.0002
1781.00,-0.0002
1780.00,-0.0002
1779.00,-0.0001
1778.00,-0.0002
1777.00,-0.0002
1776.00,-0.0002
1775.00,-0.0002
1774.00,-0.0002
1773.00,-0.0001
1772.00,0.0001
1771.00,0.0002
1770.00,0.0001
1769.00,-0.0001
1768.00,-0.0001
1767.00,-0.0000
1766.00,-0.0000
1765.00,-0.0001
1764.00,-0.0001
1763.00,-0.0001
1762.00,0.0000
1761.00,0.0001
1760.00,0.0001
1759.00,0.0000
1758.00,-0.0000
1757.00,0.0000
1756.00,0.0001
1755.00,0.0002
1754.00,0.0001
1753.00,0.0001
1752.00,0.0001
1751.00,0.0002
1750.00,0.0002
1749.00,0.0002
1748.00,0.0003
1747.00,0.0003
1746.00,0.0003
1745.00,0.0003
1744.00,0.0003
1743.00,0.0004
1742.00,0.0004
1741.00,0.0005
1740.00,0.0006
1739.00,0.0008
1738.00,0.0008
1737.00,0.0006
1736.00,0.0006
1735.00,0.0007
1734.00,0.0010
1733.00,0.0012
1732.00,0.0011
1731.00,0.0009
1730.00,0.0008
1729.00,0.0009
1728.00,0.0010
1727.00,0.0010
1726.00,0.0010
1725.00,0.0011
1724.00,0.0011
1723.00,0.0012
1722.00,0.0012
1721.00,0.0011
1720.00,0.0011
1719.00,0.0012
1718.00,0.0014
1717.00,0.0016
1716.00,0.0017
1715.00,0.0017
1714.00,0.0018
1713.00,0.0018
1712.00,0.0019
1711.00,0.0020
1710.00,0.0021
1709.00,0.0022
1708.00,0.0024
1707.00,0.0026
1706.00,0.0028
1705.00,0.0030
1704.00,0.0033
1703.00,0.0037
1702.00,0.0041
1701.00,0.0045
1700.00,0.0050
1699.00,0.0061
1698.00,0.0063
1697.00,0.0064
1696.00,0.0068
1695.00,0.0073
1694.00,0.0076
1693.00,0.0076
1692.00,0.0075
1691.00,0.0076
1690.00,0.0078
1689.00,0.0079
1688.00,0.0081
1687.00,0.0083
1686.00,0.0085
1685.00,0.0089
1684.00,0.0092
1683.00,0.0095
1682.00,0.0095
1681.00,0.0096
1680.00,0.0098
1679.00,0.0100
1678.00,0.0103
1677.00,0.0106
1676.00,0.0109
1675.00,0.0112
1674.00,0.0115
1673.00,0.0117
1672.00,0.0119
1671.00,0.0121
1670.00,0.0123
1669.00,0.0126
1668.00,0.0129
1667.00,0.0131
1666.00,0.0134
1665.00,0.0137
1664.00,0.0140
1663.00,0.0142
1662.00,0.0145
1661.00,0.0148
1660.00,0.0150
1659.00,0.0153
1658.00,0.0156
1657.00,0.0160
1656.00,0.0164
1655.00,0.0167
1654.00,0.0169
1653.00,0.0170
1652.00,0.0173
1651.00,0.0175
1650.00,0.0175
1649.00,0.0175
1648.00,0.0175
1647.00,0.0175
1646.00,0.0174
1645.00,0.0175
1644.00,0.0176
1643.00,0.0177
1642.00,0.0178
1641.00,0.0180
1640.00,0.0181
1639.00,0.0183
1638.00,0.0185
1637.00,0.0186
1636.00,0.0186
1635.00,0.0187
1634.00,0.0188
1633.00,0.0190
1632.00,0.0193
1631.00,0.0195
1630.00,0.0198
1629.00,0.0201
1628.00,0.0204
1627.00,0.0208
1626.00,0.0212
1625.00,0.0215
1624.00,0.0219
1623.00,0.0221
1622.00,0.0224
1621.00,0.0227
1620.00,0.0231
1619.00,0.0235
1618.00,0.0237
1617.00,0.0236
1616.00,0.0234
1615.00,0.0232
1614.00,0.0230
1613.00,0.0228
1612.00,0.0226
1611.00,0.0222
1610.00,0.0217
1609.00,0.0211
1608.00,0.0205
1607.00,0.0200
1606.00,0.0194
1605.00,0.0189
1604.00,0.0183
1603.00,0.0178
1602.00,0.0173
1601.00,0.0168
1600.00,0.0164
1599.00,0.0160
1598.00,0.0156
1597.00,0.0153
1596.00,0.0150
1595.00,0.0147
1594.00,0.0144
1593.00,0.0142
1592.00,0.0140
1591.00,0.0137
1590.00,0.0136
1589.00,0.0134
1588.00,0.0132
1587.00,0.0131
1586.00,0.0130
1585.00,0.0129
1584.00,0.0128
1583.00,0.0128
1582.00,0.0127
1581.00,0.0127
1580.00,0.0127
1579.00,0.0128
1578.00,0.0128
1577.00,0.0129
1576.00,0.0130
1575.00,0.0131
1574.00,0.0131
1573.00,0.0131
1572.00,0.0132
1571.00,0.0133
1570.00,0.0134
1569.00,0.0136
1568.00,0.0137
1567.00,0.0138
1566.00,0.0140
1565.00,0.0142
1564.00,0.0144
1563.00,0.0147
1562.00,0.0150
1561.00,0.0155
1560.00,0.0158
1559.00,0.0157
1558.00,0.0158
1557.00,0.0160
1556.00,0.0161
1555.00,0.0163
1554.00,0.0166
1553.00,0.0168
1552.00,0.0171
1551.00,0.0172
1550.00,0.0174
1549.00,0.0176
1548.00,0.0179
1547.00,0.0182
1546.00,0.0185
1545.00,0.0187
1544.00,0.0189
1543.00,0.0191
1542.00,0.0193
1541.00,0.0195
1540.00,0.0194
1539.00,0.0195
1538.00,0.0197
1537.00,0.0199
1536.00,0.0201
1535.00,0.0202
1534.00,0.0203
1533.00,0.0203
1532.00,0.0203
1531.00,0.0205
1530.00,0.0207
1529.00,0.0209
1528.00,0.0210
1527.00,0.0210
1526.00,0.0210
1525.00,0.0211
1524.00,0.0212
1523.00,0.0213
1522.00,0.0212
1521.00,0.0211
1520.00,0.0210
1519.00,0.0211
1518.00,0.0210
1517.00,0.0209
1516.00,0.0208
1515.00,0.0207
1514.00,0.0207
1513.00,0.0207
1512.00,0.0205
1511.00,0.0203
1510.00,0.0202
1509.00,0.0199
1508.00,0.0194
1507.00,0.0187
1506.00,0.0181
1505.00,0.0178
1504.00,0.0176
1503.00,0.0174
1502.00,0.0171
1501.00,0.0169
1500.00,0.0166
1499.00,0.0162
1498.00,0.0158
1497.00,0.0154
1496.00,0.0149
1495.00,0.0146
1494.00,0.0142
1493.00,0.0139
1492.00,0.0135
1491.00,0.0131
1490.00,0.0125
1489.00,0.0120
1488.00,0.0117
1487.00,0.0115
1486.00,0.0113
1485.00,0.0111
1484.00,0.0109
1483.00,0.0107
1482.00,0.0105
1481.00,0.0104
1480.00,0.0103
1479.00,0.0102
1478.00,0.0101
1477.00,0.0101
1476.00,0.0100
1475.00,0.0100
1474.00,0.0101
1473.00,0.0102
1472.00,0.0103
1471.00,0.0105
1470.00,0.0106
1469.00,0.0107
1468.00,0.0107
1467.00,0.0108
1466.00,0.0108
1465.00,0.0108
1464.00,0.0109
1463.00,0.0109
1462.00,0.0109
1461.00,0.0110
1460.00,0.0110
1459.00,0.0111
1458.00,0.0112
1457.00,0.0113
1456.00,0.0115
1455.00,0.0116
1454.00,0.0116
1453.00,0.0116
1452.00,0.0116
1451.00,0.0116
1450.00,0.0116
1449.00,0.0116
1448.00,0.0115
1447.00,0.0115
1446.00,0.0115
1445.00,0.0114
1444.00,0.0114
1443.00,0.0114
1442.00,0.0113
1441.00,0.0113
1440.00,0.0112
1439.00,0.0111
1438.00,0.0110
1437.00,0.0108
1436.00,0.0106
1435.00,0.0105
1434.00,0.0103
1433.00,0.0102
1432.00,0.0101
1431.00,0.0099
1430.00,0.0098
1429.00,0.0097
1428.00,0.0097
1427.00,0.0096
1426.00,0.0096
1425.00,0.0096
1424.00,0.0096
1423.00,0.0096
1422.00,0.0097
1421.00,0.0098
1420.00,0.0099
1419.00,0.0100
1418.00,0.0100
1417.00,0.0101
1416.00,0.0102
1415.00,0.0104
1414.00,0.0106
1413.00,0.0108
1412.00,0.0109
1411.00,0.0110
1410.00,0.0111
1409.00,0.0112
1408.00,0.0114
1407.00,0.0114
1406.00,0.0115
1405.00,0.0116
1404.00,0.0116
1403.00,0.0117
1402.00,0.0118
1401.00,0.0119
1400.00,0.0119
1399.00,0.0119
1398.00,0.0119
1397.00,0.0119
1396.00,0.0119
1395.00,0.0119
1394.00,0.0119
1393.00,0.0120
1392.00,0.0121
1391.00,0.0121
1390.00,0.0121
1389.00,0.0121
1388.00,0.0121
1387.00,0.0120
1386.00,0.0119
1385.00,0.0119
1384.00,0.0118
1383.00,0.0117
1382.00,0.0116
1381.00,0.0115
1380.00,0.0114
1379.00,0.0113
1378.00,0.0112
1377.00,0.0110
1376.00,0.0109
1375.00,0.0108
1374.00,0.0106
1373.00,0.0105
1372.00,0.0105
1371.00,0.0104
1370.00,0.0104
1369.00,0.0103
1368.00,0.0102
1367.00,0.0101
1366.00,0.0099
1365.00,0.0097
1364.00,0.0095
1363.00,0.0093
1362.00,0.0091
1361.00,0.0091
1360.00,0.0091
1359.00,0.0091
1358.00,0.0091
1357.00,0.0092
1356.00,0.0092
1355.00,0.0093
1354.00,0.0093
1353.00,0.0094
1352.00,0.0095
1351.00,0.0096
1350.00,0.0096
1349.00,0.0097
1348.00,0.0097
1347.00,0.0097
1346.00,0.0097
1345.00,0.0097
1344.00,0.0097
1343.00,0.0096
1342.00,0.0095
1341.00,0.0094
1340.00,0.0093
1339.00,0.0091
1338.00,0.0091
1337.00,0.0091
1336.00,0.0091
1335.00,0.0091
1334.00,0.0090
1333.00,0.0090
1332.00,0.0090
1331.00,0.0090
1330.00,0.0089
1329.00,0.0089
1328.00,0.0089
1327.00,0.0089
1326.00,0.0088
1325.00,0.0088
1324.00,0.0088
1323.00,0.0088
1322.00,0.0088
1321.00,0.0088
1320.00,0.0087
1319.00,0.0087
1318.00,0.0087
1317.00,0.0087
1316.00,0.0087
1315.00,0.0087
1314.00,0.0087
1313.00,0.0087
1312.00,0.0087
1311.00,0.0087
1310.00,0.0087
1309.00,0.0087
1308.00,0.0086
1307.00,0.0086
1306.00,0.0086
1305.00,0.0085
1304.00,0.0085
1303.00,0.0085
1302.00,0.0085
1301.00,0.0085
1300.00,0.0085
1299.00,0.0085
1298.00,0.0085
1297.00,0.0085
1296.00,0.0085
1295.00,0.0085
1294.00,0.0085
1293.00,0.0085
1292.00,0.0086
1291.00,0.0086
1290.00,0.0086
1289.00,0.0086
1288.00,0.0086
1287.00,0.0087
1286.00,0.0087
1285.00,0.0087
1284.00,0.0087
1283.00,0.0088
1282.00,0.0088
1281.00,0.0088
1280.00,0.0088
1279.00,0.0088
1278.00,0.0088
1277.00,0.0087
1276.00,0.0087
1275.00,0.0088
1274.00,0.0088
1273.00,0.0088
1272.00,0.0088
1271.00,0.0088
1270.00,0.0089
1269.00,0.0089
1268.00,0.0089
1267.00,0.0090
1266.00,0.0091
1265.00,0.0091
1264.00,0.0092
1263.00,0.0093
1262.00,0.0094
1261.00,0.0095
1260.00,0.0096
1259.00,0.0097
1258.00,0.0098
1257.00,0.0099
1256.00,0.0100
1255.00,0.0101
1254.00,0.0102
1253.00,0.0103
1252.00,0.0105
1251.00,0.0106
1250.00,0.0107
1249.00,0.0108
1248.00,0.0109
1247.00,0.0110
1246.00,0.0111
1245.00,0.0111
1244.00,0.0112
1243.00,0.0113
1242.00,0.0114
1241.00,0.0114
1240.00,0.0115
1239.00,0.0115
1238.00,0.0116
1237.00,0.0116
1236.00,0.0116
1235.00,0.0117
1234.00,0.0117
1233.00,0.0117
1232.00,0.0117
1231.00,0.0116
1230.00,0.0116
1229.00,0.0116
1228.00,0.0115
1227.00,0.0115
1226.00,0.0114
1225.00,0.0113
1224.00,0.0112
1223.00,0.0112
1222.00,0.0111
1221.00,0.0110
1220.00,0.0109
1219.00,0.0107
1218.00,0.0106
1217.00,0.0105
1216.00,0.0103
1215.00,0.0102
1214.00,0.0100
1213.00,0.0098
1212.00,0.0096
1211.00,0.0095
1210.00,0.0093
1209.00,0.0091
1208.00,0.0090
1207.00,0.0088
1206.00,0.0086
1205.00,0.0085
1204.00,0.0083
1203.00,0.0082
1202.00,0.0081
1201.00,0.0080
1200.00,0.0079
1199.00,0.0078
1198.00,0.0077
1197.00,0.0076
1196.00,0.0076
1195.00,0.0075
1194.00,0.0075
1193.00,0.0074
1192.00,0.0074
1191.00,0.0073
1190.00,0.0073
1189.00,0.0072
1188.00,0.0072
1187.00,0.0072
1186.00,0.0071
1185.00,0.0071
1184.00,0.0071
1183.00,0.0071
1182.00,0.0071
1181.00,0.0071
1180.00,0.0071
1179.00,0.0071
1178.00,0.0072
1177.00,0.0072
1176.00,0.0073
1175.00,0.0074
1174.00,0.0075
1173.00,0.0076
1172.00,0.0077
1171.00,0.0078
1170.00,0.0078
1169.00,0.0078
1168.00,0.0079
1167.00,0.0079
1166.00,0.0079
1165.00,0.0079
1164.00,0.0079
1163.00,0.0079
1162.00,0.0080
1161.00,0.0080
1160.00,0.0080
1159.00,0.0080
1158.00,0.0080
1157.00,0.0081
1156.00,0.0081
1155.00,0.0080
1154.00,0.0080
1153.00,0.0080
1152.00,0.0079
1151.00,0.0079
1150.00,0.0078
1149.00,0.0078
1148.00,0.0078
1147.00,0.0077
1146.00,0.0077
1145.00,0.0076
1144.00,0.0075
1143.00,0.0075
1142.00,0.0075
1141.00,0.0075
1140.00,0.0075
1139.00,0.0075
1138.00,0.0075
1137.00,0.0075
1136.00,0.0075
1135.00,0.0076
1134.00,0.0076
1133.00,0.0076
1132.00,0.0077
1131.00,0.0077
1130.00,0.0078
1129.00,0.0079
1128.00,0.0080
1127.00,0.0080
1126.00,0.0081
1125.00,0.0082
1124.00,0.0082
1123.00,0.0083
1122.00,0.0083
1121.00,0.0084
1120.00,0.0084
1119.00,0.0084
1118.00,0.0085
1117.00,0.0085
1116.00,0.0085
1115.00,0.0086
1114.00,0.0086
1113.00,0.0087
1112.00,0.0087
1111.00,0.0088
1110.00,0.0088
1109.00,0.0088
1108.00,0.0088
1107.00,0.0089
1106.00,0.0089
1105.00,0.0089
1104.00,0.0090
1103.00,0.0090
1102.00,0.0090
1101.00,0.0091
1100.00,0.0091
1099.00,0.0091
1098.00,0.0092
1097.00,0.0093
1096.00,0.0093
1095.00,0.0094
1094.00,0.0095
1093.00,0.0096
1092.00,0.0097
1091.00,0.0099
1090.00,0.0100
1089.00,0.0102
1088.00,0.0104
1087.00,0.0105
1086.00,0.0107
1085.00,0.0108
1084.00,0.0110
1083.00,0.0111
1082.00,0.0113
1081.00,0.0114
1080.00,0.0115
1079.00,0.0116
1078.00,0.0117
1077.00,0.0118
1076.00,0.0119
1075.00,0.0119
1074.00,0.0120
1073.00,0.0120
1072.00,0.0120
1071.00,0.0121
1070.00,0.0120
1069.00,0.0120
1068.00,0.0120
1067.00,0.0120
1066.00,0.0120
1065.00,0.0120
1064.00,0.0120
1063.00,0.0120
1062.00,0.0119
1061.00,0.0119
1060.00,0.0118
1059.00,0.0117
1058.00,0.0116
1057.00,0.0116
1056.00,0.0115
1055.00,0.0114
1054.00,0.0114
1053.00,0.0113
1052.00,0.0112
1051.00,0.0111
1050.00,0.0110
1049.00,0.0110
1048.00,0.0109
1047.00,0.0108
1046.00,0.0107
1045.00,0.0106
1044.00,0.0105
1043.00,0.0104
1042.00,0.0103
1041.00,0.0101
1040.00,0.0100
1039.00,0.0099
1038.00,0.0098
1037.00,0.0097
1036.00,0.0096
1035.00,0.0095
1034.00,0.0095
1033.00,0.0094
1032.00,0.0094
1031.00,0.0093
1030.00,0.0092
1029.00,0.0091
1028.00,0.0090
1027.00,0.0089
1026.00,0.0088
1025.00,0.0087
1024.00,0.0086
1023.00,0.0084
1022.00,0.0083
1021.00,0.0082
1020.00,0.0081
1019.00,0.0079
1018.00,0.0078
1017.00,0.0076
1016.00,0.0075
1015.00,0.0073
1014.00,0.0072
1013.00,0.0071
1012.00,0.0069
1011.00,0.0068
1010.00,0.0066
1009.00,0.0065
1008.00,0.0063
1007.00,0.0062
1006.00,0.0061
1005.00,0.0060
1004.00,0.0059
1003.00,0.0058
1002.00,0.0057
1001.00,0.0056
1000.00,0.0056
999.00,0.0055
998.00,0.0054
997.00,0.0054
996.00,0.0054
995.00,0.0053
994.00,0.0053
993.00,0.0052
992.00,0.0052
991.00,0.0051
990.00,0.0051
989.00,0.0051
988.00,0.0051
987.00,0.0051
986.00,0.0051
985.00,0.0051
984.00,0.0051
983.00,0.0052
982.00,0.0052
981.00,0.0053
980.00,0.0053
979.00,0.0054
978.00,0.0054
977.00,0.0055
976.00,0.0055
975.00,0.0056
974.00,0.0056
973.00,0.0056
972.00,0.0056
971.00,0.0056
970.00,0.0056
969.00,0.0056
968.00,0.0056
967.00,0.0055
966.00,0.0054
965.00,0.0054
964.00,0.0054
963.00,0.0053
962.00,0.0053
961.00,0.0053
960.00,0.0052
959.00,0.0052
958.00,0.0052
957.00,0.0051
956.00,0.0051
955.00,0.0051
954.00,0.0051
953.00,0.0051
952.00,0.0051
951.00,0.0050
950.00,0.0050
949.00,0.0050
948.00,0.0050
947.00,0.0050
946.00,0.0050
945.00,0.0050
944.00,0.0050
943.00,0.0050
942.00,0.0051
941.00,0.0051
940.00,0.0051
939.00,0.0051
938.00,0.0051
937.00,0.0051
936.00,0.0051
935.00,0.0051
934.00,0.0051
933.00,0.0051
932.00,0.0051
931.00,0.0051
930.00,0.0050
929.00,0.0050
928.00,0.0049
927.00,0.0049
926.00,0.0048
925.00,0.0048
924.00,0.0047
923.00,0.0047
922.00,0.0046
921.00,0.0046
920.00,0.0045
919.00,0.0045
918.00,0.0044
917.00,0.0044
916.00,0.0044
915.00,0.0043
914.00,0.0043
913.00,0.0043
912.00,0.0042
911.00,0.0042
910.00,0.0042
909.00,0.0042
908.00,0.0042
907.00,0.0042
906.00,0.0042
905.00,0.0042
904.00,0.0042
903.00,0.0042
902.00,0.0042
901.00,0.0042
900.00,0.0042
899.00,0.0042
898.00,0.0042
897.00,0.0042
896.00,0.0042
895.00,0.0042
894.00,0.0042
893.00,0.0042
892.00,0.0042
891.00,0.0042
890.00,0.0042
889.00,0.0042
888.00,0.0042
887.00,0.0042
886.00,0.0042
885.00,0.0042
884.00,0.0042
883.00,0.0042
882.00,0.0042
881.00,0.0042
880.00,0.0042
879.00,0.0042
878.00,0.0042
877.00,0.0042
876.00,0.0042
875.00,0.0042
874.00,0.0041
873.00,0.0041
872.00,0.0041
871.00,0.0041
870.00,0.0041
869.00,0.0041
868.00,0.0041
867.00,0.0041
866.00,0.0041
865.00,0.0041
864.00,0.0041
863.00,0.0042
862.00,0.0042
861.00,0.0043
860.00,0.0043
859.00,0.0044
858.00,0.0044
857.00,0.0045
856.00,0.0045
855.00,0.0046
854.00,0.0046
853.00,0.0047
852.00,0.0048
851.00,0.0048
850.00,0.0048
849.00,0.0048
848.00,0.0048
847.00,0.0049
846.00,0.0049
845.00,0.0050
844.00,0.0050
843.00,0.0050
842.00,0.0051
841.00,0.0051
840.00,0.0052
839.00,0.0053
838.00,0.0054
837.00,0.0055
836.00,0.0055
835.00,0.0056
834.00,0.0057
833.00,0.0058
832.00,0.0059
831.00,0.0060
830.00,0.0061
829.00,0.0061
828.00,0.0062
827.00,0.0062
826.00,0.0062
825.00,0.0062
824.00,0.0062
823.00,0.0062
822.00,0.0062
821.00,0.0063
820.00,0.0063
819.00,0.0063
818.00,0.0063
817.00,0.0064
816.00,0.0064
815.00,0.0065
814.00,0.0066
813.00,0.0066
812.00,0.0067
811.00,0.0067
810.00,0.0067
809.00,0.0068
808.00,0.0068
807.00,0.0069
806.00,0.0069
805.00,0.0070
804.00,0.0070
803.00,0.0071
802.00,0.0071
801.00,0.0072
800.00,0.0073
799.00,0.0073
798.00,0.0074
797.00,0.0075
796.00,0.0075
795.00,0.0076
794.00,0.0077
793.00,0.0078
792.00,0.0079
791.00,0.0081
790.00,0.0082
789.00,0.0083
788.00,0.0084
787.00,0.0085
786.00,0.0086
785.00,0.0087
784.00,0.0088
783.00,0.0089
782.00,0.0090
781.00,0.0091
780.00,0.0091
779.00,0.0092
778.00,0.0093
777.00,0.0094
776.00,0.0094
775.00,0.0095
774.00,0.0095
773.00,0.0096
772.00,0.0097
771.00,0.0097
770.00,0.0098
769.00,0.0098
768.00,0.0099
767.00,0.0099
766.00,0.0099
765.00,0.0100
764.00,0.0101
763.00,0.0101
762.00,0.0102
761.00,0.0102
760.00,0.0102
759.00,0.0102
758.00,0.0103
757.00,0.0103
756.00,0.0104
755.00,0.0104
754.00,0.0105
753.00,0.0106
752.00,0.0106
751.00,0.0107
750.00,0.0108
749.00,0.0109
748.00,0.0110
747.00,0.0110
746.00,0.0111
745.00,0.0111
744.00,0.0112
743.00,0.0112
742.00,0.0113
741.00,0.0113
740.00,0.0114
739.00,0.0114
738.00,0.0114
737.00,0.0115
736.00,0.0115
735.00,0.0116
734.00,0.0117
733.00,0.0118
732.00,0.0119
731.00,0.0120
730.00,0.0121
729.00,0.0123
728.00,0.0125
727.00,0.0127
726.00,0.0129
725.00,0.0130
724.00,0.0132
723.00,0.0134
722.00,0.0137
721.00,0.0139
720.00,0.0140
719.00,0.0142
718.00,0.0144
717.00,0.0145
716.00,0.0147
715.00,0.0148
714.00,0.0150
713.00,0.0151
712.00,0.0152
711.00,0.0154
710.00,0.0155
709.00,0.0157
708.00,0.0158
707.00,0.0160
706.00,0.0162
705.00,0.0164
704.00,0.0166
703.00,0.0168
702.00,0.0169
701.00,0.0170
700.00,0.0172
699.00,0.0173
698.00,0.0173
697.00,0.0174
696.00,0.0174
695.00,0.0174
694.00,0.0174
693.00,0.0174
692.00,0.0174
691.00,0.0174
690.00,0.0174
689.00,0.0174
688.00,0.0174
687.00,0.0175
686.00,0.0176
685.00,0.0176
684.00,0.0177
683.00,0.0177
682.00,0.0177
681.00,0.0177
680.00,0.0177
679.00,0.0178
678.00,0.0178
677.00,0.0179
676.00,0.0179
675.00,0.0180
674.00,0.0180
673.00,0.0180
672.00,0.0181
671.00,0.0181
670.00,0.0181
669.00,0.0181
668.00,0.0180
667.00,0.0179
666.00,0.0180
665.00,0.0181
664.00,0.0183
663.00,0.0183
662.00,0.0184
661.00,0.0184
660.00,0.0185
659.00,0.0185
658.00,0.0186
657.00,0.0186
656.00,0.0186
655.00,0.0187
654.00,0.0187
653.00,0.0188
652.00,0.0189
651.00,0.0189
650.00,0.0189
649.00,0.0189
648.00,0.0190
647.00,0.0190
646.00,0.0190
645.00,0.0191
644.00,0.0192
643.00,0.0192
642.00,0.0193
641.00,0.0193
640.00,0.0194
639.00,0.0195
638.00,0.0195
637.00,0.0196
636.00,0.0196
635.00,0.0196
634.00,0.0197
633.00,0.0197
632.00,0.0198
631.00,0.0198
630.00,0.0199
629.00,0.0199
628.00,0.0200
627.00,0.0200
626.00,0.0201
625.00,0.0202
624.00,0.0202
623.00,0.0203
622.00,0.0204
621.00,0.0205
620.00,0.0205
619.00,0.0205
618.00,0.0205
617.00,0.0205
616.00,0.0205
615.00,0.0205
614.00,0.0205
613.00,0.0205
612.00,0.0205
611.00,0.0206
610.00,0.0206
609.00,0.0206
608.00,0.0206
607.00,0.0206
606.00,0.0206
605.00,0.0205
604.00,0.0205
603.00,0.0206
602.00,0.0206
601.00,0.0207
600.00,0.0207
599.00,0.0208
598.00,0.0208
597.00,0.0209
596.00,0.0209
595.00,0.0209
594.00,0.0209
593.00,0.0209
592.00,0.0209
591.00,0.0209
590.00,0.0209
589.00,0.0210
588.00,0.0211
587.00,0.0211
586.00,0.0212
585.00,0.0213
584.00,0.0213
583.00,0.0213
582.00,0.0214
581.00,0.0214
580.00,0.0214
579.00,0.0214
578.00,0.0215
577.00,0.0216
576.00,0.0216
575.00,0.0217
574.00,0.0217
573.00,0.0218
572.00,0.0218
571.00,0.0219
570.00,0.0219
569.00,0.0220
568.00,0.0220
567.00,0.0221
566.00,0.0222
565.00,0.0222
564.00,0.0223
563.00,0.0223
562.00,0.0224
561.00,0.0225
560.00,0.0226
559.00,0.0226
558.00,0.0227
557.00,0.0228
556.00,0.0228
555.00,0.0229
554.00,0.0229
553.00,0.0230
552.00,0.0231
551.00,0.0232
550.00,0.0233
549.00,0.0233
548.00,0.0234
547.00,0.0234
546.00,0.0235
545.00,0.0236
544.00,0.0238
543.00,0.0239
542.00,0.0240
541.00,0.0240
540.00,0.0241
539.00,0.0242
538.00,0.0243
537.00,0.0244
536.00,0.0244
535.00,0.0244
534.00,0.0244
533.00,0.0245
532.00,0.0245
531.00,0.0247
530.00,0.0248
529.00,0.0249
528.00,0.0251
527.00,0.0251
526.00,0.0252
525.00,0.0252
524.00,0.0253
523.00,0.0254
522.00,0.0255
521.00,0.0255
520.00,0.0254
519.00,0.0254
518.00,0.0253
517.00,0.0254
516.00,0.0255
515.00,0.0257
514.00,0.0258
513.00,0.0259
512.00,0.0260
511.00,0.0260
510.00,0.0260
509.00,0.0260
508.00,0.0259
507.00,0.0259
506.00,0.0259
505.00,0.0260
504.00,0.0261
503.00,0.0262
502.00,0.0263
501.00,0.0264
500.00,0.0265
499.00,0.0265
498.00,0.0266
497.00,0.0266
496.00,0.0267
495.00,0.0268
494.00,0.0269
493.00,0.0270
492.00,0.0270
491.00,0.0270
490.00,0.0271
489.00,0.0272
488.00,0.0273
487.00,0.0274
486.00,0.0274
485.00,0.0275
484.00,0.0275
483.00,0.0276
482.00,0.0276
481.00,0.0276
480.00,0.0276
479.00,0.0277
478.00,0.0278
477.00,0.0279
476.00,0.0280
475.00,0.0281
474.00,0.0281
473.00,0.0279
472.00,0.0278
471.00,0.0277
470.00,0.0278
469.00,0.0278
468.00,0.0278
467.00,0.0279
466.00,0.0281
465.00,0.0283
464.00,0.0284
463.00,0.0286
462.00,0.0286
461.00,0.0287
460.00,0.0288
459.00,0.0288
458.00,0.0287
457.00,0.0286
456.00,0.0286
455.00,0.0286
454.00,0.0286
453.00,0.0284
452.00,0.0282
451.00,0.0281
450.00,0.0281
449.00,0.0281
448.00,0.0280
447.00,0.0279
446.00,0.0278
445.00,0.0277
444.00,0.0277
443.00,0.0277
442.00,0.0276
441.00,0.0274
440.00,0.0271
439.00,0.0268
438.00,0.0265
437.00,0.0263
436.00,0.0261
435.00,0.0260
434.00,0.0260
433.00,0.0261
432.00,0.0262
431.00,0.0263
430.00,0.0263
429.00,0.0263
428.00,0.0261
427.00,0.0258
426.00,0.0256
425.00,0.0253
424.00,0.0251
423.00,0.0250
422.00,0.0251
421.00,0.0254
420.00,0.0257
419.00,0.0259
418.00,0.0261
417.00,0.0263
416.00,0.0264
415.00,0.0264
414.00,0.0264
413.00,0.0263
412.00,0.0262
411.00,0.0262
410.00,0.0263
409.00,0.0263
408.00,0.0261
407.00,0.0258
406.00,0.0256
405.00,0.0259
404.00,0.0262
403.00,0.0262
402.00,0.0259
401.00,0.0253
400.00,0.0249
