Created as New Dataset,Sample 024 By YargerLab Date Friday, November 01 2024
cm-1,A
4000.00,0.0075
3999.00,0.0075
3998.00,0.0075
3997.00,0.0075
3996.00,0.0075
3995.00,0.0075
3994.00,0.0075
3993.00,0.0075
3992.00,0.0075
3991.00,0.0075
3990.00,0.0075
3989.00,0.0075
3988.00,0.0075
3987.00,0.0075
3986.00,0.0075
3985.00,0.0075
3984.00,0.0075
3983.00,0.0075
3982.00,0.0075
3981.00,0.0075
3980.00,0.0075
3979.00,0.0075
3978.00,0.0075
3977.00,0.0075
3976.00,0.0075
3975.00,0.0075
3974.00,0.0075
3973.00,0.0075
3972.00,0.0075
3971.00,0.0075
3970.00,0.0075
3969.00,0.0075
3968.00,0.0075
3967.00,0.0075
3966.00,0.0075
3965.00,0.0075
3964.00,0.0075
3963.00,0.0075
3962.00,0.0075
3961.00,0.0075
3960.00,0.0075
3959.00,0.0075
3958.00,0.0075
3957.00,0.0075
3956.00,0.0074
3955.00,0.0074
3954.00,0.0074
3953.00,0.0074
3952.00,0.0074
3951.00,0.0074
3950.00,0.0074
3949.00,0.0074
3948.00,0.0074
3947.00,0.0074
3946.00,0.0074
3945.00,0.0074
3944.00,0.0074
3943.00,0.0074
3942.00,0.0074
3941.00,0.0074
3940.00,0.0074
3939.00,0.0074
3938.00,0.0074
3937.00,0.0074
3936.00,0.0074
3935.00,0.0074
3934.00,0.0074
3933.00,0.0074
3932.00,0.0074
3931.00,0.0074
3930.00,0.0074
3929.00,0.0074
3928.00,0.0074
3927.00,0.0074
3926.00,0.0074
3925.00,0.0074
3924.00,0.0074
3923.00,0.0074
3922.00,0.0074
3921.00,0.0074
3920.00,0.0074
3919.00,0.0074
3918.00,0.0074
3917.00,0.0074
3916.00,0.0074
3915.00,0.0074
3914.00,0.0074
3913.00,0.0074
3912.00,0.0074
3911.00,0.0074
3910.00,0.0074
3909.00,0.0074
3908.00,0.0073
3907.00,0.0073
3906.00,0.0074
3905.00,0.0074
3904.00,0.0074
3903.00,0.0074
3902.00,0.0074
3901.00,0.0074
3900.00,0.0074
3899.00,0.0074
3898.00,0.0074
3897.00,0.0074
3896.00,0.0073
3895.00,0.0073
3894.00,0.0073
3893.00,0.0074
3892.00,0.0074
3891.00,0.0074
3890.00,0.0073
3889.00,0.0073
3888.00,0.0073
3887.00,0.0073
3886.00,0.0073
3885.00,0.0073
3884.00,0.0073
3883.00,0.0073
3882.00,0.0073
3881.00,0.0074
3880.00,0.0073
3879.00,0.0073
3878.00,0.0073
3877.00,0.0073
3876.00,0.0073
3875.00,0.0073
3874.00,0.0072
3873.00,0.0072
3872.00,0.0072
3871.00,0.0073
3870.00,0.0073
3869.00,0.0073
3868.00,0.0072
3867.00,0.0073
3866.00,0.0073
3865.00,0.0073
3864.00,0.0073
3863.00,0.0073
3862.00,0.0073
3861.00,0.0073
3860.00,0.0073
3859.00,0.0073
3858.00,0.0072
3857.00,0.0072
3856.00,0.0071
3855.00,0.0071
3854.00,0.0072
3853.00,0.0072
3852.00,0.0072
3851.00,0.0072
3850.00,0.0072
3849.00,0.0073
3848.00,0.0073
3847.00,0.0073
3846.00,0.0073
3845.00,0.0073
3844.00,0.0072
3843.00,0.0072
3842.00,0.0072
3841.00,0.0072
3840.00,0.0072
3839.00,0.0072
3838.00,0.0072
3837.00,0.0072
3836.00,0.0072
3835.00,0.0072
3834.00,0.0072
3833.00,0.0072
3832.00,0.0072
3831.00,0.0072
3830.00,0.0072
3829.00,0.0072
3828.00,0.0072
3827.00,0.0072
3826.00,0.0072
3825.00,0.0071
3824.00,0.0071
3823.00,0.0072
3822.00,0.0072
3821.00,0.0071
3820.00,0.0071
3819.00,0.0071
3818.00,0.0071
3817.00,0.0072
3816.00,0.0072
3815.00,0.0072
3814.00,0.0071
3813.00,0.0072
3812.00,0.0072
3811.00,0.0071
3810.00,0.0071
3809.00,0.0071
3808.00,0.0071
3807.00,0.0071
3806.00,0.0071
3805.00,0.0070
3804.00,0.0071
3803.00,0.0071
3802.00,0.0071
3801.00,0.0071
3800.00,0.0070
3799.00,0.0071
3798.00,0.0071
3797.00,0.0071
3796.00,0.0071
3795.00,0.0071
3794.00,0.0071
3793.00,0.0071
3792.00,0.0071
3791.00,0.0071
3790.00,0.0071
3789.00,0.0071
3788.00,0.0071
3787.00,0.0071
3786.00,0.0071
3785.00,0.0071
3784.00,0.0071
3783.00,0.0071
3782.00,0.0071
3781.00,0.0071
3780.00,0.0071
3779.00,0.0071
3778.00,0.0071
3777.00,0.0071
3776.00,0.0071
3775.00,0.0071
3774.00,0.0071
3773.00,0.0070
3772.00,0.0070
3771.00,0.0070
3770.00,0.0070
3769.00,0.0070
3768.00,0.0070
3767.00,0.0070
3766.00,0.0070
3765.00,0.0070
3764.00,0.0070
3763.00,0.0070
3762.00,0.0070
3761.00,0.0070
3760.00,0.0070
3759.00,0.0070
3758.00,0.0070
3757.00,0.0070
3756.00,0.0069
3755.00,0.0069
3754.00,0.0069
3753.00,0.0069
3752.00,0.0069
3751.00,0.0069
3750.00,0.0069
3749.00,0.0069
3748.00,0.0069
3747.00,0.0069
3746.00,0.0069
3745.00,0.0070
3744.00,0.0070
3743.00,0.0070
3742.00,0.0070
3741.00,0.0070
3740.00,0.0070
3739.00,0.0070
3738.00,0.0070
3737.00,0.0070
3736.00,0.0070
3735.00,0.0070
3734.00,0.0071
3733.00,0.0071
3732.00,0.0071
3731.00,0.0071
3730.00,0.0071
3729.00,0.0071
3728.00,0.0071
3727.00,0.0071
3726.00,0.0071
3725.00,0.0071
3724.00,0.0072
3723.00,0.0072
3722.00,0.0072
3721.00,0.0071
3720.00,0.0071
3719.00,0.0071
3718.00,0.0071
3717.00,0.0070
3716.00,0.0070
3715.00,0.0070
3714.00,0.0070
3713.00,0.0070
3712.00,0.0070
3711.00,0.0070
3710.00,0.0070
3709.00,0.0070
3708.00,0.0070
3707.00,0.0070
3706.00,0.0070
3705.00,0.0070
3704.00,0.0070
3703.00,0.0070
3702.00,0.0070
3701.00,0.0070
3700.00,0.0070
3699.00,0.0070
3698.00,0.0070
3697.00,0.0070
3696.00,0.0070
3695.00,0.0070
3694.00,0.0069
3693.00,0.0069
3692.00,0.0068
3691.00,0.0068
3690.00,0.0068
3689.00,0.0068
3688.00,0.0068
3687.00,0.0068
3686.00,0.0069
3685.00,0.0069
3684.00,0.0069
3683.00,0.0068
3682.00,0.0068
3681.00,0.0068
3680.00,0.0067
3679.00,0.0066
3678.00,0.0066
3677.00,0.0066
3676.00,0.0066
3675.00,0.0066
3674.00,0.0065
3673.00,0.0065
3672.00,0.0066
3671.00,0.0066
3670.00,0.0066
3669.00,0.0066
3668.00,0.0065
3667.00,0.0066
3666.00,0.0066
3665.00,0.0066
3664.00,0.0065
3663.00,0.0065
3662.00,0.0065
3661.00,0.0065
3660.00,0.0064
3659.00,0.0064
3658.00,0.0064
3657.00,0.0064
3656.00,0.0064
3655.00,0.0064
3654.00,0.0064
3653.00,0.0064
3652.00,0.0064
3651.00,0.0064
3650.00,0.0064
3649.00,0.0065
3648.00,0.0065
3647.00,0.0065
3646.00,0.0065
3645.00,0.0066
3644.00,0.0066
3643.00,0.0066
3642.00,0.0066
3641.00,0.0066
3640.00,0.0066
3639.00,0.0066
3638.00,0.0066
3637.00,0.0066
3636.00,0.0066
3635.00,0.0067
3634.00,0.0067
3633.00,0.0067
3632.00,0.0067
3631.00,0.0068
3630.00,0.0068
3629.00,0.0068
3628.00,0.0068
3627.00,0.0068
3626.00,0.0069
3625.00,0.0069
3624.00,0.0069
3623.00,0.0069
3622.00,0.0069
3621.00,0.0069
3620.00,0.0069
3619.00,0.0069
3618.00,0.0069
3617.00,0.0069
3616.00,0.0069
3615.00,0.0069
3614.00,0.0069
3613.00,0.0069
3612.00,0.0069
3611.00,0.0069
3610.00,0.0069
3609.00,0.0069
3608.00,0.0069
3607.00,0.0069
3606.00,0.0069
3605.00,0.0069
3604.00,0.0069
3603.00,0.0070
3602.00,0.0069
3601.00,0.0069
3600.00,0.0069
3599.00,0.0069
3598.00,0.0069
3597.00,0.0069
3596.00,0.0069
3595.00,0.0069
3594.00,0.0069
3593.00,0.0069
3592.00,0.0069
3591.00,0.0069
3590.00,0.0069
3589.00,0.0069
3588.00,0.0069
3587.00,0.0069
3586.00,0.0069
3585.00,0.0069
3584.00,0.0069
3583.00,0.0069
3582.00,0.0069
3581.00,0.0069
3580.00,0.0069
3579.00,0.0069
3578.00,0.0069
3577.00,0.0069
3576.00,0.0069
3575.00,0.0068
3574.00,0.0068
3573.00,0.0068
3572.00,0.0068
3571.00,0.0068
3570.00,0.0068
3569.00,0.0068
3568.00,0.0069
3567.00,0.0069
3566.00,0.0069
3565.00,0.0069
3564.00,0.0069
3563.00,0.0069
3562.00,0.0069
3561.00,0.0069
3560.00,0.0069
3559.00,0.0069
3558.00,0.0069
3557.00,0.0068
3556.00,0.0069
3555.00,0.0069
3554.00,0.0069
3553.00,0.0069
3552.00,0.0069
3551.00,0.0069
3550.00,0.0069
3549.00,0.0069
3548.00,0.0069
3547.00,0.0069
3546.00,0.0069
3545.00,0.0069
3544.00,0.0070
3543.00,0.0070
3542.00,0.0070
3541.00,0.0070
3540.00,0.0070
3539.00,0.0070
3538.00,0.0070
3537.00,0.0070
3536.00,0.0070
3535.00,0.0070
3534.00,0.0070
3533.00,0.0071
3532.00,0.0071
3531.00,0.0071
3530.00,0.0071
3529.00,0.0071
3528.00,0.0071
3527.00,0.0072
3526.00,0.0072
3525.00,0.0072
3524.00,0.0072
3523.00,0.0071
3522.00,0.0071
3521.00,0.0070
3520.00,0.0069
3519.00,0.0068
3518.00,0.0067
3517.00,0.0066
3516.00,0.0065
3515.00,0.0064
3514.00,0.0064
3513.00,0.0063
3512.00,0.0063
3511.00,0.0063
3510.00,0.0063
3509.00,0.0063
3508.00,0.0063
3507.00,0.0064
3506.00,0.0064
3505.00,0.0064
3504.00,0.0065
3503.00,0.0065
3502.00,0.0066
3501.00,0.0067
3500.00,0.0067
3499.00,0.0068
3498.00,0.0068
3497.00,0.0068
3496.00,0.0069
3495.00,0.0069
3494.00,0.0069
3493.00,0.0069
3492.00,0.0070
3491.00,0.0070
3490.00,0.0070
3489.00,0.0070
3488.00,0.0070
3487.00,0.0070
3486.00,0.0070
3485.00,0.0071
3484.00,0.0071
3483.00,0.0071
3482.00,0.0071
3481.00,0.0071
3480.00,0.0071
3479.00,0.0071
3478.00,0.0071
3477.00,0.0071
3476.00,0.0072
3475.00,0.0072
3474.00,0.0072
3473.00,0.0072
3472.00,0.0072
3471.00,0.0072
3470.00,0.0072
3469.00,0.0072
3468.00,0.0072
3467.00,0.0072
3466.00,0.0072
3465.00,0.0072
3464.00,0.0072
3463.00,0.0072
3462.00,0.0072
3461.00,0.0072
3460.00,0.0073
3459.00,0.0073
3458.00,0.0073
3457.00,0.0073
3456.00,0.0073
3455.00,0.0073
3454.00,0.0073
3453.00,0.0073
3452.00,0.0073
3451.00,0.0073
3450.00,0.0073
3449.00,0.0073
3448.00,0.0074
3447.00,0.0074
3446.00,0.0074
3445.00,0.0074
3444.00,0.0074
3443.00,0.0074
3442.00,0.0074
3441.00,0.0074
3440.00,0.0074
3439.00,0.0074
3438.00,0.0074
3437.00,0.0074
3436.00,0.0074
3435.00,0.0074
3434.00,0.0074
3433.00,0.0074
3432.00,0.0074
3431.00,0.0074
3430.00,0.0074
3429.00,0.0074
3428.00,0.0075
3427.00,0.0075
3426.00,0.0075
3425.00,0.0075
3424.00,0.0075
3423.00,0.0074
3422.00,0.0074
3421.00,0.0074
3420.00,0.0074
3419.00,0.0075
3418.00,0.0075
3417.00,0.0075
3416.00,0.0075
3415.00,0.0075
3414.00,0.0075
3413.00,0.0075
3412.00,0.0075
3411.00,0.0074
3410.00,0.0074
3409.00,0.0074
3408.00,0.0074
3407.00,0.0074
3406.00,0.0074
3405.00,0.0073
3404.00,0.0073
3403.00,0.0073
3402.00,0.0072
3401.00,0.0072
3400.00,0.0072
3399.00,0.0072
3398.00,0.0072
3397.00,0.0072
3396.00,0.0072
3395.00,0.0072
3394.00,0.0072
3393.00,0.0073
3392.00,0.0073
3391.00,0.0074
3390.00,0.0074
3389.00,0.0075
3388.00,0.0075
3387.00,0.0076
3386.00,0.0077
3385.00,0.0077
3384.00,0.0078
3383.00,0.0079
3382.00,0.0079
3381.00,0.0080
3380.00,0.0081
3379.00,0.0081
3378.00,0.0082
3377.00,0.0082
3376.00,0.0083
3375.00,0.0083
3374.00,0.0084
3373.00,0.0084
3372.00,0.0084
3371.00,0.0085
3370.00,0.0085
3369.00,0.0085
3368.00,0.0086
3367.00,0.0086
3366.00,0.0087
3365.00,0.0087
3364.00,0.0088
3363.00,0.0088
3362.00,0.0089
3361.00,0.0089
3360.00,0.0090
3359.00,0.0090
3358.00,0.0090
3357.00,0.0091
3356.00,0.0091
3355.00,0.0092
3354.00,0.0092
3353.00,0.0092
3352.00,0.0092
3351.00,0.0092
3350.00,0.0093
3349.00,0.0093
3348.00,0.0094
3347.00,0.0094
3346.00,0.0094
3345.00,0.0095
3344.00,0.0095
3343.00,0.0096
3342.00,0.0096
3341.00,0.0097
3340.00,0.0097
3339.00,0.0097
3338.00,0.0098
3337.00,0.0098
3336.00,0.0098
3335.00,0.0099
3334.00,0.0100
3333.00,0.0100
3332.00,0.0101
3331.00,0.0101
3330.00,0.0101
3329.00,0.0102
3328.00,0.0102
3327.00,0.0102
3326.00,0.0103
3325.00,0.0103
3324.00,0.0104
3323.00,0.0104
3322.00,0.0105
3321.00,0.0105
3320.00,0.0106
3319.00,0.0106
3318.00,0.0107
3317.00,0.0107
3316.00,0.0107
3315.00,0.0108
3314.00,0.0108
3313.00,0.0109
3312.00,0.0109
3311.00,0.0110
3310.00,0.0110
3309.00,0.0111
3308.00,0.0111
3307.00,0.0111
3306.00,0.0112
3305.00,0.0112
3304.00,0.0113
3303.00,0.0113
3302.00,0.0114
3301.00,0.0115
3300.00,0.0115
3299.00,0.0116
3298.00,0.0116
3297.00,0.0116
3296.00,0.0117
3295.00,0.0117
3294.00,0.0118
3293.00,0.0118
3292.00,0.0119
3291.00,0.0120
3290.00,0.0121
3289.00,0.0121
3288.00,0.0122
3287.00,0.0123
3286.00,0.0123
3285.00,0.0124
3284.00,0.0125
3283.00,0.0125
3282.00,0.0126
3281.00,0.0126
3280.00,0.0127
3279.00,0.0128
3278.00,0.0128
3277.00,0.0129
3276.00,0.0129
3275.00,0.0130
3274.00,0.0130
3273.00,0.0131
3272.00,0.0131
3271.00,0.0132
3270.00,0.0133
3269.00,0.0135
3268.00,0.0136
3267.00,0.0138
3266.00,0.0139
3265.00,0.0140
3264.00,0.0141
3263.00,0.0141
3262.00,0.0142
3261.00,0.0143
3260.00,0.0144
3259.00,0.0145
3258.00,0.0146
3257.00,0.0147
3256.00,0.0148
3255.00,0.0149
3254.00,0.0150
3253.00,0.0152
3252.00,0.0153
3251.00,0.0154
3250.00,0.0154
3249.00,0.0154
3248.00,0.0155
3247.00,0.0156
3246.00,0.0157
3245.00,0.0159
3244.00,0.0161
3243.00,0.0163
3242.00,0.0164
3241.00,0.0166
3240.00,0.0167
3239.00,0.0168
3238.00,0.0168
3237.00,0.0168
3236.00,0.0168
3235.00,0.0168
3234.00,0.0169
3233.00,0.0171
3232.00,0.0174
3231.00,0.0176
3230.00,0.0179
3229.00,0.0181
3228.00,0.0182
3227.00,0.0184
3226.00,0.0185
3225.00,0.0186
3224.00,0.0187
3223.00,0.0188
3222.00,0.0189
3221.00,0.0190
3220.00,0.0191
3219.00,0.0192
3218.00,0.0193
3217.00,0.0194
3216.00,0.0195
3215.00,0.0196
3214.00,0.0196
3213.00,0.0197
3212.00,0.0198
3211.00,0.0199
3210.00,0.0199
3209.00,0.0200
3208.00,0.0200
3207.00,0.0201
3206.00,0.0201
3205.00,0.0201
3204.00,0.0202
3203.00,0.0202
3202.00,0.0203
3201.00,0.0203
3200.00,0.0204
3199.00,0.0204
3198.00,0.0205
3197.00,0.0205
3196.00,0.0206
3195.00,0.0206
3194.00,0.0206
3193.00,0.0207
3192.00,0.0207
3191.00,0.0207
3190.00,0.0208
3189.00,0.0209
3188.00,0.0209
3187.00,0.0210
3186.00,0.0211
3185.00,0.0212
3184.00,0.0212
3183.00,0.0213
3182.00,0.0213
3181.00,0.0214
3180.00,0.0214
3179.00,0.0215
3178.00,0.0215
3177.00,0.0216
3176.00,0.0217
3175.00,0.0217
3174.00,0.0217
3173.00,0.0218
3172.00,0.0219
3171.00,0.0219
3170.00,0.0220
3169.00,0.0221
3168.00,0.0221
3167.00,0.0222
3166.00,0.0223
3165.00,0.0224
3164.00,0.0224
3163.00,0.0225
3162.00,0.0226
3161.00,0.0227
3160.00,0.0228
3159.00,0.0229
3158.00,0.0230
3157.00,0.0231
3156.00,0.0231
3155.00,0.0232
3154.00,0.0232
3153.00,0.0233
3152.00,0.0235
3151.00,0.0236
3150.00,0.0238
3149.00,0.0240
3148.00,0.0242
3147.00,0.0243
3146.00,0.0244
3145.00,0.0246
3144.00,0.0247
3143.00,0.0248
3142.00,0.0248
3141.00,0.0249
3140.00,0.0250
3139.00,0.0252
3138.00,0.0254
3137.00,0.0256
3136.00,0.0258
3135.00,0.0259
3134.00,0.0261
3133.00,0.0262
3132.00,0.0263
3131.00,0.0263
3130.00,0.0264
3129.00,0.0266
3128.00,0.0267
3127.00,0.0268
3126.00,0.0269
3125.00,0.0270
3124.00,0.0270
3123.00,0.0270
3122.00,0.0270
3121.00,0.0270
3120.00,0.0271
3119.00,0.0271
3118.00,0.0273
3117.00,0.0274
3116.00,0.0275
3115.00,0.0277
3114.00,0.0279
3113.00,0.0280
3112.00,0.0282
3111.00,0.0283
3110.00,0.0284
3109.00,0.0285
3108.00,0.0287
3107.00,0.0288
3106.00,0.0290
3105.00,0.0292
3104.00,0.0293
3103.00,0.0294
3102.00,0.0296
3101.00,0.0297
3100.00,0.0299
3099.00,0.0300
3098.00,0.0302
3097.00,0.0304
3096.00,0.0305
3095.00,0.0307
3094.00,0.0309
3093.00,0.0310
3092.00,0.0312
3091.00,0.0314
3090.00,0.0315
3089.00,0.0317
3088.00,0.0320
3087.00,0.0322
3086.00,0.0324
3085.00,0.0327
3084.00,0.0329
3083.00,0.0332
3082.00,0.0335
3081.00,0.0339
3080.00,0.0342
3079.00,0.0346
3078.00,0.0349
3077.00,0.0353
3076.00,0.0356
3075.00,0.0360
3074.00,0.0363
3073.00,0.0365
3072.00,0.0368
3071.00,0.0370
3070.00,0.0372
3069.00,0.0373
3068.00,0.0375
3067.00,0.0376
3066.00,0.0377
3065.00,0.0378
3064.00,0.0379
3063.00,0.0379
3062.00,0.0379
3061.00,0.0379
3060.00,0.0379
3059.00,0.0379
3058.00,0.0379
3057.00,0.0379
3056.00,0.0380
3055.00,0.0381
3054.00,0.0381
3053.00,0.0382
3052.00,0.0383
3051.00,0.0384
3050.00,0.0385
3049.00,0.0387
3048.00,0.0388
3047.00,0.0389
3046.00,0.0390
3045.00,0.0391
3044.00,0.0392
3043.00,0.0393
3042.00,0.0393
3041.00,0.0394
3040.00,0.0395
3039.00,0.0396
3038.00,0.0397
3037.00,0.0398
3036.00,0.0398
3035.00,0.0399
3034.00,0.0400
3033.00,0.0401
3032.00,0.0402
3031.00,0.0403
3030.00,0.0404
3029.00,0.0405
3028.00,0.0406
3027.00,0.0406
3026.00,0.0407
3025.00,0.0408
3024.00,0.0408
3023.00,0.0409
3022.00,0.0409
3021.00,0.0410
3020.00,0.0410
3019.00,0.0410
3018.00,0.0411
3017.00,0.0411
3016.00,0.0411
3015.00,0.0411
3014.00,0.0412
3013.00,0.0412
3012.00,0.0412
3011.00,0.0412
3010.00,0.0413
3009.00,0.0413
3008.00,0.0413
3007.00,0.0414
3006.00,0.0414
3005.00,0.0415
3004.00,0.0416
3003.00,0.0417
3002.00,0.0419
3001.00,0.0421
3000.00,0.0423
2999.00,0.0426
2998.00,0.0430
2997.00,0.0434
2996.00,0.0439
2995.00,0.0444
2994.00,0.0449
2993.00,0.0455
2992.00,0.0461
2991.00,0.0468
2990.00,0.0476
2989.00,0.0485
2988.00,0.0495
2987.00,0.0506
2986.00,0.0517
2985.00,0.0528
2984.00,0.0539
2983.00,0.0548
2982.00,0.0557
2981.00,0.0565
2980.00,0.0574
2979.00,0.0583
2978.00,0.0591
2977.00,0.0598
2976.00,0.0603
2975.00,0.0607
2974.00,0.0608
2973.00,0.0608
2972.00,0.0609
2971.00,0.0611
2970.00,0.0616
2969.00,0.0624
2968.00,0.0635
2967.00,0.0648
2966.00,0.0662
2965.00,0.0675
2964.00,0.0689
2963.00,0.0700
2962.00,0.0710
2961.00,0.0717
2960.00,0.0722
2959.00,0.0723
2958.00,0.0722
2957.00,0.0720
2956.00,0.0715
2955.00,0.0710
2954.00,0.0706
2953.00,0.0702
2952.00,0.0699
2951.00,0.0698
2950.00,0.0699
2949.00,0.0703
2948.00,0.0709
2947.00,0.0717
2946.00,0.0728
2945.00,0.0742
2944.00,0.0759
2943.00,0.0777
2942.00,0.0796
2941.00,0.0813
2940.00,0.0825
2939.00,0.0833
2938.00,0.0835
2937.00,0.0836
2936.00,0.0836
2935.00,0.0838
2934.00,0.0841
2933.00,0.0846
2932.00,0.0852
2931.00,0.0858
2930.00,0.0863
2929.00,0.0868
2928.00,0.0872
2927.00,0.0873
2926.00,0.0874
2925.00,0.0872
2924.00,0.0869
2923.00,0.0863
2922.00,0.0856
2921.00,0.0848
2920.00,0.0839
2919.00,0.0830
2918.00,0.0821
2917.00,0.0812
2916.00,0.0804
2915.00,0.0795
2914.00,0.0786
2913.00,0.0777
2912.00,0.0769
2911.00,0.0761
2910.00,0.0753
2909.00,0.0747
2908.00,0.0742
2907.00,0.0738
2906.00,0.0735
2905.00,0.0733
2904.00,0.0733
2903.00,0.0734
2902.00,0.0735
2901.00,0.0736
2900.00,0.0737
2899.00,0.0737
2898.00,0.0736
2897.00,0.0735
2896.00,0.0733
2895.00,0.0731
2894.00,0.0729
2893.00,0.0729
2892.00,0.0729
2891.00,0.0731
2890.00,0.0732
2889.00,0.0733
2888.00,0.0732
2887.00,0.0730
2886.00,0.0725
2885.00,0.0719
2884.00,0.0712
2883.00,0.0706
2882.00,0.0700
2881.00,0.0697
2880.00,0.0696
2879.00,0.0697
2878.00,0.0700
2877.00,0.0704
2876.00,0.0709
2875.00,0.0714
2874.00,0.0719
2873.00,0.0723
2872.00,0.0726
2871.00,0.0727
2870.00,0.0727
2869.00,0.0725
2868.00,0.0722
2867.00,0.0719
2866.00,0.0716
2865.00,0.0713
2864.00,0.0710
2863.00,0.0706
2862.00,0.0702
2861.00,0.0698
2860.00,0.0694
2859.00,0.0690
2858.00,0.0686
2857.00,0.0682
2856.00,0.0678
2855.00,0.0675
2854.00,0.0671
2853.00,0.0668
2852.00,0.0665
2851.00,0.0661
2850.00,0.0658
2849.00,0.0653
2848.00,0.0648
2847.00,0.0641
2846.00,0.0633
2845.00,0.0625
2844.00,0.0618
2843.00,0.0611
2842.00,0.0607
2841.00,0.0604
2840.00,0.0604
2839.00,0.0607
2838.00,0.0612
2837.00,0.0618
2836.00,0.0625
2835.00,0.0630
2834.00,0.0635
2833.00,0.0636
2832.00,0.0635
2831.00,0.0631
2830.00,0.0625
2829.00,0.0617
2828.00,0.0607
2827.00,0.0596
2826.00,0.0585
2825.00,0.0574
2824.00,0.0564
2823.00,0.0554
2822.00,0.0546
2821.00,0.0539
2820.00,0.0532
2819.00,0.0526
2818.00,0.0521
2817.00,0.0516
2816.00,0.0511
2815.00,0.0507
2814.00,0.0503
2813.00,0.0499
2812.00,0.0495
2811.00,0.0492
2810.00,0.0488
2809.00,0.0486
2808.00,0.0483
2807.00,0.0480
2806.00,0.0477
2805.00,0.0475
2804.00,0.0472
2803.00,0.0470
2802.00,0.0467
2801.00,0.0465
2800.00,0.0462
2799.00,0.0460
2798.00,0.0457
2797.00,0.0455
2796.00,0.0453
2795.00,0.0450
2794.00,0.0448
2793.00,0.0446
2792.00,0.0443
2791.00,0.0440
2790.00,0.0438
2789.00,0.0435
2788.00,0.0433
2787.00,0.0430
2786.00,0.0428
2785.00,0.0425
2784.00,0.0423
2783.00,0.0420
2782.00,0.0418
2781.00,0.0415
2780.00,0.0413
2779.00,0.0410
2778.00,0.0408
2777.00,0.0406
2776.00,0.0404
2775.00,0.0402
2774.00,0.0400
2773.00,0.0398
2772.00,0.0396
2771.00,0.0395
2770.00,0.0393
2769.00,0.0392
2768.00,0.0390
2767.00,0.0389
2766.00,0.0388
2765.00,0.0386
2764.00,0.0385
2763.00,0.0384
2762.00,0.0384
2761.00,0.0383
2760.00,0.0382
2759.00,0.0382
2758.00,0.0381
2757.00,0.0380
2756.00,0.0380
2755.00,0.0380
2754.00,0.0379
2753.00,0.0379
2752.00,0.0378
2751.00,0.0378
2750.00,0.0377
2749.00,0.0377
2748.00,0.0377
2747.00,0.0377
2746.00,0.0376
2745.00,0.0376
2744.00,0.0376
2743.00,0.0376
2742.00,0.0375
2741.00,0.0375
2740.00,0.0374
2739.00,0.0374
2738.00,0.0373
2737.00,0.0373
2736.00,0.0372
2735.00,0.0372
2734.00,0.0372
2733.00,0.0372
2732.00,0.0372
2731.00,0.0372
2730.00,0.0372
2729.00,0.0372
2728.00,0.0372
2727.00,0.0372
2726.00,0.0372
2725.00,0.0371
2724.00,0.0371
2723.00,0.0369
2722.00,0.0368
2721.00,0.0366
2720.00,0.0364
2719.00,0.0362
2718.00,0.0361
2717.00,0.0359
2716.00,0.0358
2715.00,0.0357
2714.00,0.0356
2713.00,0.0355
2712.00,0.0354
2711.00,0.0353
2710.00,0.0353
2709.00,0.0352
2708.00,0.0352
2707.00,0.0352
2706.00,0.0351
2705.00,0.0351
2704.00,0.0350
2703.00,0.0350
2702.00,0.0349
2701.00,0.0349
2700.00,0.0349
2699.00,0.0349
2698.00,0.0348
2697.00,0.0348
2696.00,0.0349
2695.00,0.0349
2694.00,0.0349
2693.00,0.0349
2692.00,0.0350
2691.00,0.0350
2690.00,0.0350
2689.00,0.0351
2688.00,0.0351
2687.00,0.0352
2686.00,0.0352
2685.00,0.0353
2684.00,0.0353
2683.00,0.0353
2682.00,0.0353
2681.00,0.0353
2680.00,0.0353
2679.00,0.0352
2678.00,0.0352
2677.00,0.0351
2676.00,0.0351
2675.00,0.0350
2674.00,0.0350
2673.00,0.0349
2672.00,0.0348
2671.00,0.0348
2670.00,0.0347
2669.00,0.0347
2668.00,0.0347
2667.00,0.0347
2666.00,0.0347
2665.00,0.0347
2664.00,0.0346
2663.00,0.0346
2662.00,0.0346
2661.00,0.0346
2660.00,0.0346
2659.00,0.0345
2658.00,0.0345
2657.00,0.0345
2656.00,0.0344
2655.00,0.0344
2654.00,0.0344
2653.00,0.0344
2652.00,0.0343
2651.00,0.0343
2650.00,0.0343
2649.00,0.0342
2648.00,0.0342
2647.00,0.0342
2646.00,0.0341
2645.00,0.0341
2644.00,0.0340
2643.00,0.0340
2642.00,0.0339
2641.00,0.0338
2640.00,0.0337
2639.00,0.0337
2638.00,0.0336
2637.00,0.0335
2636.00,0.0335
2635.00,0.0334
2634.00,0.0333
2633.00,0.0333
2632.00,0.0332
2631.00,0.0332
2630.00,0.0331
2629.00,0.0331
2628.00,0.0330
2627.00,0.0330
2626.00,0.0329
2625.00,0.0329
2624.00,0.0328
2623.00,0.0328
2622.00,0.0328
2621.00,0.0328
2620.00,0.0328
2619.00,0.0328
2618.00,0.0328
2617.00,0.0328
2616.00,0.0328
2615.00,0.0328
2614.00,0.0328
2613.00,0.0327
2612.00,0.0327
2611.00,0.0327
2610.00,0.0327
2609.00,0.0327
2608.00,0.0327
2607.00,0.0326
2606.00,0.0326
2605.00,0.0326
2604.00,0.0325
2603.00,0.0325
2602.00,0.0324
2601.00,0.0324
2600.00,0.0324
2599.00,0.0324
2598.00,0.0324
2597.00,0.0325
2596.00,0.0325
2595.00,0.0326
2594.00,0.0326
2593.00,0.0327
2592.00,0.0328
2591.00,0.0329
2590.00,0.0330
2589.00,0.0331
2588.00,0.0333
2587.00,0.0334
2586.00,0.0336
2585.00,0.0338
2584.00,0.0339
2583.00,0.0341
2582.00,0.0342
2581.00,0.0344
2580.00,0.0345
2579.00,0.0346
2578.00,0.0347
2577.00,0.0348
2576.00,0.0348
2575.00,0.0349
2574.00,0.0349
2573.00,0.0349
2572.00,0.0349
2571.00,0.0349
2570.00,0.0349
2569.00,0.0349
2568.00,0.0348
2567.00,0.0348
2566.00,0.0347
2565.00,0.0347
2564.00,0.0346
2563.00,0.0346
2562.00,0.0345
2561.00,0.0345
2560.00,0.0345
2559.00,0.0344
2558.00,0.0344
2557.00,0.0343
2556.00,0.0343
2555.00,0.0342
2554.00,0.0342
2553.00,0.0342
2552.00,0.0341
2551.00,0.0341
2550.00,0.0341
2549.00,0.0341
2548.00,0.0341
2547.00,0.0341
2546.00,0.0340
2545.00,0.0340
2544.00,0.0340
2543.00,0.0339
2542.00,0.0338
2541.00,0.0338
2540.00,0.0337
2539.00,0.0336
2538.00,0.0335
2537.00,0.0334
2536.00,0.0334
2535.00,0.0333
2534.00,0.0332
2533.00,0.0331
2532.00,0.0331
2531.00,0.0330
2530.00,0.0329
2529.00,0.0328
2528.00,0.0328
2527.00,0.0327
2526.00,0.0327
2525.00,0.0326
2524.00,0.0326
2523.00,0.0326
2522.00,0.0326
2521.00,0.0326
2520.00,0.0326
2519.00,0.0325
2518.00,0.0325
2517.00,0.0325
2516.00,0.0325
2515.00,0.0324
2514.00,0.0323
2513.00,0.0321
2512.00,0.0319
2511.00,0.0317
2510.00,0.0315
2509.00,0.0313
2508.00,0.0311
2507.00,0.0308
2506.00,0.0305
2505.00,0.0303
2504.00,0.0300
2503.00,0.0297
2502.00,0.0295
2501.00,0.0292
2500.00,0.0289
2499.00,0.0286
2498.00,0.0284
2497.00,0.0281
2496.00,0.0278
2495.00,0.0276
2494.00,0.0273
2493.00,0.0271
2492.00,0.0269
2491.00,0.0267
2490.00,0.0265
2489.00,0.0263
2488.00,0.0261
2487.00,0.0259
2486.00,0.0257
2485.00,0.0255
2484.00,0.0253
2483.00,0.0251
2482.00,0.0250
2481.00,0.0248
2480.00,0.0246
2479.00,0.0245
2478.00,0.0243
2477.00,0.0242
2476.00,0.0241
2475.00,0.0239
2474.00,0.0238
2473.00,0.0237
2472.00,0.0235
2471.00,0.0234
2470.00,0.0233
2469.00,0.0232
2468.00,0.0230
2467.00,0.0229
2466.00,0.0228
2465.00,0.0227
2464.00,0.0226
2463.00,0.0226
2462.00,0.0225
2461.00,0.0224
2460.00,0.0223
2459.00,0.0222
2458.00,0.0221
2457.00,0.0221
2456.00,0.0220
2455.00,0.0219
2454.00,0.0219
2453.00,0.0218
2452.00,0.0216
2451.00,0.0215
2450.00,0.0214
2449.00,0.0213
2448.00,0.0212
2447.00,0.0211
2446.00,0.0210
2445.00,0.0209
2444.00,0.0208
2443.00,0.0207
2442.00,0.0206
2441.00,0.0205
2440.00,0.0204
2439.00,0.0203
2438.00,0.0202
2437.00,0.0201
2436.00,0.0200
2435.00,0.0199
2434.00,0.0198
2433.00,0.0197
2432.00,0.0196
2431.00,0.0195
2430.00,0.0194
2429.00,0.0193
2428.00,0.0192
2427.00,0.0191
2426.00,0.0190
2425.00,0.0189
2424.00,0.0189
2423.00,0.0188
2422.00,0.0187
2421.00,0.0186
2420.00,0.0185
2419.00,0.0184
2418.00,0.0183
2417.00,0.0182
2416.00,0.0182
2415.00,0.0181
2414.00,0.0180
2413.00,0.0179
2412.00,0.0179
2411.00,0.0178
2410.00,0.0177
2409.00,0.0176
2408.00,0.0175
2407.00,0.0174
2406.00,0.0173
2405.00,0.0173
2404.00,0.0172
2403.00,0.0171
2402.00,0.0170
2401.00,0.0170
2400.00,0.0169
2399.00,0.0168
2398.00,0.0168
2397.00,0.0167
2396.00,0.0167
2395.00,0.0166
2394.00,0.0166
2393.00,0.0165
2392.00,0.0165
2391.00,0.0164
2390.00,0.0164
2389.00,0.0163
2388.00,0.0163
2387.00,0.0162
2386.00,0.0162
2385.00,0.0162
2384.00,0.0161
2383.00,0.0161
2382.00,0.0160
2381.00,0.0160
2380.00,0.0160
2379.00,0.0159
2378.00,0.0158
2377.00,0.0157
2376.00,0.0156
2375.00,0.0155
2374.00,0.0154
2373.00,0.0154
2372.00,0.0153
2371.00,0.0153
2370.00,0.0153
2369.00,0.0153
2368.00,0.0154
2367.00,0.0154
2366.00,0.0155
2365.00,0.0156
2364.00,0.0157
2363.00,0.0157
2362.00,0.0158
2361.00,0.0159
2360.00,0.0159
2359.00,0.0159
2358.00,0.0159
2357.00,0.0158
2356.00,0.0159
2355.00,0.0146
2354.00,0.0144
2353.00,0.0145
2352.00,0.0145
2351.00,0.0145
2350.00,0.0144
2349.00,0.0143
2348.00,0.0141
2347.00,0.0140
2346.00,0.0139
2345.00,0.0138
2344.00,0.0138
2343.00,0.0138
2342.00,0.0138
2341.00,0.0138
2340.00,0.0138
2339.00,0.0138
2338.00,0.0137
2337.00,0.0146
2336.00,0.0147
2335.00,0.0146
2334.00,0.0146
2333.00,0.0145
2332.00,0.0144
2331.00,0.0144
2330.00,0.0144
2329.00,0.0144
2328.00,0.0144
2327.00,0.0145
2326.00,0.0144
2325.00,0.0143
2324.00,0.0141
2323.00,0.0139
2322.00,0.0139
2321.00,0.0138
2320.00,0.0138
2319.00,0.0138
2318.00,0.0138
2317.00,0.0138
2316.00,0.0138
2315.00,0.0137
2314.00,0.0137
2313.00,0.0136
2312.00,0.0135
2311.00,0.0135
2310.00,0.0135
2309.00,0.0135
2308.00,0.0135
2307.00,0.0135
2306.00,0.0134
2305.00,0.0134
2304.00,0.0133
2303.00,0.0133
2302.00,0.0132
2301.00,0.0131
2300.00,0.0131
2299.00,0.0130
2298.00,0.0130
2297.00,0.0130
2296.00,0.0129
2295.00,0.0129
2294.00,0.0128
2293.00,0.0128
2292.00,0.0128
2291.00,0.0127
2290.00,0.0127
2289.00,0.0126
2288.00,0.0126
2287.00,0.0125
2286.00,0.0125
2285.00,0.0124
2284.00,0.0124
2283.00,0.0123
2282.00,0.0123
2281.00,0.0123
2280.00,0.0122
2279.00,0.0122
2278.00,0.0121
2277.00,0.0121
2276.00,0.0121
2275.00,0.0121
2274.00,0.0120
2273.00,0.0120
2272.00,0.0119
2271.00,0.0118
2270.00,0.0117
2269.00,0.0115
2268.00,0.0115
2267.00,0.0114
2266.00,0.0113
2265.00,0.0112
2264.00,0.0112
2263.00,0.0112
2262.00,0.0112
2261.00,0.0111
2260.00,0.0111
2259.00,0.0110
2258.00,0.0109
2257.00,0.0109
2256.00,0.0108
2255.00,0.0108
2254.00,0.0108
2253.00,0.0108
2252.00,0.0108
2251.00,0.0107
2250.00,0.0107
2249.00,0.0107
2248.00,0.0106
2247.00,0.0106
2246.00,0.0106
2245.00,0.0106
2244.00,0.0106
2243.00,0.0105
2242.00,0.0105
2241.00,0.0104
2240.00,0.0103
2239.00,0.0103
2238.00,0.0103
2237.00,0.0103
2236.00,0.0103
2235.00,0.0103
2234.00,0.0103
2233.00,0.0102
2232.00,0.0102
2231.00,0.0102
2230.00,0.0102
2229.00,0.0102
2228.00,0.0102
2227.00,0.0102
2226.00,0.0102
2225.00,0.0102
2224.00,0.0102
2223.00,0.0102
2222.00,0.0102
2221.00,0.0101
2220.00,0.0102
2219.00,0.0102
2218.00,0.0102
2217.00,0.0102
2216.00,0.0102
2215.00,0.0101
2214.00,0.0101
2213.00,0.0100
2212.00,0.0100
2211.00,0.0100
2210.00,0.0100
2209.00,0.0101
2208.00,0.0102
2207.00,0.0102
2206.00,0.0102
2205.00,0.0102
2204.00,0.0102
2203.00,0.0101
2202.00,0.0101
2201.00,0.0100
2200.00,0.0100
2199.00,0.0101
2198.00,0.0101
2197.00,0.0101
2196.00,0.0101
2195.00,0.0101
2194.00,0.0101
2193.00,0.0102
2192.00,0.0102
2191.00,0.0101
2190.00,0.0101
2189.00,0.0101
2188.00,0.0101
2187.00,0.0101
2186.00,0.0100
2185.00,0.0100
2184.00,0.0099
2183.00,0.0098
2182.00,0.0098
2181.00,0.0098
2180.00,0.0099
2179.00,0.0099
2178.00,0.0098
2177.00,0.0098
2176.00,0.0098
2175.00,0.0099
2174.00,0.0099
2173.00,0.0099
2172.00,0.0100
2171.00,0.0100
2170.00,0.0100
2169.00,0.0099
2168.00,0.0099
2167.00,0.0098
2166.00,0.0097
2165.00,0.0098
2164.00,0.0098
2163.00,0.0097
2162.00,0.0094
2161.00,0.0090
2160.00,0.0086
2159.00,0.0084
2158.00,0.0084
2157.00,0.0085
2156.00,0.0086
2155.00,0.0087
2154.00,0.0087
2153.00,0.0087
2152.00,0.0088
2151.00,0.0088
2150.00,0.0089
2149.00,0.0089
2148.00,0.0089
2147.00,0.0089
2146.00,0.0088
2145.00,0.0089
2144.00,0.0089
2143.00,0.0090
2142.00,0.0090
2141.00,0.0090
2140.00,0.0091
2139.00,0.0091
2138.00,0.0090
2137.00,0.0090
2136.00,0.0090
2135.00,0.0091
2134.00,0.0091
2133.00,0.0092
2132.00,0.0092
2131.00,0.0093
2130.00,0.0093
2129.00,0.0093
2128.00,0.0093
2127.00,0.0093
2126.00,0.0093
2125.00,0.0093
2124.00,0.0093
2123.00,0.0094
2122.00,0.0094
2121.00,0.0094
2120.00,0.0094
2119.00,0.0094
2118.00,0.0095
2117.00,0.0095
2116.00,0.0095
2115.00,0.0095
2114.00,0.0095
2113.00,0.0094
2112.00,0.0094
2111.00,0.0093
2110.00,0.0093
2109.00,0.0093
2108.00,0.0093
2107.00,0.0092
2106.00,0.0092
2105.00,0.0092
2104.00,0.0092
2103.00,0.0092
2102.00,0.0092
2101.00,0.0092
2100.00,0.0093
2099.00,0.0093
2098.00,0.0092
2097.00,0.0092
2096.00,0.0092
2095.00,0.0092
2094.00,0.0092
2093.00,0.0092
2092.00,0.0092
2091.00,0.0092
2090.00,0.0092
2089.00,0.0092
2088.00,0.0092
2087.00,0.0091
2086.00,0.0091
2085.00,0.0090
2084.00,0.0090
2083.00,0.0089
2082.00,0.0089
2081.00,0.0088
2080.00,0.0088
2079.00,0.0087
2078.00,0.0087
2077.00,0.0086
2076.00,0.0087
2075.00,0.0087
2074.00,0.0087
2073.00,0.0087
2072.00,0.0087
2071.00,0.0086
2070.00,0.0086
2069.00,0.0086
2068.00,0.0087
2067.00,0.0087
2066.00,0.0087
2065.00,0.0087
2064.00,0.0087
2063.00,0.0087
2062.00,0.0087
2061.00,0.0087
2060.00,0.0088
2059.00,0.0088
2058.00,0.0087
2057.00,0.0087
2056.00,0.0087
2055.00,0.0087
2054.00,0.0088
2053.00,0.0089
2052.00,0.0089
2051.00,0.0088
2050.00,0.0086
2049.00,0.0086
2048.00,0.0087
2047.00,0.0087
2046.00,0.0087
2045.00,0.0088
2044.00,0.0089
2043.00,0.0089
2042.00,0.0089
2041.00,0.0088
2040.00,0.0088
2039.00,0.0087
2038.00,0.0086
2037.00,0.0087
2036.00,0.0087
2035.00,0.0088
2034.00,0.0087
2033.00,0.0087
2032.00,0.0088
2031.00,0.0088
2030.00,0.0087
2029.00,0.0086
2028.00,0.0086
2027.00,0.0085
2026.00,0.0085
2025.00,0.0085
2024.00,0.0085
2023.00,0.0086
2022.00,0.0085
2021.00,0.0084
2020.00,0.0083
2019.00,0.0081
2018.00,0.0080
2017.00,0.0080
2016.00,0.0080
2015.00,0.0080
2014.00,0.0080
2013.00,0.0080
2012.00,0.0080
2011.00,0.0080
2010.00,0.0080
2009.00,0.0080
2008.00,0.0080
2007.00,0.0079
2006.00,0.0078
2005.00,0.0078
2004.00,0.0078
2003.00,0.0079
2002.00,0.0079
2001.00,0.0080
2000.00,0.0080
1999.00,0.0080
1998.00,0.0081
1997.00,0.0081
1996.00,0.0082
1995.00,0.0082
1994.00,0.0082
1993.00,0.0082
1992.00,0.0082
1991.00,0.0082
1990.00,0.0082
1989.00,0.0082
1988.00,0.0083
1987.00,0.0083
1986.00,0.0082
1985.00,0.0082
1984.00,0.0083
1983.00,0.0083
1982.00,0.0083
1981.00,0.0083
1980.00,0.0082
1979.00,0.0081
1978.00,0.0079
1977.00,0.0080
1976.00,0.0081
1975.00,0.0081
1974.00,0.0081
1973.00,0.0081
1972.00,0.0081
1971.00,0.0081
1970.00,0.0080
1969.00,0.0081
1968.00,0.0081
1967.00,0.0081
1966.00,0.0081
1965.00,0.0081
1964.00,0.0081
1963.00,0.0081
1962.00,0.0081
1961.00,0.0081
1960.00,0.0082
1959.00,0.0082
1958.00,0.0082
1957.00,0.0081
1956.00,0.0081
1955.00,0.0081
1954.00,0.0080
1953.00,0.0079
1952.00,0.0079
1951.00,0.0079
1950.00,0.0079
1949.00,0.0079
1948.00,0.0080
1947.00,0.0081
1946.00,0.0080
1945.00,0.0081
1944.00,0.0081
1943.00,0.0081
1942.00,0.0082
1941.00,0.0082
1940.00,0.0082
1939.00,0.0082
1938.00,0.0082
1937.00,0.0082
1936.00,0.0083
1935.00,0.0083
1934.00,0.0084
1933.00,0.0084
1932.00,0.0084
1931.00,0.0084
1930.00,0.0084
1929.00,0.0085
1928.00,0.0085
1927.00,0.0085
1926.00,0.0086
1925.00,0.0086
1924.00,0.0087
1923.00,0.0087
1922.00,0.0087
1921.00,0.0087
1920.00,0.0087
1919.00,0.0087
1918.00,0.0087
1917.00,0.0087
1916.00,0.0088
1915.00,0.0088
1914.00,0.0088
1913.00,0.0088
1912.00,0.0088
1911.00,0.0088
1910.00,0.0089
1909.00,0.0089
1908.00,0.0090
1907.00,0.0090
1906.00,0.0089
1905.00,0.0089
1904.00,0.0089
1903.00,0.0089
1902.00,0.0089
1901.00,0.0089
1900.00,0.0089
1899.00,0.0089
1898.00,0.0089
1897.00,0.0089
1896.00,0.0090
1895.00,0.0090
1894.00,0.0090
1893.00,0.0089
1892.00,0.0089
1891.00,0.0090
1890.00,0.0090
1889.00,0.0091
1888.00,0.0091
1887.00,0.0090
1886.00,0.0090
1885.00,0.0090
1884.00,0.0090
1883.00,0.0090
1882.00,0.0090
1881.00,0.0090
1880.00,0.0091
1879.00,0.0091
1878.00,0.0091
1877.00,0.0090
1876.00,0.0090
1875.00,0.0090
1874.00,0.0090
1873.00,0.0090
1872.00,0.0091
1871.00,0.0091
1870.00,0.0092
1869.00,0.0093
1868.00,0.0094
1867.00,0.0094
1866.00,0.0094
1865.00,0.0094
1864.00,0.0094
1863.00,0.0094
1862.00,0.0093
1861.00,0.0094
1860.00,0.0094
1859.00,0.0094
1858.00,0.0094
1857.00,0.0094
1856.00,0.0094
1855.00,0.0094
1854.00,0.0094
1853.00,0.0094
1852.00,0.0094
1851.00,0.0094
1850.00,0.0094
1849.00,0.0095
1848.00,0.0095
1847.00,0.0095
1846.00,0.0096
1845.00,0.0096
1844.00,0.0097
1843.00,0.0097
1842.00,0.0096
1841.00,0.0096
1840.00,0.0096
1839.00,0.0096
1838.00,0.0096
1837.00,0.0096
1836.00,0.0096
1835.00,0.0096
1834.00,0.0095
1833.00,0.0096
1832.00,0.0096
1831.00,0.0096
1830.00,0.0097
1829.00,0.0097
1828.00,0.0096
1827.00,0.0096
1826.00,0.0096
1825.00,0.0096
1824.00,0.0096
1823.00,0.0096
1822.00,0.0095
1821.00,0.0094
1820.00,0.0094
1819.00,0.0094
1818.00,0.0093
1817.00,0.0094
1816.00,0.0094
1815.00,0.0094
1814.00,0.0094
1813.00,0.0094
1812.00,0.0095
1811.00,0.0096
1810.00,0.0096
1809.00,0.0096
1808.00,0.0097
1807.00,0.0097
1806.00,0.0097
1805.00,0.0097
1804.00,0.0097
1803.00,0.0098
1802.00,0.0099
1801.00,0.0099
1800.00,0.0100
1799.00,0.0099
1798.00,0.0099
1797.00,0.0099
1796.00,0.0099
1795.00,0.0099
1794.00,0.0099
1793.00,0.0100
1792.00,0.0100
1791.00,0.0101
1790.00,0.0100
1789.00,0.0100
1788.00,0.0099
1787.00,0.0099
1786.00,0.0099
1785.00,0.0100
1784.00,0.0100
1783.00,0.0100
1782.00,0.0100
1781.00,0.0100
1780.00,0.0101
1779.00,0.0101
1778.00,0.0101
1777.00,0.0101
1776.00,0.0101
1775.00,0.0101
1774.00,0.0101
1773.00,0.0101
1772.00,0.0102
1771.00,0.0102
1770.00,0.0102
1769.00,0.0103
1768.00,0.0103
1767.00,0.0103
1766.00,0.0103
1765.00,0.0102
1764.00,0.0102
1763.00,0.0103
1762.00,0.0103
1761.00,0.0103
1760.00,0.0103
1759.00,0.0103
1758.00,0.0103
1757.00,0.0104
1756.00,0.0104
1755.00,0.0103
1754.00,0.0103
1753.00,0.0103
1752.00,0.0104
1751.00,0.0105
1750.00,0.0106
1749.00,0.0106
1748.00,0.0107
1747.00,0.0106
1746.00,0.0105
1745.00,0.0105
1744.00,0.0106
1743.00,0.0106
1742.00,0.0105
1741.00,0.0105
1740.00,0.0104
1739.00,0.0104
1738.00,0.0103
1737.00,0.0103
1736.00,0.0103
1735.00,0.0104
1734.00,0.0104
1733.00,0.0105
1732.00,0.0105
1731.00,0.0105
1730.00,0.0105
1729.00,0.0105
1728.00,0.0105
1727.00,0.0104
1726.00,0.0103
1725.00,0.0103
1724.00,0.0103
1723.00,0.0103
1722.00,0.0103
1721.00,0.0102
1720.00,0.0102
1719.00,0.0103
1718.00,0.0103
1717.00,0.0103
1716.00,0.0104
1715.00,0.0104
1714.00,0.0104
1713.00,0.0104
1712.00,0.0104
1711.00,0.0104
1710.00,0.0104
1709.00,0.0105
1708.00,0.0106
1707.00,0.0108
1706.00,0.0109
1705.00,0.0111
1704.00,0.0112
1703.00,0.0113
1702.00,0.0112
1701.00,0.0113
1700.00,0.0115
1699.00,0.0116
1698.00,0.0117
1697.00,0.0118
1696.00,0.0120
1695.00,0.0120
1694.00,0.0120
1693.00,0.0121
1692.00,0.0123
1691.00,0.0124
1690.00,0.0125
1689.00,0.0127
1688.00,0.0128
1687.00,0.0128
1686.00,0.0128
1685.00,0.0130
1684.00,0.0133
1683.00,0.0136
1682.00,0.0137
1681.00,0.0139
1680.00,0.0141
1679.00,0.0142
1678.00,0.0143
1677.00,0.0145
1676.00,0.0148
1675.00,0.0153
1674.00,0.0157
1673.00,0.0162
1672.00,0.0168
1671.00,0.0175
1670.00,0.0183
1669.00,0.0191
1668.00,0.0198
1667.00,0.0202
1666.00,0.0204
1665.00,0.0205
1664.00,0.0206
1663.00,0.0206
1662.00,0.0206
1661.00,0.0207
1660.00,0.0208
1659.00,0.0210
1658.00,0.0211
1657.00,0.0213
1656.00,0.0215
1655.00,0.0218
1654.00,0.0224
1653.00,0.0233
1652.00,0.0241
1651.00,0.0245
1650.00,0.0249
1649.00,0.0255
1648.00,0.0265
1647.00,0.0278
1646.00,0.0291
1645.00,0.0305
1644.00,0.0320
1643.00,0.0335
1642.00,0.0353
1641.00,0.0374
1640.00,0.0397
1639.00,0.0420
1638.00,0.0446
1637.00,0.0480
1636.00,0.0530
1635.00,0.0586
1634.00,0.0638
1633.00,0.0686
1632.00,0.0737
1631.00,0.0792
1630.00,0.0855
1629.00,0.0929
1628.00,0.1011
1627.00,0.1094
1626.00,0.1174
1625.00,0.1258
1624.00,0.1357
1623.00,0.1467
1622.00,0.1571
1621.00,0.1662
1620.00,0.1741
1619.00,0.1821
1618.00,0.1917
1617.00,0.2039
1616.00,0.2167
1615.00,0.2269
1614.00,0.2334
1613.00,0.2374
1612.00,0.2399
1611.00,0.2404
1610.00,0.2383
1609.00,0.2338
1608.00,0.2275
1607.00,0.2198
1606.00,0.2110
1605.00,0.2017
1604.00,0.1925
1603.00,0.1836
1602.00,0.1750
1601.00,0.1669
1600.00,0.1594
1599.00,0.1526
1598.00,0.1462
1597.00,0.1403
1596.00,0.1349
1595.00,0.1298
1594.00,0.1249
1593.00,0.1202
1592.00,0.1156
1591.00,0.1112
1590.00,0.1069
1589.00,0.1028
1588.00,0.0989
1587.00,0.0952
1586.00,0.0918
1585.00,0.0886
1584.00,0.0858
1583.00,0.0833
1582.00,0.0813
1581.00,0.0796
1580.00,0.0784
1579.00,0.0776
1578.00,0.0775
1577.00,0.0786
1576.00,0.0813
1575.00,0.0849
1574.00,0.0888
1573.00,0.0929
1572.00,0.0982
1571.00,0.1054
1570.00,0.1147
1569.00,0.1246
1568.00,0.1327
1567.00,0.1378
1566.00,0.1399
1565.00,0.1392
1564.00,0.1358
1563.00,0.1300
1562.00,0.1223
1561.00,0.1130
1560.00,0.1019
1559.00,0.0900
1558.00,0.0798
1557.00,0.0725
1556.00,0.0671
1555.00,0.0626
1554.00,0.0585
1553.00,0.0550
1552.00,0.0523
1551.00,0.0500
1550.00,0.0480
1549.00,0.0462
1548.00,0.0446
1547.00,0.0431
1546.00,0.0419
1545.00,0.0408
1544.00,0.0399
1543.00,0.0390
1542.00,0.0382
1541.00,0.0375
1540.00,0.0370
1539.00,0.0365
1538.00,0.0360
1537.00,0.0355
1536.00,0.0351
1535.00,0.0348
1534.00,0.0346
1533.00,0.0346
1532.00,0.0345
1531.00,0.0343
1530.00,0.0341
1529.00,0.0340
1528.00,0.0341
1527.00,0.0342
1526.00,0.0345
1525.00,0.0346
1524.00,0.0347
1523.00,0.0349
1522.00,0.0353
1521.00,0.0359
1520.00,0.0364
1519.00,0.0367
1518.00,0.0370
1517.00,0.0376
1516.00,0.0382
1515.00,0.0387
1514.00,0.0391
1513.00,0.0395
1512.00,0.0401
1511.00,0.0407
1510.00,0.0412
1509.00,0.0417
1508.00,0.0425
1507.00,0.0436
1506.00,0.0446
1505.00,0.0451
1504.00,0.0454
1503.00,0.0457
1502.00,0.0461
1501.00,0.0466
1500.00,0.0472
1499.00,0.0478
1498.00,0.0484
1497.00,0.0491
1496.00,0.0498
1495.00,0.0502
1494.00,0.0503
1493.00,0.0503
1492.00,0.0502
1491.00,0.0502
1490.00,0.0501
1489.00,0.0497
1488.00,0.0490
1487.00,0.0479
1486.00,0.0467
1485.00,0.0455
1484.00,0.0444
1483.00,0.0435
1482.00,0.0429
1481.00,0.0426
1480.00,0.0426
1479.00,0.0429
1478.00,0.0437
1477.00,0.0453
1476.00,0.0474
1475.00,0.0502
1474.00,0.0538
1473.00,0.0588
1472.00,0.0644
1471.00,0.0694
1470.00,0.0736
1469.00,0.0772
1468.00,0.0805
1467.00,0.0835
1466.00,0.0865
1465.00,0.0894
1464.00,0.0917
1463.00,0.0931
1462.00,0.0936
1461.00,0.0935
1460.00,0.0930
1459.00,0.0924
1458.00,0.0924
1457.00,0.0936
1456.00,0.0953
1455.00,0.0968
1454.00,0.0979
1453.00,0.0989
1452.00,0.0997
1451.00,0.1003
1450.00,0.1009
1449.00,0.1016
1448.00,0.1027
1447.00,0.1037
1446.00,0.1044
1445.00,0.1046
1444.00,0.1044
1443.00,0.1037
1442.00,0.1026
1441.00,0.1010
1440.00,0.0990
1439.00,0.0965
1438.00,0.0938
1437.00,0.0910
1436.00,0.0883
1435.00,0.0860
1434.00,0.0840
1433.00,0.0823
1432.00,0.0807
1431.00,0.0790
1430.00,0.0772
1429.00,0.0752
1428.00,0.0733
1427.00,0.0719
1426.00,0.0711
1425.00,0.0708
1424.00,0.0703
1423.00,0.0688
1422.00,0.0662
1421.00,0.0624
1420.00,0.0581
1419.00,0.0543
1418.00,0.0515
1417.00,0.0497
1416.00,0.0486
1415.00,0.0481
1414.00,0.0483
1413.00,0.0489
1412.00,0.0502
1411.00,0.0522
1410.00,0.0548
1409.00,0.0580
1408.00,0.0619
1407.00,0.0666
1406.00,0.0720
1405.00,0.0780
1404.00,0.0837
1403.00,0.0884
1402.00,0.0915
1401.00,0.0930
1400.00,0.0928
1399.00,0.0911
1398.00,0.0881
1397.00,0.0843
1396.00,0.0801
1395.00,0.0759
1394.00,0.0722
1393.00,0.0692
1392.00,0.0674
1391.00,0.0670
1390.00,0.0682
1389.00,0.0714
1388.00,0.0759
1387.00,0.0806
1386.00,0.0840
1385.00,0.0856
1384.00,0.0862
1383.00,0.0868
1382.00,0.0884
1381.00,0.0910
1380.00,0.0947
1379.00,0.0992
1378.00,0.1042
1377.00,0.1093
1376.00,0.1146
1375.00,0.1201
1374.00,0.1248
1373.00,0.1279
1372.00,0.1291
1371.00,0.1297
1370.00,0.1309
1369.00,0.1333
1368.00,0.1366
1367.00,0.1396
1366.00,0.1409
1365.00,0.1394
1364.00,0.1347
1363.00,0.1275
1362.00,0.1195
1361.00,0.1125
1360.00,0.1078
1359.00,0.1058
1358.00,0.1057
1357.00,0.1067
1356.00,0.1071
1355.00,0.1060
1354.00,0.1027
1353.00,0.0977
1352.00,0.0916
1351.00,0.0852
1350.00,0.0792
1349.00,0.0740
1348.00,0.0698
1347.00,0.0666
1346.00,0.0642
1345.00,0.0622
1344.00,0.0602
1343.00,0.0581
1342.00,0.0559
1341.00,0.0536
1340.00,0.0514
1339.00,0.0494
1338.00,0.0475
1337.00,0.0458
1336.00,0.0444
1335.00,0.0434
1334.00,0.0429
1333.00,0.0427
1332.00,0.0428
1331.00,0.0432
1330.00,0.0440
1329.00,0.0449
1328.00,0.0458
1327.00,0.0469
1326.00,0.0478
1325.00,0.0487
1324.00,0.0494
1323.00,0.0500
1322.00,0.0503
1321.00,0.0503
1320.00,0.0500
1319.00,0.0495
1318.00,0.0488
1317.00,0.0481
1316.00,0.0475
1315.00,0.0472
1314.00,0.0472
1313.00,0.0473
1312.00,0.0475
1311.00,0.0476
1310.00,0.0478
1309.00,0.0481
1308.00,0.0485
1307.00,0.0490
1306.00,0.0497
1305.00,0.0502
1304.00,0.0504
1303.00,0.0504
1302.00,0.0503
1301.00,0.0503
1300.00,0.0506
1299.00,0.0514
1298.00,0.0529
1297.00,0.0548
1296.00,0.0573
1295.00,0.0601
1294.00,0.0632
1293.00,0.0665
1292.00,0.0702
1291.00,0.0741
1290.00,0.0782
1289.00,0.0822
1288.00,0.0857
1287.00,0.0883
1286.00,0.0900
1285.00,0.0907
1284.00,0.0907
1283.00,0.0904
1282.00,0.0903
1281.00,0.0907
1280.00,0.0921
1279.00,0.0948
1278.00,0.0990
1277.00,0.1049
1276.00,0.1125
1275.00,0.1212
1274.00,0.1306
1273.00,0.1395
1272.00,0.1473
1271.00,0.1535
1270.00,0.1583
1269.00,0.1621
1268.00,0.1657
1267.00,0.1693
1266.00,0.1732
1265.00,0.1775
1264.00,0.1824
1263.00,0.1882
1262.00,0.1951
1261.00,0.2031
1260.00,0.2121
1259.00,0.2215
1258.00,0.2311
1257.00,0.2402
1256.00,0.2483
1255.00,0.2550
1254.00,0.2599
1253.00,0.2632
1252.00,0.2651
1251.00,0.2662
1250.00,0.2664
1249.00,0.2653
1248.00,0.2619
1247.00,0.2552
1246.00,0.2455
1245.00,0.2337
1244.00,0.2214
1243.00,0.2102
1242.00,0.2011
1241.00,0.1942
1240.00,0.1893
1239.00,0.1859
1238.00,0.1833
1237.00,0.1811
1236.00,0.1789
1235.00,0.1759
1234.00,0.1716
1233.00,0.1657
1232.00,0.1583
1231.00,0.1499
1230.00,0.1411
1229.00,0.1326
1228.00,0.1248
1227.00,0.1180
1226.00,0.1123
1225.00,0.1076
1224.00,0.1036
1223.00,0.0998
1222.00,0.0960
1221.00,0.0920
1220.00,0.0879
1219.00,0.0838
1218.00,0.0799
1217.00,0.0764
1216.00,0.0733
1215.00,0.0706
1214.00,0.0683
1213.00,0.0663
1212.00,0.0645
1211.00,0.0631
1210.00,0.0620
1209.00,0.0613
1208.00,0.0611
1207.00,0.0616
1206.00,0.0629
1205.00,0.0653
1204.00,0.0690
1203.00,0.0745
1202.00,0.0822
1201.00,0.0923
1200.00,0.1049
1199.00,0.1196
1198.00,0.1355
1197.00,0.1507
1196.00,0.1632
1195.00,0.1715
1194.00,0.1750
1193.00,0.1747
1192.00,0.1724
1191.00,0.1696
1190.00,0.1676
1189.00,0.1668
1188.00,0.1672
1187.00,0.1684
1186.00,0.1694
1185.00,0.1688
1184.00,0.1657
1183.00,0.1598
1182.00,0.1517
1181.00,0.1422
1180.00,0.1324
1179.00,0.1231
1178.00,0.1150
1177.00,0.1087
1176.00,0.1044
1175.00,0.1024
1174.00,0.1021
1173.00,0.1023
1172.00,0.1016
1171.00,0.0991
1170.00,0.0945
1169.00,0.0883
1168.00,0.0815
1167.00,0.0750
1166.00,0.0693
1165.00,0.0646
1164.00,0.0607
1163.00,0.0575
1162.00,0.0549
1161.00,0.0527
1160.00,0.0509
1159.00,0.0493
1158.00,0.0480
1157.00,0.0471
1156.00,0.0465
1155.00,0.0466
1154.00,0.0474
1153.00,0.0493
1152.00,0.0526
1151.00,0.0578
1150.00,0.0649
1149.00,0.0730
1148.00,0.0806
1147.00,0.0856
1146.00,0.0867
1145.00,0.0835
1144.00,0.0776
1143.00,0.0711
1142.00,0.0658
1141.00,0.0628
1140.00,0.0622
1139.00,0.0642
1138.00,0.0689
1137.00,0.0763
1136.00,0.0869
1135.00,0.1009
1134.00,0.1178
1133.00,0.1358
1132.00,0.1517
1131.00,0.1620
1130.00,0.1646
1129.00,0.1600
1128.00,0.1513
1127.00,0.1426
1126.00,0.1373
1125.00,0.1373
1124.00,0.1428
1123.00,0.1527
1122.00,0.1649
1121.00,0.1767
1120.00,0.1855
1119.00,0.1892
1118.00,0.1869
1117.00,0.1796
1116.00,0.1692
1115.00,0.1577
1114.00,0.1468
1113.00,0.1373
1112.00,0.1293
1111.00,0.1226
1110.00,0.1167
1109.00,0.1112
1108.00,0.1059
1107.00,0.1004
1106.00,0.0947
1105.00,0.0890
1104.00,0.0835
1103.00,0.0783
1102.00,0.0738
1101.00,0.0698
1100.00,0.0663
1099.00,0.0632
1098.00,0.0603
1097.00,0.0575
1096.00,0.0549
1095.00,0.0525
1094.00,0.0504
1093.00,0.0485
1092.00,0.0469
1091.00,0.0456
1090.00,0.0446
1089.00,0.0439
1088.00,0.0435
1087.00,0.0436
1086.00,0.0444
1085.00,0.0460
1084.00,0.0486
1083.00,0.0524
1082.00,0.0577
1081.00,0.0643
1080.00,0.0717
1079.00,0.0790
1078.00,0.0850
1077.00,0.0883
1076.00,0.0884
1075.00,0.0853
1074.00,0.0803
1073.00,0.0744
1072.00,0.0687
1071.00,0.0639
1070.00,0.0599
1069.00,0.0567
1068.00,0.0541
1067.00,0.0521
1066.00,0.0505
1065.00,0.0494
1064.00,0.0485
1063.00,0.0481
1062.00,0.0482
1061.00,0.0490
1060.00,0.0509
1059.00,0.0541
1058.00,0.0588
1057.00,0.0643
1056.00,0.0697
1055.00,0.0739
1054.00,0.0760
1053.00,0.0755
1052.00,0.0728
1051.00,0.0687
1050.00,0.0642
1049.00,0.0601
1048.00,0.0569
1047.00,0.0552
1046.00,0.0549
1045.00,0.0562
1044.00,0.0588
1043.00,0.0625
1042.00,0.0668
1041.00,0.0708
1040.00,0.0737
1039.00,0.0748
1038.00,0.0740
1037.00,0.0716
1036.00,0.0684
1035.00,0.0652
1034.00,0.0624
1033.00,0.0597
1032.00,0.0569
1031.00,0.0539
1030.00,0.0508
1029.00,0.0477
1028.00,0.0449
1027.00,0.0426
1026.00,0.0409
1025.00,0.0397
1024.00,0.0389
1023.00,0.0384
1022.00,0.0383
1021.00,0.0383
1020.00,0.0385
1019.00,0.0390
1018.00,0.0398
1017.00,0.0407
1016.00,0.0416
1015.00,0.0423
1014.00,0.0428
1013.00,0.0432
1012.00,0.0438
1011.00,0.0446
1010.00,0.0454
1009.00,0.0458
1008.00,0.0457
1007.00,0.0451
1006.00,0.0443
1005.00,0.0436
1004.00,0.0430
1003.00,0.0424
1002.00,0.0418
1001.00,0.0410
1000.00,0.0401
999.00,0.0393
998.00,0.0386
997.00,0.0381
996.00,0.0376
995.00,0.0372
994.00,0.0368
993.00,0.0361
992.00,0.0351
991.00,0.0340
990.00,0.0331
989.00,0.0323
988.00,0.0317
987.00,0.0314
986.00,0.0314
985.00,0.0315
984.00,0.0319
983.00,0.0323
982.00,0.0328
981.00,0.0333
980.00,0.0337
979.00,0.0343
978.00,0.0351
977.00,0.0360
976.00,0.0370
975.00,0.0380
974.00,0.0389
973.00,0.0394
972.00,0.0394
971.00,0.0389
970.00,0.0380
969.00,0.0369
968.00,0.0357
967.00,0.0347
966.00,0.0340
965.00,0.0336
964.00,0.0332
963.00,0.0330
962.00,0.0328
961.00,0.0326
960.00,0.0325
959.00,0.0325
958.00,0.0327
957.00,0.0331
956.00,0.0335
955.00,0.0341
954.00,0.0347
953.00,0.0355
952.00,0.0366
951.00,0.0381
950.00,0.0402
949.00,0.0428
948.00,0.0456
947.00,0.0484
946.00,0.0509
945.00,0.0527
944.00,0.0536
943.00,0.0538
942.00,0.0535
941.00,0.0526
940.00,0.0515
939.00,0.0506
938.00,0.0500
937.00,0.0497
936.00,0.0498
935.00,0.0500
934.00,0.0504
933.00,0.0508
932.00,0.0513
931.00,0.0520
930.00,0.0530
929.00,0.0543
928.00,0.0557
927.00,0.0572
926.00,0.0588
925.00,0.0603
924.00,0.0617
923.00,0.0630
922.00,0.0641
921.00,0.0652
920.00,0.0662
919.00,0.0673
918.00,0.0687
917.00,0.0705
916.00,0.0730
915.00,0.0762
914.00,0.0804
913.00,0.0850
912.00,0.0897
911.00,0.0942
910.00,0.0982
909.00,0.1018
908.00,0.1046
907.00,0.1059
906.00,0.1053
905.00,0.1024
904.00,0.0979
903.00,0.0930
902.00,0.0886
901.00,0.0852
900.00,0.0832
899.00,0.0829
898.00,0.0841
897.00,0.0863
896.00,0.0889
895.00,0.0914
894.00,0.0936
893.00,0.0951
892.00,0.0956
891.00,0.0947
890.00,0.0920
889.00,0.0878
888.00,0.0828
887.00,0.0778
886.00,0.0735
885.00,0.0699
884.00,0.0670
883.00,0.0645
882.00,0.0625
881.00,0.0607
880.00,0.0590
879.00,0.0577
878.00,0.0565
877.00,0.0555
876.00,0.0546
875.00,0.0538
874.00,0.0533
873.00,0.0530
872.00,0.0530
871.00,0.0533
870.00,0.0539
869.00,0.0550
868.00,0.0565
867.00,0.0584
866.00,0.0611
865.00,0.0645
864.00,0.0690
863.00,0.0748
862.00,0.0819
861.00,0.0900
860.00,0.0981
859.00,0.1050
858.00,0.1096
857.00,0.1111
856.00,0.1097
855.00,0.1066
854.00,0.1031
853.00,0.1000
852.00,0.0975
851.00,0.0953
850.00,0.0933
849.00,0.0912
848.00,0.0890
847.00,0.0869
846.00,0.0851
845.00,0.0837
844.00,0.0828
843.00,0.0824
842.00,0.0826
841.00,0.0830
840.00,0.0836
839.00,0.0842
838.00,0.0852
837.00,0.0864
836.00,0.0879
835.00,0.0893
834.00,0.0900
833.00,0.0894
832.00,0.0873
831.00,0.0840
830.00,0.0802
829.00,0.0763
828.00,0.0727
827.00,0.0695
826.00,0.0667
825.00,0.0640
824.00,0.0614
823.00,0.0590
822.00,0.0570
821.00,0.0555
820.00,0.0543
819.00,0.0537
818.00,0.0537
817.00,0.0543
816.00,0.0555
815.00,0.0575
814.00,0.0603
813.00,0.0639
812.00,0.0681
811.00,0.0724
810.00,0.0764
809.00,0.0794
808.00,0.0807
807.00,0.0793
806.00,0.0749
805.00,0.0679
804.00,0.0598
803.00,0.0523
802.00,0.0466
801.00,0.0427
800.00,0.0402
799.00,0.0390
798.00,0.0386
797.00,0.0390
796.00,0.0399
795.00,0.0417
794.00,0.0444
793.00,0.0480
792.00,0.0524
791.00,0.0573
790.00,0.0618
789.00,0.0651
788.00,0.0662
787.00,0.0655
786.00,0.0635
785.00,0.0611
784.00,0.0590
783.00,0.0578
782.00,0.0577
781.00,0.0585
780.00,0.0602
779.00,0.0629
778.00,0.0664
777.00,0.0707
776.00,0.0754
775.00,0.0801
774.00,0.0841
773.00,0.0868
772.00,0.0873
771.00,0.0852
770.00,0.0812
769.00,0.0761
768.00,0.0715
767.00,0.0683
766.00,0.0668
765.00,0.0667
764.00,0.0673
763.00,0.0682
762.00,0.0691
761.00,0.0697
760.00,0.0699
759.00,0.0698
758.00,0.0693
757.00,0.0686
756.00,0.0676
755.00,0.0665
754.00,0.0654
753.00,0.0643
752.00,0.0633
751.00,0.0624
750.00,0.0617
749.00,0.0612
748.00,0.0607
747.00,0.0606
746.00,0.0607
745.00,0.0611
744.00,0.0617
743.00,0.0625
742.00,0.0637
741.00,0.0650
740.00,0.0664
739.00,0.0680
738.00,0.0697
737.00,0.0711
736.00,0.0719
735.00,0.0719
734.00,0.0713
733.00,0.0704
732.00,0.0696
731.00,0.0694
730.00,0.0700
729.00,0.0713
728.00,0.0732
727.00,0.0758
726.00,0.0791
725.00,0.0829
724.00,0.0872
723.00,0.0916
722.00,0.0959
721.00,0.1000
720.00,0.1040
719.00,0.1086
718.00,0.1142
717.00,0.1206
716.00,0.1268
715.00,0.1319
714.00,0.1349
713.00,0.1354
712.00,0.1335
711.00,0.1297
710.00,0.1246
709.00,0.1183
708.00,0.1112
707.00,0.1040
706.00,0.0970
705.00,0.0904
704.00,0.0844
703.00,0.0792
702.00,0.0747
701.00,0.0709
700.00,0.0675
699.00,0.0646
698.00,0.0622
697.00,0.0601
696.00,0.0582
695.00,0.0566
694.00,0.0554
693.00,0.0543
692.00,0.0532
691.00,0.0522
690.00,0.0512
689.00,0.0500
688.00,0.0487
687.00,0.0475
686.00,0.0464
685.00,0.0454
684.00,0.0444
683.00,0.0434
682.00,0.0425
681.00,0.0417
680.00,0.0407
679.00,0.0399
678.00,0.0392
677.00,0.0386
676.00,0.0381
675.00,0.0377
674.00,0.0375
673.00,0.0375
672.00,0.0375
671.00,0.0375
670.00,0.0375
669.00,0.0378
668.00,0.0386
667.00,0.0397
666.00,0.0408
665.00,0.0419
664.00,0.0430
663.00,0.0443
662.00,0.0460
661.00,0.0476
660.00,0.0487
659.00,0.0490
658.00,0.0488
657.00,0.0484
656.00,0.0482
655.00,0.0484
654.00,0.0487
653.00,0.0485
652.00,0.0475
651.00,0.0465
650.00,0.0463
649.00,0.0474
648.00,0.0498
647.00,0.0526
646.00,0.0548
645.00,0.0557
644.00,0.0556
643.00,0.0555
642.00,0.0563
641.00,0.0577
640.00,0.0592
639.00,0.0603
638.00,0.0603
637.00,0.0589
636.00,0.0563
635.00,0.0530
634.00,0.0496
633.00,0.0465
632.00,0.0437
631.00,0.0415
630.00,0.0401
629.00,0.0393
628.00,0.0392
627.00,0.0399
626.00,0.0416
625.00,0.0437
624.00,0.0457
623.00,0.0471
622.00,0.0481
621.00,0.0487
620.00,0.0491
619.00,0.0491
618.00,0.0486
617.00,0.0472
616.00,0.0450
615.00,0.0427
614.00,0.0408
613.00,0.0394
612.00,0.0388
611.00,0.0388
610.00,0.0395
609.00,0.0402
608.00,0.0404
607.00,0.0403
606.00,0.0398
605.00,0.0392
604.00,0.0388
603.00,0.0390
602.00,0.0402
601.00,0.0425
600.00,0.0459
599.00,0.0504
598.00,0.0560
597.00,0.0618
596.00,0.0673
595.00,0.0718
594.00,0.0750
593.00,0.0763
592.00,0.0754
591.00,0.0725
590.00,0.0681
589.00,0.0628
588.00,0.0573
587.00,0.0521
586.00,0.0476
585.00,0.0438
584.00,0.0405
583.00,0.0378
582.00,0.0357
581.00,0.0339
580.00,0.0323
579.00,0.0311
578.00,0.0303
577.00,0.0297
576.00,0.0293
575.00,0.0291
574.00,0.0296
573.00,0.0306
572.00,0.0321
571.00,0.0342
570.00,0.0367
569.00,0.0388
568.00,0.0402
567.00,0.0407
566.00,0.0404
565.00,0.0392
564.00,0.0373
563.00,0.0355
562.00,0.0343
561.00,0.0335
560.00,0.0331
559.00,0.0331
558.00,0.0333
557.00,0.0334
556.00,0.0333
555.00,0.0333
554.00,0.0335
553.00,0.0340
552.00,0.0348
551.00,0.0363
550.00,0.0385
549.00,0.0408
548.00,0.0424
547.00,0.0431
546.00,0.0427
545.00,0.0411
544.00,0.0384
543.00,0.0356
542.00,0.0330
541.00,0.0308
540.00,0.0290
539.00,0.0276
538.00,0.0269
537.00,0.0265
536.00,0.0261
535.00,0.0260
534.00,0.0265
533.00,0.0271
532.00,0.0279
531.00,0.0292
530.00,0.0313
529.00,0.0339
528.00,0.0369
527.00,0.0404
526.00,0.0438
525.00,0.0459
524.00,0.0457
523.00,0.0435
522.00,0.0404
521.00,0.0371
520.00,0.0342
519.00,0.0321
518.00,0.0310
517.00,0.0306
516.00,0.0305
515.00,0.0311
514.00,0.0325
513.00,0.0343
512.00,0.0364
511.00,0.0395
510.00,0.0436
509.00,0.0487
508.00,0.0545
507.00,0.0609
506.00,0.0673
505.00,0.0724
504.00,0.0752
503.00,0.0756
502.00,0.0739
501.00,0.0708
500.00,0.0677
499.00,0.0663
498.00,0.0676
497.00,0.0715
496.00,0.0767
495.00,0.0817
494.00,0.0842
493.00,0.0827
492.00,0.0771
491.00,0.0693
490.00,0.0611
489.00,0.0534
488.00,0.0468
487.00,0.0417
486.00,0.0385
485.00,0.0363
484.00,0.0347
483.00,0.0341
482.00,0.0346
481.00,0.0358
480.00,0.0371
479.00,0.0386
478.00,0.0401
477.00,0.0410
476.00,0.0410
475.00,0.0409
474.00,0.0412
473.00,0.0416
472.00,0.0420
471.00,0.0424
470.00,0.0430
469.00,0.0429
468.00,0.0419
467.00,0.0405
466.00,0.0392
465.00,0.0379
464.00,0.0360
463.00,0.0342
462.00,0.0331
461.00,0.0322
460.00,0.0312
459.00,0.0305
458.00,0.0305
457.00,0.0306
456.00,0.0305
455.00,0.0307
454.00,0.0314
453.00,0.0320
452.00,0.0321
451.00,0.0322
450.00,0.0329
449.00,0.0335
448.00,0.0337
447.00,0.0341
446.00,0.0353
445.00,0.0368
444.00,0.0383
443.00,0.0406
442.00,0.0437
441.00,0.0470
440.00,0.0500
439.00,0.0531
438.00,0.0568
437.00,0.0602
436.00,0.0627
435.00,0.0648
434.00,0.0669
433.00,0.0686
432.00,0.0696
431.00,0.0706
430.00,0.0719
429.00,0.0728
428.00,0.0731
427.00,0.0738
426.00,0.0757
425.00,0.0779
424.00,0.0794
423.00,0.0802
422.00,0.0804
421.00,0.0790
420.00,0.0754
419.00,0.0710
418.00,0.0682
417.00,0.0668
416.00,0.0659
415.00,0.0657
414.00,0.0664
413.00,0.0664
412.00,0.0649
411.00,0.0627
410.00,0.0607
409.00,0.0577
408.00,0.0534
407.00,0.0496
406.00,0.0478
405.00,0.0466
404.00,0.0448
403.00,0.0437
402.00,0.0445
401.00,0.0450
400.00,0.0441
