Created as New Dataset,Sample 231 By YargerLab Date Wednesday, June 12 2024
cm-1,A
4000.00,0.0073
3999.00,0.0073
3998.00,0.0073
3997.00,0.0073
3996.00,0.0073
3995.00,0.0073
3994.00,0.0073
3993.00,0.0073
3992.00,0.0073
3991.00,0.0073
3990.00,0.0073
3989.00,0.0073
3988.00,0.0073
3987.00,0.0073
3986.00,0.0073
3985.00,0.0073
3984.00,0.0073
3983.00,0.0073
3982.00,0.0073
3981.00,0.0073
3980.00,0.0073
3979.00,0.0073
3978.00,0.0073
3977.00,0.0074
3976.00,0.0074
3975.00,0.0074
3974.00,0.0073
3973.00,0.0073
3972.00,0.0073
3971.00,0.0073
3970.00,0.0073
3969.00,0.0073
3968.00,0.0073
3967.00,0.0073
3966.00,0.0073
3965.00,0.0073
3964.00,0.0073
3963.00,0.0073
3962.00,0.0073
3961.00,0.0073
3960.00,0.0073
3959.00,0.0073
3958.00,0.0073
3957.00,0.0073
3956.00,0.0073
3955.00,0.0073
3954.00,0.0073
3953.00,0.0073
3952.00,0.0073
3951.00,0.0073
3950.00,0.0074
3949.00,0.0074
3948.00,0.0074
3947.00,0.0074
3946.00,0.0074
3945.00,0.0074
3944.00,0.0073
3943.00,0.0073
3942.00,0.0073
3941.00,0.0073
3940.00,0.0073
3939.00,0.0073
3938.00,0.0073
3937.00,0.0073
3936.00,0.0073
3935.00,0.0073
3934.00,0.0073
3933.00,0.0073
3932.00,0.0073
3931.00,0.0073
3930.00,0.0073
3929.00,0.0073
3928.00,0.0073
3927.00,0.0073
3926.00,0.0073
3925.00,0.0073
3924.00,0.0073
3923.00,0.0073
3922.00,0.0073
3921.00,0.0073
3920.00,0.0073
3919.00,0.0073
3918.00,0.0073
3917.00,0.0073
3916.00,0.0073
3915.00,0.0073
3914.00,0.0073
3913.00,0.0073
3912.00,0.0073
3911.00,0.0073
3910.00,0.0073
3909.00,0.0073
3908.00,0.0073
3907.00,0.0073
3906.00,0.0073
3905.00,0.0073
3904.00,0.0074
3903.00,0.0074
3902.00,0.0074
3901.00,0.0074
3900.00,0.0074
3899.00,0.0074
3898.00,0.0073
3897.00,0.0073
3896.00,0.0073
3895.00,0.0073
3894.00,0.0073
3893.00,0.0073
3892.00,0.0072
3891.00,0.0072
3890.00,0.0073
3889.00,0.0073
3888.00,0.0073
3887.00,0.0073
3886.00,0.0073
3885.00,0.0073
3884.00,0.0073
3883.00,0.0073
3882.00,0.0073
3881.00,0.0073
3880.00,0.0073
3879.00,0.0073
3878.00,0.0073
3877.00,0.0073
3876.00,0.0073
3875.00,0.0073
3874.00,0.0073
3873.00,0.0073
3872.00,0.0073
3871.00,0.0073
3870.00,0.0073
3869.00,0.0073
3868.00,0.0073
3867.00,0.0073
3866.00,0.0074
3865.00,0.0073
3864.00,0.0073
3863.00,0.0073
3862.00,0.0073
3861.00,0.0073
3860.00,0.0073
3859.00,0.0073
3858.00,0.0072
3857.00,0.0072
3856.00,0.0072
3855.00,0.0072
3854.00,0.0072
3853.00,0.0072
3852.00,0.0073
3851.00,0.0073
3850.00,0.0073
3849.00,0.0073
3848.00,0.0073
3847.00,0.0073
3846.00,0.0073
3845.00,0.0073
3844.00,0.0073
3843.00,0.0073
3842.00,0.0073
3841.00,0.0073
3840.00,0.0073
3839.00,0.0073
3838.00,0.0073
3837.00,0.0073
3836.00,0.0073
3835.00,0.0073
3834.00,0.0073
3833.00,0.0073
3832.00,0.0073
3831.00,0.0072
3830.00,0.0072
3829.00,0.0072
3828.00,0.0072
3827.00,0.0072
3826.00,0.0072
3825.00,0.0072
3824.00,0.0072
3823.00,0.0072
3822.00,0.0072
3821.00,0.0072
3820.00,0.0072
3819.00,0.0072
3818.00,0.0072
3817.00,0.0073
3816.00,0.0073
3815.00,0.0072
3814.00,0.0072
3813.00,0.0072
3812.00,0.0072
3811.00,0.0072
3810.00,0.0071
3809.00,0.0071
3808.00,0.0072
3807.00,0.0072
3806.00,0.0072
3805.00,0.0072
3804.00,0.0072
3803.00,0.0072
3802.00,0.0072
3801.00,0.0072
3800.00,0.0072
3799.00,0.0072
3798.00,0.0072
3797.00,0.0072
3796.00,0.0072
3795.00,0.0072
3794.00,0.0071
3793.00,0.0071
3792.00,0.0071
3791.00,0.0071
3790.00,0.0071
3789.00,0.0071
3788.00,0.0071
3787.00,0.0071
3786.00,0.0071
3785.00,0.0071
3784.00,0.0070
3783.00,0.0070
3782.00,0.0070
3781.00,0.0070
3780.00,0.0071
3779.00,0.0071
3778.00,0.0071
3777.00,0.0071
3776.00,0.0071
3775.00,0.0071
3774.00,0.0071
3773.00,0.0071
3772.00,0.0071
3771.00,0.0071
3770.00,0.0071
3769.00,0.0071
3768.00,0.0071
3767.00,0.0071
3766.00,0.0071
3765.00,0.0071
3764.00,0.0071
3763.00,0.0071
3762.00,0.0071
3761.00,0.0071
3760.00,0.0071
3759.00,0.0070
3758.00,0.0071
3757.00,0.0071
3756.00,0.0071
3755.00,0.0071
3754.00,0.0071
3753.00,0.0071
3752.00,0.0071
3751.00,0.0072
3750.00,0.0072
3749.00,0.0072
3748.00,0.0072
3747.00,0.0072
3746.00,0.0072
3745.00,0.0072
3744.00,0.0072
3743.00,0.0072
3742.00,0.0072
3741.00,0.0072
3740.00,0.0072
3739.00,0.0072
3738.00,0.0072
3737.00,0.0072
3736.00,0.0072
3735.00,0.0072
3734.00,0.0072
3733.00,0.0072
3732.00,0.0072
3731.00,0.0072
3730.00,0.0071
3729.00,0.0071
3728.00,0.0071
3727.00,0.0071
3726.00,0.0071
3725.00,0.0071
3724.00,0.0071
3723.00,0.0071
3722.00,0.0071
3721.00,0.0071
3720.00,0.0070
3719.00,0.0070
3718.00,0.0070
3717.00,0.0070
3716.00,0.0070
3715.00,0.0070
3714.00,0.0070
3713.00,0.0070
3712.00,0.0070
3711.00,0.0070
3710.00,0.0070
3709.00,0.0070
3708.00,0.0070
3707.00,0.0070
3706.00,0.0070
3705.00,0.0070
3704.00,0.0070
3703.00,0.0070
3702.00,0.0069
3701.00,0.0069
3700.00,0.0069
3699.00,0.0070
3698.00,0.0070
3697.00,0.0069
3696.00,0.0069
3695.00,0.0069
3694.00,0.0069
3693.00,0.0069
3692.00,0.0069
3691.00,0.0069
3690.00,0.0070
3689.00,0.0070
3688.00,0.0070
3687.00,0.0070
3686.00,0.0070
3685.00,0.0070
3684.00,0.0070
3683.00,0.0069
3682.00,0.0069
3681.00,0.0069
3680.00,0.0069
3679.00,0.0069
3678.00,0.0069
3677.00,0.0070
3676.00,0.0070
3675.00,0.0070
3674.00,0.0070
3673.00,0.0070
3672.00,0.0070
3671.00,0.0070
3670.00,0.0070
3669.00,0.0070
3668.00,0.0070
3667.00,0.0070
3666.00,0.0070
3665.00,0.0070
3664.00,0.0069
3663.00,0.0069
3662.00,0.0069
3661.00,0.0069
3660.00,0.0069
3659.00,0.0069
3658.00,0.0070
3657.00,0.0070
3656.00,0.0070
3655.00,0.0070
3654.00,0.0070
3653.00,0.0070
3652.00,0.0071
3651.00,0.0071
3650.00,0.0071
3649.00,0.0071
3648.00,0.0071
3647.00,0.0071
3646.00,0.0071
3645.00,0.0071
3644.00,0.0071
3643.00,0.0070
3642.00,0.0070
3641.00,0.0070
3640.00,0.0070
3639.00,0.0070
3638.00,0.0070
3637.00,0.0071
3636.00,0.0071
3635.00,0.0071
3634.00,0.0071
3633.00,0.0072
3632.00,0.0072
3631.00,0.0072
3630.00,0.0073
3629.00,0.0073
3628.00,0.0073
3627.00,0.0073
3626.00,0.0073
3625.00,0.0073
3624.00,0.0073
3623.00,0.0073
3622.00,0.0073
3621.00,0.0073
3620.00,0.0073
3619.00,0.0073
3618.00,0.0074
3617.00,0.0074
3616.00,0.0074
3615.00,0.0074
3614.00,0.0074
3613.00,0.0075
3612.00,0.0075
3611.00,0.0075
3610.00,0.0075
3609.00,0.0075
3608.00,0.0075
3607.00,0.0075
3606.00,0.0075
3605.00,0.0075
3604.00,0.0075
3603.00,0.0075
3602.00,0.0075
3601.00,0.0075
3600.00,0.0076
3599.00,0.0076
3598.00,0.0076
3597.00,0.0076
3596.00,0.0076
3595.00,0.0076
3594.00,0.0076
3593.00,0.0077
3592.00,0.0077
3591.00,0.0077
3590.00,0.0077
3589.00,0.0078
3588.00,0.0078
3587.00,0.0078
3586.00,0.0078
3585.00,0.0078
3584.00,0.0078
3583.00,0.0078
3582.00,0.0078
3581.00,0.0078
3580.00,0.0078
3579.00,0.0078
3578.00,0.0078
3577.00,0.0078
3576.00,0.0078
3575.00,0.0078
3574.00,0.0078
3573.00,0.0078
3572.00,0.0079
3571.00,0.0079
3570.00,0.0080
3569.00,0.0080
3568.00,0.0080
3567.00,0.0081
3566.00,0.0080
3565.00,0.0080
3564.00,0.0081
3563.00,0.0081
3562.00,0.0081
3561.00,0.0081
3560.00,0.0081
3559.00,0.0081
3558.00,0.0081
3557.00,0.0081
3556.00,0.0081
3555.00,0.0081
3554.00,0.0081
3553.00,0.0082
3552.00,0.0082
3551.00,0.0082
3550.00,0.0082
3549.00,0.0083
3548.00,0.0083
3547.00,0.0083
3546.00,0.0083
3545.00,0.0083
3544.00,0.0083
3543.00,0.0083
3542.00,0.0083
3541.00,0.0083
3540.00,0.0083
3539.00,0.0083
3538.00,0.0084
3537.00,0.0084
3536.00,0.0084
3535.00,0.0084
3534.00,0.0084
3533.00,0.0084
3532.00,0.0085
3531.00,0.0085
3530.00,0.0085
3529.00,0.0085
3528.00,0.0086
3527.00,0.0086
3526.00,0.0086
3525.00,0.0086
3524.00,0.0087
3523.00,0.0086
3522.00,0.0086
3521.00,0.0086
3520.00,0.0087
3519.00,0.0087
3518.00,0.0087
3517.00,0.0087
3516.00,0.0087
3515.00,0.0087
3514.00,0.0087
3513.00,0.0087
3512.00,0.0087
3511.00,0.0088
3510.00,0.0088
3509.00,0.0088
3508.00,0.0088
3507.00,0.0088
3506.00,0.0089
3505.00,0.0089
3504.00,0.0089
3503.00,0.0089
3502.00,0.0089
3501.00,0.0090
3500.00,0.0090
3499.00,0.0090
3498.00,0.0090
3497.00,0.0090
3496.00,0.0090
3495.00,0.0090
3494.00,0.0090
3493.00,0.0091
3492.00,0.0091
3491.00,0.0091
3490.00,0.0091
3489.00,0.0091
3488.00,0.0091
3487.00,0.0092
3486.00,0.0092
3485.00,0.0092
3484.00,0.0092
3483.00,0.0093
3482.00,0.0093
3481.00,0.0093
3480.00,0.0093
3479.00,0.0093
3478.00,0.0094
3477.00,0.0094
3476.00,0.0094
3475.00,0.0094
3474.00,0.0094
3473.00,0.0095
3472.00,0.0095
3471.00,0.0095
3470.00,0.0095
3469.00,0.0095
3468.00,0.0096
3467.00,0.0096
3466.00,0.0096
3465.00,0.0096
3464.00,0.0097
3463.00,0.0097
3462.00,0.0097
3461.00,0.0097
3460.00,0.0098
3459.00,0.0098
3458.00,0.0098
3457.00,0.0098
3456.00,0.0099
3455.00,0.0099
3454.00,0.0099
3453.00,0.0099
3452.00,0.0100
3451.00,0.0100
3450.00,0.0100
3449.00,0.0100
3448.00,0.0100
3447.00,0.0101
3446.00,0.0101
3445.00,0.0101
3444.00,0.0101
3443.00,0.0101
3442.00,0.0102
3441.00,0.0102
3440.00,0.0102
3439.00,0.0102
3438.00,0.0103
3437.00,0.0103
3436.00,0.0104
3435.00,0.0104
3434.00,0.0104
3433.00,0.0104
3432.00,0.0105
3431.00,0.0105
3430.00,0.0105
3429.00,0.0105
3428.00,0.0106
3427.00,0.0106
3426.00,0.0106
3425.00,0.0106
3424.00,0.0107
3423.00,0.0107
3422.00,0.0107
3421.00,0.0107
3420.00,0.0108
3419.00,0.0108
3418.00,0.0108
3417.00,0.0108
3416.00,0.0109
3415.00,0.0109
3414.00,0.0109
3413.00,0.0110
3412.00,0.0110
3411.00,0.0110
3410.00,0.0110
3409.00,0.0110
3408.00,0.0111
3407.00,0.0111
3406.00,0.0111
3405.00,0.0111
3404.00,0.0111
3403.00,0.0112
3402.00,0.0112
3401.00,0.0113
3400.00,0.0113
3399.00,0.0113
3398.00,0.0113
3397.00,0.0114
3396.00,0.0114
3395.00,0.0114
3394.00,0.0114
3393.00,0.0114
3392.00,0.0115
3391.00,0.0115
3390.00,0.0115
3389.00,0.0115
3388.00,0.0116
3387.00,0.0116
3386.00,0.0116
3385.00,0.0117
3384.00,0.0117
3383.00,0.0117
3382.00,0.0118
3381.00,0.0118
3380.00,0.0118
3379.00,0.0119
3378.00,0.0119
3377.00,0.0119
3376.00,0.0120
3375.00,0.0120
3374.00,0.0120
3373.00,0.0121
3372.00,0.0121
3371.00,0.0121
3370.00,0.0122
3369.00,0.0122
3368.00,0.0123
3367.00,0.0123
3366.00,0.0124
3365.00,0.0124
3364.00,0.0125
3363.00,0.0125
3362.00,0.0126
3361.00,0.0126
3360.00,0.0127
3359.00,0.0128
3358.00,0.0128
3357.00,0.0129
3356.00,0.0129
3355.00,0.0130
3354.00,0.0130
3353.00,0.0131
3352.00,0.0131
3351.00,0.0132
3350.00,0.0133
3349.00,0.0133
3348.00,0.0134
3347.00,0.0135
3346.00,0.0135
3345.00,0.0136
3344.00,0.0137
3343.00,0.0137
3342.00,0.0138
3341.00,0.0139
3340.00,0.0139
3339.00,0.0140
3338.00,0.0141
3337.00,0.0142
3336.00,0.0142
3335.00,0.0143
3334.00,0.0144
3333.00,0.0145
3332.00,0.0146
3331.00,0.0147
3330.00,0.0148
3329.00,0.0148
3328.00,0.0149
3327.00,0.0150
3326.00,0.0151
3325.00,0.0152
3324.00,0.0153
3323.00,0.0154
3322.00,0.0155
3321.00,0.0156
3320.00,0.0157
3319.00,0.0158
3318.00,0.0159
3317.00,0.0160
3316.00,0.0162
3315.00,0.0163
3314.00,0.0164
3313.00,0.0165
3312.00,0.0166
3311.00,0.0167
3310.00,0.0168
3309.00,0.0169
3308.00,0.0170
3307.00,0.0171
3306.00,0.0172
3305.00,0.0174
3304.00,0.0176
3303.00,0.0177
3302.00,0.0179
3301.00,0.0180
3300.00,0.0182
3299.00,0.0183
3298.00,0.0184
3297.00,0.0186
3296.00,0.0187
3295.00,0.0189
3294.00,0.0190
3293.00,0.0191
3292.00,0.0193
3291.00,0.0195
3290.00,0.0196
3289.00,0.0198
3288.00,0.0200
3287.00,0.0202
3286.00,0.0203
3285.00,0.0205
3284.00,0.0206
3283.00,0.0207
3282.00,0.0209
3281.00,0.0210
3280.00,0.0211
3279.00,0.0212
3278.00,0.0213
3277.00,0.0214
3276.00,0.0215
3275.00,0.0215
3274.00,0.0216
3273.00,0.0216
3272.00,0.0216
3271.00,0.0217
3270.00,0.0217
3269.00,0.0217
3268.00,0.0217
3267.00,0.0217
3266.00,0.0217
3265.00,0.0216
3264.00,0.0215
3263.00,0.0214
3262.00,0.0213
3261.00,0.0212
3260.00,0.0211
3259.00,0.0210
3258.00,0.0209
3257.00,0.0208
3256.00,0.0207
3255.00,0.0205
3254.00,0.0204
3253.00,0.0203
3252.00,0.0202
3251.00,0.0201
3250.00,0.0200
3249.00,0.0199
3248.00,0.0198
3247.00,0.0197
3246.00,0.0196
3245.00,0.0195
3244.00,0.0195
3243.00,0.0194
3242.00,0.0193
3241.00,0.0192
3240.00,0.0192
3239.00,0.0191
3238.00,0.0190
3237.00,0.0189
3236.00,0.0188
3235.00,0.0187
3234.00,0.0186
3233.00,0.0186
3232.00,0.0186
3231.00,0.0185
3230.00,0.0185
3229.00,0.0185
3228.00,0.0184
3227.00,0.0184
3226.00,0.0183
3225.00,0.0183
3224.00,0.0182
3223.00,0.0182
3222.00,0.0181
3221.00,0.0181
3220.00,0.0180
3219.00,0.0180
3218.00,0.0179
3217.00,0.0179
3216.00,0.0179
3215.00,0.0179
3214.00,0.0178
3213.00,0.0178
3212.00,0.0178
3211.00,0.0177
3210.00,0.0177
3209.00,0.0177
3208.00,0.0176
3207.00,0.0176
3206.00,0.0176
3205.00,0.0176
3204.00,0.0175
3203.00,0.0175
3202.00,0.0175
3201.00,0.0175
3200.00,0.0174
3199.00,0.0174
3198.00,0.0174
3197.00,0.0173
3196.00,0.0173
3195.00,0.0173
3194.00,0.0172
3193.00,0.0172
3192.00,0.0172
3191.00,0.0171
3190.00,0.0171
3189.00,0.0171
3188.00,0.0170
3187.00,0.0170
3186.00,0.0169
3185.00,0.0169
3184.00,0.0169
3183.00,0.0168
3182.00,0.0168
3181.00,0.0168
3180.00,0.0167
3179.00,0.0167
3178.00,0.0166
3177.00,0.0166
3176.00,0.0166
3175.00,0.0165
3174.00,0.0165
3173.00,0.0165
3172.00,0.0164
3171.00,0.0164
3170.00,0.0164
3169.00,0.0163
3168.00,0.0163
3167.00,0.0162
3166.00,0.0162
3165.00,0.0161
3164.00,0.0161
3163.00,0.0161
3162.00,0.0160
3161.00,0.0160
3160.00,0.0160
3159.00,0.0159
3158.00,0.0159
3157.00,0.0159
3156.00,0.0158
3155.00,0.0158
3154.00,0.0157
3153.00,0.0157
3152.00,0.0157
3151.00,0.0156
3150.00,0.0156
3149.00,0.0156
3148.00,0.0156
3147.00,0.0155
3146.00,0.0155
3145.00,0.0155
3144.00,0.0154
3143.00,0.0154
3142.00,0.0154
3141.00,0.0153
3140.00,0.0153
3139.00,0.0153
3138.00,0.0153
3137.00,0.0152
3136.00,0.0152
3135.00,0.0152
3134.00,0.0152
3133.00,0.0152
3132.00,0.0151
3131.00,0.0151
3130.00,0.0151
3129.00,0.0151
3128.00,0.0151
3127.00,0.0151
3126.00,0.0151
3125.00,0.0150
3124.00,0.0150
3123.00,0.0150
3122.00,0.0150
3121.00,0.0149
3120.00,0.0149
3119.00,0.0149
3118.00,0.0149
3117.00,0.0149
3116.00,0.0150
3115.00,0.0150
3114.00,0.0150
3113.00,0.0150
3112.00,0.0150
3111.00,0.0150
3110.00,0.0150
3109.00,0.0150
3108.00,0.0150
3107.00,0.0150
3106.00,0.0151
3105.00,0.0151
3104.00,0.0151
3103.00,0.0151
3102.00,0.0151
3101.00,0.0151
3100.00,0.0151
3099.00,0.0152
3098.00,0.0152
3097.00,0.0152
3096.00,0.0152
3095.00,0.0153
3094.00,0.0153
3093.00,0.0153
3092.00,0.0153
3091.00,0.0153
3090.00,0.0154
3089.00,0.0154
3088.00,0.0154
3087.00,0.0154
3086.00,0.0155
3085.00,0.0155
3084.00,0.0155
3083.00,0.0155
3082.00,0.0155
3081.00,0.0155
3080.00,0.0156
3079.00,0.0156
3078.00,0.0156
3077.00,0.0157
3076.00,0.0157
3075.00,0.0158
3074.00,0.0158
3073.00,0.0158
3072.00,0.0158
3071.00,0.0158
3070.00,0.0158
3069.00,0.0158
3068.00,0.0158
3067.00,0.0158
3066.00,0.0158
3065.00,0.0159
3064.00,0.0159
3063.00,0.0159
3062.00,0.0159
3061.00,0.0158
3060.00,0.0158
3059.00,0.0158
3058.00,0.0158
3057.00,0.0157
3056.00,0.0157
3055.00,0.0157
3054.00,0.0157
3053.00,0.0156
3052.00,0.0156
3051.00,0.0156
3050.00,0.0155
3049.00,0.0155
3048.00,0.0155
3047.00,0.0155
3046.00,0.0154
3045.00,0.0154
3044.00,0.0153
3043.00,0.0153
3042.00,0.0152
3041.00,0.0152
3040.00,0.0152
3039.00,0.0152
3038.00,0.0152
3037.00,0.0151
3036.00,0.0151
3035.00,0.0150
3034.00,0.0150
3033.00,0.0150
3032.00,0.0149
3031.00,0.0149
3030.00,0.0149
3029.00,0.0149
3028.00,0.0148
3027.00,0.0148
3026.00,0.0147
3025.00,0.0147
3024.00,0.0147
3023.00,0.0146
3022.00,0.0146
3021.00,0.0146
3020.00,0.0145
3019.00,0.0145
3018.00,0.0144
3017.00,0.0144
3016.00,0.0144
3015.00,0.0143
3014.00,0.0143
3013.00,0.0142
3012.00,0.0142
3011.00,0.0142
3010.00,0.0142
3009.00,0.0143
3008.00,0.0143
3007.00,0.0143
3006.00,0.0142
3005.00,0.0142
3004.00,0.0142
3003.00,0.0142
3002.00,0.0142
3001.00,0.0141
3000.00,0.0141
2999.00,0.0141
2998.00,0.0141
2997.00,0.0141
2996.00,0.0141
2995.00,0.0141
2994.00,0.0141
2993.00,0.0142
2992.00,0.0142
2991.00,0.0142
2990.00,0.0143
2989.00,0.0143
2988.00,0.0143
2987.00,0.0144
2986.00,0.0144
2985.00,0.0145
2984.00,0.0145
2983.00,0.0145
2982.00,0.0145
2981.00,0.0146
2980.00,0.0146
2979.00,0.0146
2978.00,0.0147
2977.00,0.0147
2976.00,0.0147
2975.00,0.0148
2974.00,0.0148
2973.00,0.0149
2972.00,0.0150
2971.00,0.0150
2970.00,0.0151
2969.00,0.0152
2968.00,0.0152
2967.00,0.0153
2966.00,0.0153
2965.00,0.0153
2964.00,0.0153
2963.00,0.0154
2962.00,0.0154
2961.00,0.0154
2960.00,0.0155
2959.00,0.0155
2958.00,0.0156
2957.00,0.0156
2956.00,0.0156
2955.00,0.0156
2954.00,0.0156
2953.00,0.0156
2952.00,0.0156
2951.00,0.0156
2950.00,0.0156
2949.00,0.0156
2948.00,0.0156
2947.00,0.0156
2946.00,0.0156
2945.00,0.0157
2944.00,0.0158
2943.00,0.0159
2942.00,0.0160
2941.00,0.0161
2940.00,0.0163
2939.00,0.0165
2938.00,0.0167
2937.00,0.0169
2936.00,0.0171
2935.00,0.0174
2934.00,0.0176
2933.00,0.0179
2932.00,0.0181
2931.00,0.0184
2930.00,0.0187
2929.00,0.0189
2928.00,0.0192
2927.00,0.0195
2926.00,0.0197
2925.00,0.0199
2924.00,0.0200
2923.00,0.0202
2922.00,0.0203
2921.00,0.0203
2920.00,0.0203
2919.00,0.0203
2918.00,0.0202
2917.00,0.0200
2916.00,0.0198
2915.00,0.0195
2914.00,0.0192
2913.00,0.0188
2912.00,0.0185
2911.00,0.0182
2910.00,0.0179
2909.00,0.0176
2908.00,0.0174
2907.00,0.0172
2906.00,0.0170
2905.00,0.0169
2904.00,0.0168
2903.00,0.0167
2902.00,0.0165
2901.00,0.0164
2900.00,0.0163
2899.00,0.0162
2898.00,0.0161
2897.00,0.0160
2896.00,0.0160
2895.00,0.0159
2894.00,0.0158
2893.00,0.0157
2892.00,0.0156
2891.00,0.0155
2890.00,0.0154
2889.00,0.0154
2888.00,0.0153
2887.00,0.0152
2886.00,0.0151
2885.00,0.0151
2884.00,0.0150
2883.00,0.0150
2882.00,0.0149
2881.00,0.0149
2880.00,0.0149
2879.00,0.0149
2878.00,0.0149
2877.00,0.0149
2876.00,0.0149
2875.00,0.0149
2874.00,0.0149
2873.00,0.0149
2872.00,0.0150
2871.00,0.0150
2870.00,0.0150
2869.00,0.0150
2868.00,0.0149
2867.00,0.0149
2866.00,0.0149
2865.00,0.0150
2864.00,0.0150
2863.00,0.0151
2862.00,0.0152
2861.00,0.0153
2860.00,0.0154
2859.00,0.0156
2858.00,0.0158
2857.00,0.0160
2856.00,0.0162
2855.00,0.0164
2854.00,0.0166
2853.00,0.0168
2852.00,0.0169
2851.00,0.0170
2850.00,0.0170
2849.00,0.0168
2848.00,0.0166
2847.00,0.0163
2846.00,0.0160
2845.00,0.0156
2844.00,0.0153
2843.00,0.0150
2842.00,0.0148
2841.00,0.0145
2840.00,0.0144
2839.00,0.0142
2838.00,0.0141
2837.00,0.0140
2836.00,0.0139
2835.00,0.0138
2834.00,0.0137
2833.00,0.0137
2832.00,0.0136
2831.00,0.0136
2830.00,0.0135
2829.00,0.0135
2828.00,0.0134
2827.00,0.0134
2826.00,0.0134
2825.00,0.0133
2824.00,0.0133
2823.00,0.0133
2822.00,0.0132
2821.00,0.0132
2820.00,0.0132
2819.00,0.0132
2818.00,0.0131
2817.00,0.0131
2816.00,0.0131
2815.00,0.0131
2814.00,0.0130
2813.00,0.0130
2812.00,0.0130
2811.00,0.0129
2810.00,0.0129
2809.00,0.0129
2808.00,0.0129
2807.00,0.0129
2806.00,0.0128
2805.00,0.0128
2804.00,0.0128
2803.00,0.0128
2802.00,0.0128
2801.00,0.0128
2800.00,0.0128
2799.00,0.0127
2798.00,0.0127
2797.00,0.0127
2796.00,0.0127
2795.00,0.0127
2794.00,0.0127
2793.00,0.0126
2792.00,0.0126
2791.00,0.0126
2790.00,0.0126
2789.00,0.0126
2788.00,0.0126
2787.00,0.0125
2786.00,0.0125
2785.00,0.0125
2784.00,0.0125
2783.00,0.0125
2782.00,0.0124
2781.00,0.0124
2780.00,0.0124
2779.00,0.0124
2778.00,0.0124
2777.00,0.0124
2776.00,0.0123
2775.00,0.0123
2774.00,0.0123
2773.00,0.0123
2772.00,0.0123
2771.00,0.0123
2770.00,0.0123
2769.00,0.0123
2768.00,0.0122
2767.00,0.0122
2766.00,0.0122
2765.00,0.0122
2764.00,0.0122
2763.00,0.0122
2762.00,0.0122
2761.00,0.0122
2760.00,0.0121
2759.00,0.0121
2758.00,0.0121
2757.00,0.0121
2756.00,0.0121
2755.00,0.0121
2754.00,0.0121
2753.00,0.0121
2752.00,0.0120
2751.00,0.0120
2750.00,0.0120
2749.00,0.0120
2748.00,0.0120
2747.00,0.0120
2746.00,0.0120
2745.00,0.0119
2744.00,0.0119
2743.00,0.0119
2742.00,0.0119
2741.00,0.0119
2740.00,0.0119
2739.00,0.0119
2738.00,0.0118
2737.00,0.0118
2736.00,0.0118
2735.00,0.0118
2734.00,0.0118
2733.00,0.0118
2732.00,0.0118
2731.00,0.0118
2730.00,0.0117
2729.00,0.0117
2728.00,0.0117
2727.00,0.0117
2726.00,0.0117
2725.00,0.0117
2724.00,0.0117
2723.00,0.0116
2722.00,0.0116
2721.00,0.0116
2720.00,0.0116
2719.00,0.0116
2718.00,0.0116
2717.00,0.0115
2716.00,0.0115
2715.00,0.0115
2714.00,0.0115
2713.00,0.0115
2712.00,0.0115
2711.00,0.0114
2710.00,0.0114
2709.00,0.0114
2708.00,0.0114
2707.00,0.0114
2706.00,0.0114
2705.00,0.0114
2704.00,0.0113
2703.00,0.0113
2702.00,0.0113
2701.00,0.0113
2700.00,0.0113
2699.00,0.0113
2698.00,0.0113
2697.00,0.0113
2696.00,0.0113
2695.00,0.0112
2694.00,0.0112
2693.00,0.0112
2692.00,0.0112
2691.00,0.0112
2690.00,0.0112
2689.00,0.0112
2688.00,0.0112
2687.00,0.0112
2686.00,0.0112
2685.00,0.0112
2684.00,0.0111
2683.00,0.0111
2682.00,0.0111
2681.00,0.0111
2680.00,0.0111
2679.00,0.0111
2678.00,0.0111
2677.00,0.0111
2676.00,0.0111
2675.00,0.0111
2674.00,0.0111
2673.00,0.0110
2672.00,0.0110
2671.00,0.0110
2670.00,0.0110
2669.00,0.0110
2668.00,0.0110
2667.00,0.0110
2666.00,0.0110
2665.00,0.0110
2664.00,0.0110
2663.00,0.0109
2662.00,0.0109
2661.00,0.0109
2660.00,0.0109
2659.00,0.0109
2658.00,0.0109
2657.00,0.0108
2656.00,0.0108
2655.00,0.0108
2654.00,0.0108
2653.00,0.0108
2652.00,0.0108
2651.00,0.0108
2650.00,0.0108
2649.00,0.0108
2648.00,0.0108
2647.00,0.0108
2646.00,0.0108
2645.00,0.0108
2644.00,0.0108
2643.00,0.0107
2642.00,0.0107
2641.00,0.0107
2640.00,0.0107
2639.00,0.0107
2638.00,0.0107
2637.00,0.0107
2636.00,0.0107
2635.00,0.0107
2634.00,0.0107
2633.00,0.0107
2632.00,0.0107
2631.00,0.0107
2630.00,0.0107
2629.00,0.0107
2628.00,0.0107
2627.00,0.0107
2626.00,0.0107
2625.00,0.0107
2624.00,0.0106
2623.00,0.0106
2622.00,0.0106
2621.00,0.0106
2620.00,0.0107
2619.00,0.0107
2618.00,0.0107
2617.00,0.0106
2616.00,0.0106
2615.00,0.0106
2614.00,0.0106
2613.00,0.0106
2612.00,0.0106
2611.00,0.0106
2610.00,0.0106
2609.00,0.0106
2608.00,0.0106
2607.00,0.0106
2606.00,0.0106
2605.00,0.0106
2604.00,0.0106
2603.00,0.0106
2602.00,0.0106
2601.00,0.0105
2600.00,0.0105
2599.00,0.0105
2598.00,0.0105
2597.00,0.0105
2596.00,0.0105
2595.00,0.0105
2594.00,0.0105
2593.00,0.0104
2592.00,0.0104
2591.00,0.0104
2590.00,0.0104
2589.00,0.0104
2588.00,0.0104
2587.00,0.0104
2586.00,0.0104
2585.00,0.0104
2584.00,0.0104
2583.00,0.0104
2582.00,0.0104
2581.00,0.0104
2580.00,0.0104
2579.00,0.0104
2578.00,0.0104
2577.00,0.0104
2576.00,0.0104
2575.00,0.0104
2574.00,0.0103
2573.00,0.0103
2572.00,0.0103
2571.00,0.0103
2570.00,0.0103
2569.00,0.0103
2568.00,0.0103
2567.00,0.0103
2566.00,0.0103
2565.00,0.0103
2564.00,0.0103
2563.00,0.0103
2562.00,0.0103
2561.00,0.0103
2560.00,0.0102
2559.00,0.0102
2558.00,0.0102
2557.00,0.0102
2556.00,0.0102
2555.00,0.0102
2554.00,0.0102
2553.00,0.0102
2552.00,0.0102
2551.00,0.0102
2550.00,0.0102
2549.00,0.0101
2548.00,0.0101
2547.00,0.0101
2546.00,0.0101
2545.00,0.0101
2544.00,0.0101
2543.00,0.0101
2542.00,0.0101
2541.00,0.0101
2540.00,0.0101
2539.00,0.0101
2538.00,0.0101
2537.00,0.0101
2536.00,0.0101
2535.00,0.0101
2534.00,0.0101
2533.00,0.0101
2532.00,0.0101
2531.00,0.0101
2530.00,0.0101
2529.00,0.0101
2528.00,0.0101
2527.00,0.0101
2526.00,0.0101
2525.00,0.0101
2524.00,0.0101
2523.00,0.0100
2522.00,0.0100
2521.00,0.0100
2520.00,0.0100
2519.00,0.0100
2518.00,0.0100
2517.00,0.0100
2516.00,0.0100
2515.00,0.0100
2514.00,0.0100
2513.00,0.0099
2512.00,0.0099
2511.00,0.0099
2510.00,0.0099
2509.00,0.0099
2508.00,0.0099
2507.00,0.0099
2506.00,0.0099
2505.00,0.0099
2504.00,0.0099
2503.00,0.0099
2502.00,0.0099
2501.00,0.0099
2500.00,0.0099
2499.00,0.0099
2498.00,0.0099
2497.00,0.0099
2496.00,0.0099
2495.00,0.0099
2494.00,0.0099
2493.00,0.0099
2492.00,0.0099
2491.00,0.0098
2490.00,0.0098
2489.00,0.0098
2488.00,0.0098
2487.00,0.0098
2486.00,0.0098
2485.00,0.0098
2484.00,0.0098
2483.00,0.0098
2482.00,0.0098
2481.00,0.0098
2480.00,0.0098
2479.00,0.0098
2478.00,0.0097
2477.00,0.0097
2476.00,0.0097
2475.00,0.0097
2474.00,0.0097
2473.00,0.0097
2472.00,0.0097
2471.00,0.0097
2470.00,0.0097
2469.00,0.0097
2468.00,0.0097
2467.00,0.0097
2466.00,0.0097
2465.00,0.0097
2464.00,0.0097
2463.00,0.0096
2462.00,0.0096
2461.00,0.0096
2460.00,0.0096
2459.00,0.0096
2458.00,0.0096
2457.00,0.0096
2456.00,0.0096
2455.00,0.0096
2454.00,0.0096
2453.00,0.0095
2452.00,0.0095
2451.00,0.0095
2450.00,0.0095
2449.00,0.0095
2448.00,0.0095
2447.00,0.0095
2446.00,0.0095
2445.00,0.0095
2444.00,0.0095
2443.00,0.0095
2442.00,0.0095
2441.00,0.0094
2440.00,0.0095
2439.00,0.0095
2438.00,0.0095
2437.00,0.0095
2436.00,0.0095
2435.00,0.0095
2434.00,0.0095
2433.00,0.0095
2432.00,0.0094
2431.00,0.0094
2430.00,0.0094
2429.00,0.0094
2428.00,0.0094
2427.00,0.0094
2426.00,0.0094
2425.00,0.0094
2424.00,0.0094
2423.00,0.0094
2422.00,0.0093
2421.00,0.0093
2420.00,0.0093
2419.00,0.0093
2418.00,0.0093
2417.00,0.0093
2416.00,0.0093
2415.00,0.0093
2414.00,0.0093
2413.00,0.0093
2412.00,0.0093
2411.00,0.0093
2410.00,0.0093
2409.00,0.0093
2408.00,0.0093
2407.00,0.0093
2406.00,0.0093
2405.00,0.0093
2404.00,0.0093
2403.00,0.0093
2402.00,0.0092
2401.00,0.0092
2400.00,0.0092
2399.00,0.0092
2398.00,0.0092
2397.00,0.0092
2396.00,0.0092
2395.00,0.0092
2394.00,0.0092
2393.00,0.0092
2392.00,0.0092
2391.00,0.0092
2390.00,0.0092
2389.00,0.0092
2388.00,0.0092
2387.00,0.0092
2386.00,0.0092
2385.00,0.0092
2384.00,0.0092
2383.00,0.0092
2382.00,0.0092
2381.00,0.0092
2380.00,0.0092
2379.00,0.0092
2378.00,0.0092
2377.00,0.0092
2376.00,0.0092
2375.00,0.0092
2374.00,0.0091
2373.00,0.0091
2372.00,0.0091
2371.00,0.0091
2370.00,0.0091
2369.00,0.0091
2368.00,0.0091
2367.00,0.0091
2366.00,0.0091
2365.00,0.0091
2364.00,0.0091
2363.00,0.0091
2362.00,0.0091
2361.00,0.0091
2360.00,0.0090
2359.00,0.0090
2358.00,0.0090
2357.00,0.0090
2356.00,0.0090
2355.00,0.0090
2354.00,0.0090
2353.00,0.0090
2352.00,0.0090
2351.00,0.0090
2350.00,0.0090
2349.00,0.0089
2348.00,0.0089
2347.00,0.0088
2346.00,0.0088
2345.00,0.0088
2344.00,0.0088
2343.00,0.0088
2342.00,0.0088
2341.00,0.0088
2340.00,0.0088
2339.00,0.0088
2338.00,0.0088
2337.00,0.0088
2336.00,0.0088
2335.00,0.0088
2334.00,0.0088
2333.00,0.0088
2332.00,0.0088
2331.00,0.0087
2330.00,0.0087
2329.00,0.0086
2328.00,0.0086
2327.00,0.0085
2326.00,0.0084
2325.00,0.0083
2324.00,0.0084
2323.00,0.0084
2322.00,0.0085
2321.00,0.0085
2320.00,0.0085
2319.00,0.0085
2318.00,0.0085
2317.00,0.0085
2316.00,0.0085
2315.00,0.0085
2314.00,0.0085
2313.00,0.0086
2312.00,0.0086
2311.00,0.0086
2310.00,0.0086
2309.00,0.0085
2308.00,0.0085
2307.00,0.0085
2306.00,0.0085
2305.00,0.0085
2304.00,0.0085
2303.00,0.0084
2302.00,0.0084
2301.00,0.0084
2300.00,0.0084
2299.00,0.0084
2298.00,0.0083
2297.00,0.0083
2296.00,0.0083
2295.00,0.0083
2294.00,0.0083
2293.00,0.0083
2292.00,0.0083
2291.00,0.0082
2290.00,0.0082
2289.00,0.0082
2288.00,0.0082
2287.00,0.0082
2286.00,0.0082
2285.00,0.0082
2284.00,0.0082
2283.00,0.0082
2282.00,0.0082
2281.00,0.0082
2280.00,0.0082
2279.00,0.0082
2278.00,0.0082
2277.00,0.0082
2276.00,0.0082
2275.00,0.0082
2274.00,0.0082
2273.00,0.0082
2272.00,0.0082
2271.00,0.0082
2270.00,0.0082
2269.00,0.0082
2268.00,0.0082
2267.00,0.0082
2266.00,0.0082
2265.00,0.0082
2264.00,0.0082
2263.00,0.0082
2262.00,0.0081
2261.00,0.0081
2260.00,0.0081
2259.00,0.0081
2258.00,0.0081
2257.00,0.0081
2256.00,0.0081
2255.00,0.0081
2254.00,0.0081
2253.00,0.0081
2252.00,0.0081
2251.00,0.0081
2250.00,0.0081
2249.00,0.0081
2248.00,0.0081
2247.00,0.0081
2246.00,0.0081
2245.00,0.0081
2244.00,0.0080
2243.00,0.0080
2242.00,0.0080
2241.00,0.0080
2240.00,0.0080
2239.00,0.0080
2238.00,0.0080
2237.00,0.0079
2236.00,0.0079
2235.00,0.0079
2234.00,0.0079
2233.00,0.0079
2232.00,0.0080
2231.00,0.0080
2230.00,0.0080
2229.00,0.0080
2228.00,0.0080
2227.00,0.0080
2226.00,0.0080
2225.00,0.0080
2224.00,0.0080
2223.00,0.0079
2222.00,0.0079
2221.00,0.0079
2220.00,0.0079
2219.00,0.0079
2218.00,0.0079
2217.00,0.0079
2216.00,0.0079
2215.00,0.0079
2214.00,0.0079
2213.00,0.0079
2212.00,0.0079
2211.00,0.0079
2210.00,0.0079
2209.00,0.0079
2208.00,0.0079
2207.00,0.0079
2206.00,0.0079
2205.00,0.0079
2204.00,0.0079
2203.00,0.0079
2202.00,0.0079
2201.00,0.0079
2200.00,0.0079
2199.00,0.0079
2198.00,0.0079
2197.00,0.0079
2196.00,0.0079
2195.00,0.0079
2194.00,0.0079
2193.00,0.0078
2192.00,0.0078
2191.00,0.0078
2190.00,0.0078
2189.00,0.0078
2188.00,0.0077
2187.00,0.0077
2186.00,0.0077
2185.00,0.0077
2184.00,0.0078
2183.00,0.0079
2182.00,0.0079
2181.00,0.0078
2180.00,0.0078
2179.00,0.0077
2178.00,0.0077
2177.00,0.0077
2176.00,0.0077
2175.00,0.0078
2174.00,0.0078
2173.00,0.0078
2172.00,0.0077
2171.00,0.0076
2170.00,0.0075
2169.00,0.0075
2168.00,0.0074
2167.00,0.0075
2166.00,0.0075
2165.00,0.0074
2164.00,0.0073
2163.00,0.0071
2162.00,0.0071
2161.00,0.0073
2160.00,0.0077
2159.00,0.0081
2158.00,0.0082
2157.00,0.0082
2156.00,0.0082
2155.00,0.0081
2154.00,0.0081
2153.00,0.0080
2152.00,0.0080
2151.00,0.0079
2150.00,0.0079
2149.00,0.0079
2148.00,0.0080
2147.00,0.0080
2146.00,0.0080
2145.00,0.0080
2144.00,0.0081
2143.00,0.0081
2142.00,0.0081
2141.00,0.0080
2140.00,0.0080
2139.00,0.0080
2138.00,0.0080
2137.00,0.0081
2136.00,0.0082
2135.00,0.0083
2134.00,0.0083
2133.00,0.0083
2132.00,0.0082
2131.00,0.0081
2130.00,0.0081
2129.00,0.0081
2128.00,0.0080
2127.00,0.0080
2126.00,0.0079
2125.00,0.0079
2124.00,0.0079
2123.00,0.0078
2122.00,0.0078
2121.00,0.0078
2120.00,0.0078
2119.00,0.0077
2118.00,0.0077
2117.00,0.0076
2116.00,0.0076
2115.00,0.0076
2114.00,0.0076
2113.00,0.0076
2112.00,0.0077
2111.00,0.0077
2110.00,0.0077
2109.00,0.0077
2108.00,0.0077
2107.00,0.0077
2106.00,0.0077
2105.00,0.0077
2104.00,0.0077
2103.00,0.0077
2102.00,0.0076
2101.00,0.0076
2100.00,0.0076
2099.00,0.0076
2098.00,0.0077
2097.00,0.0077
2096.00,0.0078
2095.00,0.0078
2094.00,0.0077
2093.00,0.0077
2092.00,0.0077
2091.00,0.0076
2090.00,0.0076
2089.00,0.0076
2088.00,0.0076
2087.00,0.0076
2086.00,0.0076
2085.00,0.0076
2084.00,0.0076
2083.00,0.0076
2082.00,0.0075
2081.00,0.0075
2080.00,0.0075
2079.00,0.0075
2078.00,0.0074
2077.00,0.0074
2076.00,0.0075
2075.00,0.0075
2074.00,0.0075
2073.00,0.0075
2072.00,0.0075
2071.00,0.0075
2070.00,0.0074
2069.00,0.0074
2068.00,0.0074
2067.00,0.0074
2066.00,0.0073
2065.00,0.0073
2064.00,0.0074
2063.00,0.0075
2062.00,0.0075
2061.00,0.0075
2060.00,0.0074
2059.00,0.0074
2058.00,0.0073
2057.00,0.0072
2056.00,0.0072
2055.00,0.0071
2054.00,0.0070
2053.00,0.0069
2052.00,0.0068
2051.00,0.0068
2050.00,0.0069
2049.00,0.0070
2048.00,0.0071
2047.00,0.0071
2046.00,0.0071
2045.00,0.0071
2044.00,0.0071
2043.00,0.0071
2042.00,0.0070
2041.00,0.0070
2040.00,0.0070
2039.00,0.0070
2038.00,0.0070
2037.00,0.0070
2036.00,0.0070
2035.00,0.0070
2034.00,0.0070
2033.00,0.0069
2032.00,0.0070
2031.00,0.0070
2030.00,0.0069
2029.00,0.0069
2028.00,0.0069
2027.00,0.0069
2026.00,0.0069
2025.00,0.0069
2024.00,0.0069
2023.00,0.0069
2022.00,0.0069
2021.00,0.0070
2020.00,0.0070
2019.00,0.0070
2018.00,0.0070
2017.00,0.0069
2016.00,0.0069
2015.00,0.0069
2014.00,0.0069
2013.00,0.0069
2012.00,0.0070
2011.00,0.0070
2010.00,0.0071
2009.00,0.0073
2008.00,0.0074
2007.00,0.0074
2006.00,0.0074
2005.00,0.0073
2004.00,0.0072
2003.00,0.0072
2002.00,0.0071
2001.00,0.0070
2000.00,0.0070
1999.00,0.0070
1998.00,0.0070
1997.00,0.0070
1996.00,0.0070
1995.00,0.0070
1994.00,0.0071
1993.00,0.0070
1992.00,0.0070
1991.00,0.0069
1990.00,0.0069
1989.00,0.0069
1988.00,0.0070
1987.00,0.0070
1986.00,0.0070
1985.00,0.0069
1984.00,0.0068
1983.00,0.0067
1982.00,0.0066
1981.00,0.0066
1980.00,0.0066
1979.00,0.0067
1978.00,0.0069
1977.00,0.0070
1976.00,0.0071
1975.00,0.0070
1974.00,0.0070
1973.00,0.0069
1972.00,0.0068
1971.00,0.0068
1970.00,0.0068
1969.00,0.0068
1968.00,0.0068
1967.00,0.0069
1966.00,0.0070
1965.00,0.0070
1964.00,0.0070
1963.00,0.0071
1962.00,0.0071
1961.00,0.0071
1960.00,0.0071
1959.00,0.0070
1958.00,0.0070
1957.00,0.0069
1956.00,0.0069
1955.00,0.0069
1954.00,0.0069
1953.00,0.0069
1952.00,0.0069
1951.00,0.0069
1950.00,0.0069
1949.00,0.0068
1948.00,0.0068
1947.00,0.0068
1946.00,0.0068
1945.00,0.0068
1944.00,0.0068
1943.00,0.0068
1942.00,0.0068
1941.00,0.0068
1940.00,0.0069
1939.00,0.0069
1938.00,0.0069
1937.00,0.0069
1936.00,0.0068
1935.00,0.0068
1934.00,0.0067
1933.00,0.0067
1932.00,0.0067
1931.00,0.0068
1930.00,0.0068
1929.00,0.0068
1928.00,0.0068
1927.00,0.0067
1926.00,0.0067
1925.00,0.0067
1924.00,0.0066
1923.00,0.0066
1922.00,0.0066
1921.00,0.0066
1920.00,0.0066
1919.00,0.0066
1918.00,0.0066
1917.00,0.0067
1916.00,0.0066
1915.00,0.0066
1914.00,0.0066
1913.00,0.0065
1912.00,0.0065
1911.00,0.0065
1910.00,0.0065
1909.00,0.0064
1908.00,0.0064
1907.00,0.0065
1906.00,0.0065
1905.00,0.0065
1904.00,0.0065
1903.00,0.0066
1902.00,0.0066
1901.00,0.0065
1900.00,0.0065
1899.00,0.0065
1898.00,0.0064
1897.00,0.0064
1896.00,0.0064
1895.00,0.0064
1894.00,0.0064
1893.00,0.0064
1892.00,0.0063
1891.00,0.0063
1890.00,0.0063
1889.00,0.0063
1888.00,0.0063
1887.00,0.0063
1886.00,0.0063
1885.00,0.0063
1884.00,0.0063
1883.00,0.0063
1882.00,0.0062
1881.00,0.0062
1880.00,0.0062
1879.00,0.0062
1878.00,0.0062
1877.00,0.0062
1876.00,0.0062
1875.00,0.0062
1874.00,0.0062
1873.00,0.0061
1872.00,0.0061
1871.00,0.0060
1870.00,0.0060
1869.00,0.0060
1868.00,0.0060
1867.00,0.0060
1866.00,0.0060
1865.00,0.0060
1864.00,0.0060
1863.00,0.0060
1862.00,0.0060
1861.00,0.0060
1860.00,0.0060
1859.00,0.0060
1858.00,0.0060
1857.00,0.0060
1856.00,0.0060
1855.00,0.0059
1854.00,0.0059
1853.00,0.0059
1852.00,0.0058
1851.00,0.0058
1850.00,0.0058
1849.00,0.0058
1848.00,0.0058
1847.00,0.0058
1846.00,0.0058
1845.00,0.0058
1844.00,0.0059
1843.00,0.0059
1842.00,0.0058
1841.00,0.0058
1840.00,0.0057
1839.00,0.0057
1838.00,0.0057
1837.00,0.0057
1836.00,0.0057
1835.00,0.0056
1834.00,0.0056
1833.00,0.0056
1832.00,0.0055
1831.00,0.0055
1830.00,0.0055
1829.00,0.0055
1828.00,0.0055
1827.00,0.0055
1826.00,0.0054
1825.00,0.0054
1824.00,0.0054
1823.00,0.0054
1822.00,0.0054
1821.00,0.0054
1820.00,0.0054
1819.00,0.0054
1818.00,0.0054
1817.00,0.0054
1816.00,0.0054
1815.00,0.0053
1814.00,0.0053
1813.00,0.0053
1812.00,0.0052
1811.00,0.0052
1810.00,0.0052
1809.00,0.0052
1808.00,0.0052
1807.00,0.0052
1806.00,0.0052
1805.00,0.0051
1804.00,0.0051
1803.00,0.0051
1802.00,0.0050
1801.00,0.0050
1800.00,0.0050
1799.00,0.0050
1798.00,0.0050
1797.00,0.0050
1796.00,0.0050
1795.00,0.0050
1794.00,0.0049
1793.00,0.0049
1792.00,0.0049
1791.00,0.0049
1790.00,0.0049
1789.00,0.0049
1788.00,0.0049
1787.00,0.0048
1786.00,0.0048
1785.00,0.0048
1784.00,0.0048
1783.00,0.0048
1782.00,0.0048
1781.00,0.0047
1780.00,0.0048
1779.00,0.0048
1778.00,0.0047
1777.00,0.0047
1776.00,0.0047
1775.00,0.0047
1774.00,0.0047
1773.00,0.0047
1772.00,0.0047
1771.00,0.0047
1770.00,0.0046
1769.00,0.0046
1768.00,0.0047
1767.00,0.0047
1766.00,0.0046
1765.00,0.0046
1764.00,0.0046
1763.00,0.0046
1762.00,0.0046
1761.00,0.0046
1760.00,0.0047
1759.00,0.0047
1758.00,0.0047
1757.00,0.0047
1756.00,0.0048
1755.00,0.0049
1754.00,0.0050
1753.00,0.0051
1752.00,0.0052
1751.00,0.0052
1750.00,0.0053
1749.00,0.0054
1748.00,0.0055
1747.00,0.0056
1746.00,0.0057
1745.00,0.0058
1744.00,0.0059
1743.00,0.0060
1742.00,0.0061
1741.00,0.0063
1740.00,0.0064
1739.00,0.0064
1738.00,0.0064
1737.00,0.0065
1736.00,0.0065
1735.00,0.0066
1734.00,0.0066
1733.00,0.0066
1732.00,0.0065
1731.00,0.0064
1730.00,0.0063
1729.00,0.0063
1728.00,0.0063
1727.00,0.0064
1726.00,0.0064
1725.00,0.0064
1724.00,0.0064
1723.00,0.0064
1722.00,0.0065
1721.00,0.0065
1720.00,0.0066
1719.00,0.0067
1718.00,0.0069
1717.00,0.0070
1716.00,0.0070
1715.00,0.0070
1714.00,0.0070
1713.00,0.0071
1712.00,0.0073
1711.00,0.0074
1710.00,0.0076
1709.00,0.0079
1708.00,0.0082
1707.00,0.0085
1706.00,0.0089
1705.00,0.0094
1704.00,0.0100
1703.00,0.0105
1702.00,0.0112
1701.00,0.0120
1700.00,0.0128
1699.00,0.0135
1698.00,0.0141
1697.00,0.0145
1696.00,0.0150
1695.00,0.0153
1694.00,0.0155
1693.00,0.0156
1692.00,0.0159
1691.00,0.0162
1690.00,0.0166
1689.00,0.0170
1688.00,0.0175
1687.00,0.0180
1686.00,0.0185
1685.00,0.0191
1684.00,0.0197
1683.00,0.0202
1682.00,0.0206
1681.00,0.0211
1680.00,0.0216
1679.00,0.0222
1678.00,0.0227
1677.00,0.0233
1676.00,0.0240
1675.00,0.0247
1674.00,0.0253
1673.00,0.0259
1672.00,0.0265
1671.00,0.0271
1670.00,0.0278
1669.00,0.0286
1668.00,0.0293
1667.00,0.0299
1666.00,0.0305
1665.00,0.0311
1664.00,0.0318
1663.00,0.0325
1662.00,0.0332
1661.00,0.0339
1660.00,0.0345
1659.00,0.0352
1658.00,0.0358
1657.00,0.0363
1656.00,0.0370
1655.00,0.0376
1654.00,0.0383
1653.00,0.0390
1652.00,0.0396
1651.00,0.0398
1650.00,0.0398
1649.00,0.0399
1648.00,0.0402
1647.00,0.0405
1646.00,0.0408
1645.00,0.0410
1644.00,0.0413
1643.00,0.0415
1642.00,0.0417
1641.00,0.0420
1640.00,0.0423
1639.00,0.0426
1638.00,0.0431
1637.00,0.0435
1636.00,0.0441
1635.00,0.0447
1634.00,0.0453
1633.00,0.0458
1632.00,0.0464
1631.00,0.0470
1630.00,0.0475
1629.00,0.0480
1628.00,0.0485
1627.00,0.0489
1626.00,0.0492
1625.00,0.0493
1624.00,0.0491
1623.00,0.0488
1622.00,0.0482
1621.00,0.0476
1620.00,0.0470
1619.00,0.0464
1618.00,0.0456
1617.00,0.0445
1616.00,0.0433
1615.00,0.0423
1614.00,0.0414
1613.00,0.0406
1612.00,0.0397
1611.00,0.0388
1610.00,0.0379
1609.00,0.0369
1608.00,0.0358
1607.00,0.0348
1606.00,0.0339
1605.00,0.0329
1604.00,0.0320
1603.00,0.0311
1602.00,0.0303
1601.00,0.0295
1600.00,0.0288
1599.00,0.0282
1598.00,0.0276
1597.00,0.0270
1596.00,0.0265
1595.00,0.0259
1594.00,0.0254
1593.00,0.0249
1592.00,0.0245
1591.00,0.0240
1590.00,0.0236
1589.00,0.0232
1588.00,0.0228
1587.00,0.0225
1586.00,0.0222
1585.00,0.0220
1584.00,0.0218
1583.00,0.0217
1582.00,0.0216
1581.00,0.0215
1580.00,0.0215
1579.00,0.0216
1578.00,0.0218
1577.00,0.0220
1576.00,0.0222
1575.00,0.0222
1574.00,0.0222
1573.00,0.0223
1572.00,0.0224
1571.00,0.0226
1570.00,0.0229
1569.00,0.0233
1568.00,0.0237
1567.00,0.0240
1566.00,0.0244
1565.00,0.0249
1564.00,0.0254
1563.00,0.0259
1562.00,0.0265
1561.00,0.0270
1560.00,0.0276
1559.00,0.0284
1558.00,0.0293
1557.00,0.0298
1556.00,0.0303
1555.00,0.0308
1554.00,0.0314
1553.00,0.0320
1552.00,0.0325
1551.00,0.0331
1550.00,0.0337
1549.00,0.0343
1548.00,0.0349
1547.00,0.0354
1546.00,0.0359
1545.00,0.0364
1544.00,0.0369
1543.00,0.0375
1542.00,0.0381
1541.00,0.0388
1540.00,0.0395
1539.00,0.0400
1538.00,0.0404
1537.00,0.0405
1536.00,0.0407
1535.00,0.0410
1534.00,0.0413
1533.00,0.0417
1532.00,0.0421
1531.00,0.0425
1530.00,0.0428
1529.00,0.0431
1528.00,0.0434
1527.00,0.0437
1526.00,0.0439
1525.00,0.0442
1524.00,0.0445
1523.00,0.0448
1522.00,0.0451
1521.00,0.0454
1520.00,0.0456
1519.00,0.0457
1518.00,0.0460
1517.00,0.0463
1516.00,0.0465
1515.00,0.0466
1514.00,0.0466
1513.00,0.0464
1512.00,0.0460
1511.00,0.0455
1510.00,0.0451
1509.00,0.0446
1508.00,0.0440
1507.00,0.0432
1506.00,0.0423
1505.00,0.0415
1504.00,0.0407
1503.00,0.0399
1502.00,0.0391
1501.00,0.0383
1500.00,0.0375
1499.00,0.0367
1498.00,0.0359
1497.00,0.0351
1496.00,0.0343
1495.00,0.0335
1494.00,0.0327
1493.00,0.0320
1492.00,0.0312
1491.00,0.0305
1490.00,0.0297
1489.00,0.0291
1488.00,0.0285
1487.00,0.0280
1486.00,0.0275
1485.00,0.0270
1484.00,0.0265
1483.00,0.0261
1482.00,0.0257
1481.00,0.0254
1480.00,0.0250
1479.00,0.0248
1478.00,0.0245
1477.00,0.0243
1476.00,0.0242
1475.00,0.0241
1474.00,0.0241
1473.00,0.0241
1472.00,0.0241
1471.00,0.0240
1470.00,0.0240
1469.00,0.0240
1468.00,0.0239
1467.00,0.0239
1466.00,0.0239
1465.00,0.0239
1464.00,0.0240
1463.00,0.0241
1462.00,0.0242
1461.00,0.0243
1460.00,0.0245
1459.00,0.0247
1458.00,0.0252
1457.00,0.0257
1456.00,0.0262
1455.00,0.0265
1454.00,0.0266
1453.00,0.0268
1452.00,0.0270
1451.00,0.0271
1450.00,0.0273
1449.00,0.0276
1448.00,0.0278
1447.00,0.0280
1446.00,0.0282
1445.00,0.0282
1444.00,0.0282
1443.00,0.0281
1442.00,0.0280
1441.00,0.0277
1440.00,0.0275
1439.00,0.0273
1438.00,0.0270
1437.00,0.0267
1436.00,0.0264
1435.00,0.0262
1434.00,0.0260
1433.00,0.0258
1432.00,0.0256
1431.00,0.0254
1430.00,0.0252
1429.00,0.0252
1428.00,0.0252
1427.00,0.0252
1426.00,0.0252
1425.00,0.0253
1424.00,0.0254
1423.00,0.0256
1422.00,0.0257
1421.00,0.0259
1420.00,0.0261
1419.00,0.0263
1418.00,0.0266
1417.00,0.0268
1416.00,0.0270
1415.00,0.0272
1414.00,0.0274
1413.00,0.0276
1412.00,0.0278
1411.00,0.0279
1410.00,0.0281
1409.00,0.0283
1408.00,0.0284
1407.00,0.0285
1406.00,0.0286
1405.00,0.0287
1404.00,0.0288
1403.00,0.0289
1402.00,0.0289
1401.00,0.0288
1400.00,0.0288
1399.00,0.0287
1398.00,0.0287
1397.00,0.0287
1396.00,0.0286
1395.00,0.0286
1394.00,0.0286
1393.00,0.0286
1392.00,0.0286
1391.00,0.0286
1390.00,0.0286
1389.00,0.0286
1388.00,0.0285
1387.00,0.0285
1386.00,0.0285
1385.00,0.0286
1384.00,0.0285
1383.00,0.0285
1382.00,0.0285
1381.00,0.0285
1380.00,0.0285
1379.00,0.0284
1378.00,0.0284
1377.00,0.0284
1376.00,0.0283
1375.00,0.0284
1374.00,0.0284
1373.00,0.0285
1372.00,0.0286
1371.00,0.0287
1370.00,0.0287
1369.00,0.0286
1368.00,0.0285
1367.00,0.0283
1366.00,0.0282
1365.00,0.0280
1364.00,0.0278
1363.00,0.0277
1362.00,0.0276
1361.00,0.0275
1360.00,0.0274
1359.00,0.0274
1358.00,0.0273
1357.00,0.0272
1356.00,0.0272
1355.00,0.0271
1354.00,0.0271
1353.00,0.0271
1352.00,0.0271
1351.00,0.0272
1350.00,0.0272
1349.00,0.0273
1348.00,0.0273
1347.00,0.0274
1346.00,0.0275
1345.00,0.0276
1344.00,0.0276
1343.00,0.0277
1342.00,0.0278
1341.00,0.0279
1340.00,0.0279
1339.00,0.0280
1338.00,0.0281
1337.00,0.0281
1336.00,0.0282
1335.00,0.0282
1334.00,0.0282
1333.00,0.0282
1332.00,0.0281
1331.00,0.0281
1330.00,0.0280
1329.00,0.0279
1328.00,0.0279
1327.00,0.0278
1326.00,0.0278
1325.00,0.0277
1324.00,0.0276
1323.00,0.0276
1322.00,0.0275
1321.00,0.0275
1320.00,0.0274
1319.00,0.0274
1318.00,0.0274
1317.00,0.0273
1316.00,0.0273
1315.00,0.0273
1314.00,0.0273
1313.00,0.0272
1312.00,0.0272
1311.00,0.0271
1310.00,0.0271
1309.00,0.0270
1308.00,0.0270
1307.00,0.0269
1306.00,0.0268
1305.00,0.0267
1304.00,0.0266
1303.00,0.0265
1302.00,0.0264
1301.00,0.0263
1300.00,0.0262
1299.00,0.0261
1298.00,0.0260
1297.00,0.0259
1296.00,0.0258
1295.00,0.0257
1294.00,0.0256
1293.00,0.0256
1292.00,0.0255
1291.00,0.0255
1290.00,0.0254
1289.00,0.0254
1288.00,0.0253
1287.00,0.0253
1286.00,0.0252
1285.00,0.0252
1284.00,0.0251
1283.00,0.0251
1282.00,0.0251
1281.00,0.0250
1280.00,0.0250
1279.00,0.0250
1278.00,0.0250
1277.00,0.0251
1276.00,0.0251
1275.00,0.0252
1274.00,0.0252
1273.00,0.0253
1272.00,0.0253
1271.00,0.0254
1270.00,0.0255
1269.00,0.0257
1268.00,0.0258
1267.00,0.0259
1266.00,0.0260
1265.00,0.0261
1264.00,0.0262
1263.00,0.0263
1262.00,0.0264
1261.00,0.0265
1260.00,0.0266
1259.00,0.0267
1258.00,0.0268
1257.00,0.0269
1256.00,0.0270
1255.00,0.0271
1254.00,0.0273
1253.00,0.0274
1252.00,0.0276
1251.00,0.0278
1250.00,0.0280
1249.00,0.0283
1248.00,0.0285
1247.00,0.0288
1246.00,0.0291
1245.00,0.0294
1244.00,0.0297
1243.00,0.0300
1242.00,0.0303
1241.00,0.0306
1240.00,0.0309
1239.00,0.0311
1238.00,0.0314
1237.00,0.0315
1236.00,0.0317
1235.00,0.0318
1234.00,0.0320
1233.00,0.0321
1232.00,0.0322
1231.00,0.0323
1230.00,0.0324
1229.00,0.0325
1228.00,0.0326
1227.00,0.0327
1226.00,0.0328
1225.00,0.0329
1224.00,0.0330
1223.00,0.0330
1222.00,0.0331
1221.00,0.0331
1220.00,0.0331
1219.00,0.0329
1218.00,0.0328
1217.00,0.0326
1216.00,0.0323
1215.00,0.0320
1214.00,0.0317
1213.00,0.0314
1212.00,0.0311
1211.00,0.0307
1210.00,0.0304
1209.00,0.0301
1208.00,0.0297
1207.00,0.0294
1206.00,0.0291
1205.00,0.0288
1204.00,0.0285
1203.00,0.0282
1202.00,0.0280
1201.00,0.0277
1200.00,0.0274
1199.00,0.0272
1198.00,0.0270
1197.00,0.0268
1196.00,0.0266
1195.00,0.0264
1194.00,0.0262
1193.00,0.0261
1192.00,0.0259
1191.00,0.0258
1190.00,0.0257
1189.00,0.0257
1188.00,0.0256
1187.00,0.0255
1186.00,0.0255
1185.00,0.0255
1184.00,0.0255
1183.00,0.0255
1182.00,0.0255
1181.00,0.0256
1180.00,0.0257
1179.00,0.0258
1178.00,0.0260
1177.00,0.0261
1176.00,0.0263
1175.00,0.0266
1174.00,0.0268
1173.00,0.0271
1172.00,0.0273
1171.00,0.0275
1170.00,0.0276
1169.00,0.0278
1168.00,0.0278
1167.00,0.0279
1166.00,0.0279
1165.00,0.0278
1164.00,0.0278
1163.00,0.0277
1162.00,0.0276
1161.00,0.0274
1160.00,0.0273
1159.00,0.0271
1158.00,0.0269
1157.00,0.0267
1156.00,0.0265
1155.00,0.0263
1154.00,0.0261
1153.00,0.0259
1152.00,0.0257
1151.00,0.0255
1150.00,0.0253
1149.00,0.0251
1148.00,0.0250
1147.00,0.0248
1146.00,0.0247
1145.00,0.0245
1144.00,0.0244
1143.00,0.0242
1142.00,0.0241
1141.00,0.0240
1140.00,0.0239
1139.00,0.0237
1138.00,0.0236
1137.00,0.0235
1136.00,0.0234
1135.00,0.0233
1134.00,0.0232
1133.00,0.0231
1132.00,0.0230
1131.00,0.0229
1130.00,0.0228
1129.00,0.0227
1128.00,0.0226
1127.00,0.0225
1126.00,0.0225
1125.00,0.0224
1124.00,0.0223
1123.00,0.0223
1122.00,0.0223
1121.00,0.0222
1120.00,0.0222
1119.00,0.0221
1118.00,0.0221
1117.00,0.0220
1116.00,0.0220
1115.00,0.0219
1114.00,0.0218
1113.00,0.0218
1112.00,0.0217
1111.00,0.0216
1110.00,0.0216
1109.00,0.0215
1108.00,0.0214
1107.00,0.0214
1106.00,0.0213
1105.00,0.0213
1104.00,0.0212
1103.00,0.0211
1102.00,0.0210
1101.00,0.0209
1100.00,0.0207
1099.00,0.0206
1098.00,0.0205
1097.00,0.0204
1096.00,0.0202
1095.00,0.0201
1094.00,0.0201
1093.00,0.0200
1092.00,0.0199
1091.00,0.0199
1090.00,0.0199
1089.00,0.0199
1088.00,0.0199
1087.00,0.0199
1086.00,0.0200
1085.00,0.0201
1084.00,0.0201
1083.00,0.0201
1082.00,0.0202
1081.00,0.0202
1080.00,0.0202
1079.00,0.0202
1078.00,0.0203
1077.00,0.0203
1076.00,0.0203
1075.00,0.0203
1074.00,0.0203
1073.00,0.0203
1072.00,0.0202
1071.00,0.0202
1070.00,0.0202
1069.00,0.0202
1068.00,0.0202
1067.00,0.0202
1066.00,0.0203
1065.00,0.0203
1064.00,0.0204
1063.00,0.0204
1062.00,0.0205
1061.00,0.0206
1060.00,0.0206
1059.00,0.0207
1058.00,0.0208
1057.00,0.0209
1056.00,0.0210
1055.00,0.0210
1054.00,0.0211
1053.00,0.0212
1052.00,0.0212
1051.00,0.0212
1050.00,0.0212
1049.00,0.0212
1048.00,0.0211
1047.00,0.0210
1046.00,0.0211
1045.00,0.0211
1044.00,0.0212
1043.00,0.0213
1042.00,0.0215
1041.00,0.0216
1040.00,0.0217
1039.00,0.0218
1038.00,0.0220
1037.00,0.0221
1036.00,0.0222
1035.00,0.0223
1034.00,0.0224
1033.00,0.0224
1032.00,0.0224
1031.00,0.0224
1030.00,0.0224
1029.00,0.0224
1028.00,0.0224
1027.00,0.0223
1026.00,0.0222
1025.00,0.0221
1024.00,0.0220
1023.00,0.0218
1022.00,0.0217
1021.00,0.0216
1020.00,0.0214
1019.00,0.0213
1018.00,0.0212
1017.00,0.0210
1016.00,0.0209
1015.00,0.0208
1014.00,0.0207
1013.00,0.0206
1012.00,0.0205
1011.00,0.0203
1010.00,0.0202
1009.00,0.0200
1008.00,0.0199
1007.00,0.0197
1006.00,0.0195
1005.00,0.0194
1004.00,0.0192
1003.00,0.0190
1002.00,0.0189
1001.00,0.0187
1000.00,0.0186
999.00,0.0184
998.00,0.0183
997.00,0.0182
996.00,0.0181
995.00,0.0179
994.00,0.0178
993.00,0.0177
992.00,0.0176
991.00,0.0175
990.00,0.0174
989.00,0.0174
988.00,0.0173
987.00,0.0172
986.00,0.0172
985.00,0.0172
984.00,0.0171
983.00,0.0171
982.00,0.0171
981.00,0.0171
980.00,0.0171
979.00,0.0172
978.00,0.0172
977.00,0.0173
976.00,0.0174
975.00,0.0175
974.00,0.0177
973.00,0.0179
972.00,0.0181
971.00,0.0185
970.00,0.0189
969.00,0.0193
968.00,0.0198
967.00,0.0202
966.00,0.0206
965.00,0.0207
964.00,0.0207
963.00,0.0206
962.00,0.0203
961.00,0.0200
960.00,0.0197
959.00,0.0193
958.00,0.0190
957.00,0.0187
956.00,0.0184
955.00,0.0181
954.00,0.0179
953.00,0.0177
952.00,0.0175
951.00,0.0174
950.00,0.0173
949.00,0.0172
948.00,0.0171
947.00,0.0170
946.00,0.0169
945.00,0.0168
944.00,0.0168
943.00,0.0167
942.00,0.0167
941.00,0.0166
940.00,0.0166
939.00,0.0165
938.00,0.0165
937.00,0.0165
936.00,0.0165
935.00,0.0165
934.00,0.0165
933.00,0.0165
932.00,0.0165
931.00,0.0165
930.00,0.0166
929.00,0.0166
928.00,0.0165
927.00,0.0165
926.00,0.0166
925.00,0.0165
924.00,0.0165
923.00,0.0164
922.00,0.0164
921.00,0.0163
920.00,0.0162
919.00,0.0161
918.00,0.0160
917.00,0.0159
916.00,0.0158
915.00,0.0157
914.00,0.0157
913.00,0.0156
912.00,0.0155
911.00,0.0154
910.00,0.0154
909.00,0.0153
908.00,0.0153
907.00,0.0153
906.00,0.0153
905.00,0.0153
904.00,0.0153
903.00,0.0153
902.00,0.0153
901.00,0.0153
900.00,0.0152
899.00,0.0152
898.00,0.0152
897.00,0.0152
896.00,0.0151
895.00,0.0150
894.00,0.0150
893.00,0.0150
892.00,0.0149
891.00,0.0148
890.00,0.0148
889.00,0.0148
888.00,0.0147
887.00,0.0146
886.00,0.0146
885.00,0.0145
884.00,0.0144
883.00,0.0144
882.00,0.0144
881.00,0.0144
880.00,0.0144
879.00,0.0144
878.00,0.0144
877.00,0.0144
876.00,0.0144
875.00,0.0143
874.00,0.0144
873.00,0.0144
872.00,0.0143
871.00,0.0143
870.00,0.0143
869.00,0.0143
868.00,0.0143
867.00,0.0142
866.00,0.0142
865.00,0.0143
864.00,0.0142
863.00,0.0142
862.00,0.0143
861.00,0.0143
860.00,0.0143
859.00,0.0143
858.00,0.0144
857.00,0.0145
856.00,0.0145
855.00,0.0146
854.00,0.0147
853.00,0.0148
852.00,0.0148
851.00,0.0149
850.00,0.0149
849.00,0.0149
848.00,0.0149
847.00,0.0149
846.00,0.0149
845.00,0.0149
844.00,0.0148
843.00,0.0148
842.00,0.0148
841.00,0.0149
840.00,0.0149
839.00,0.0149
838.00,0.0150
837.00,0.0151
836.00,0.0152
835.00,0.0152
834.00,0.0154
833.00,0.0156
832.00,0.0157
831.00,0.0160
830.00,0.0163
829.00,0.0165
828.00,0.0167
827.00,0.0168
826.00,0.0168
825.00,0.0167
824.00,0.0165
823.00,0.0163
822.00,0.0162
821.00,0.0160
820.00,0.0159
819.00,0.0158
818.00,0.0158
817.00,0.0158
816.00,0.0158
815.00,0.0158
814.00,0.0158
813.00,0.0158
812.00,0.0158
811.00,0.0158
810.00,0.0159
809.00,0.0159
808.00,0.0159
807.00,0.0160
806.00,0.0160
805.00,0.0161
804.00,0.0161
803.00,0.0161
802.00,0.0161
801.00,0.0162
800.00,0.0162
799.00,0.0162
798.00,0.0162
797.00,0.0163
796.00,0.0163
795.00,0.0163
794.00,0.0164
793.00,0.0165
792.00,0.0165
791.00,0.0165
790.00,0.0167
789.00,0.0168
788.00,0.0169
787.00,0.0170
786.00,0.0172
785.00,0.0174
784.00,0.0176
783.00,0.0177
782.00,0.0179
781.00,0.0181
780.00,0.0182
779.00,0.0184
778.00,0.0185
777.00,0.0187
776.00,0.0188
775.00,0.0189
774.00,0.0190
773.00,0.0191
772.00,0.0191
771.00,0.0192
770.00,0.0192
769.00,0.0193
768.00,0.0192
767.00,0.0192
766.00,0.0192
765.00,0.0192
764.00,0.0192
763.00,0.0191
762.00,0.0191
761.00,0.0192
760.00,0.0191
759.00,0.0192
758.00,0.0192
757.00,0.0193
756.00,0.0192
755.00,0.0193
754.00,0.0194
753.00,0.0195
752.00,0.0195
751.00,0.0196
750.00,0.0197
749.00,0.0198
748.00,0.0199
747.00,0.0200
746.00,0.0202
745.00,0.0204
744.00,0.0205
743.00,0.0207
742.00,0.0208
741.00,0.0210
740.00,0.0211
739.00,0.0212
738.00,0.0214
737.00,0.0215
736.00,0.0216
735.00,0.0218
734.00,0.0219
733.00,0.0221
732.00,0.0222
731.00,0.0224
730.00,0.0227
729.00,0.0229
728.00,0.0232
727.00,0.0234
726.00,0.0238
725.00,0.0241
724.00,0.0244
723.00,0.0248
722.00,0.0252
721.00,0.0257
720.00,0.0261
719.00,0.0265
718.00,0.0269
717.00,0.0273
716.00,0.0277
715.00,0.0281
714.00,0.0285
713.00,0.0290
712.00,0.0294
711.00,0.0297
710.00,0.0302
709.00,0.0306
708.00,0.0309
707.00,0.0312
706.00,0.0315
705.00,0.0318
704.00,0.0320
703.00,0.0322
702.00,0.0325
701.00,0.0327
700.00,0.0329
699.00,0.0330
698.00,0.0332
697.00,0.0333
696.00,0.0334
695.00,0.0335
694.00,0.0336
693.00,0.0336
692.00,0.0336
691.00,0.0337
690.00,0.0338
689.00,0.0339
688.00,0.0339
687.00,0.0339
686.00,0.0340
685.00,0.0340
684.00,0.0341
683.00,0.0341
682.00,0.0342
681.00,0.0343
680.00,0.0343
679.00,0.0344
678.00,0.0345
677.00,0.0346
676.00,0.0346
675.00,0.0347
674.00,0.0348
673.00,0.0349
672.00,0.0348
671.00,0.0348
670.00,0.0348
669.00,0.0348
668.00,0.0348
667.00,0.0349
666.00,0.0351
665.00,0.0352
664.00,0.0352
663.00,0.0352
662.00,0.0352
661.00,0.0353
660.00,0.0353
659.00,0.0353
658.00,0.0354
657.00,0.0354
656.00,0.0354
655.00,0.0353
654.00,0.0354
653.00,0.0354
652.00,0.0354
651.00,0.0354
650.00,0.0355
649.00,0.0355
648.00,0.0355
647.00,0.0355
646.00,0.0356
645.00,0.0356
644.00,0.0356
643.00,0.0356
642.00,0.0357
641.00,0.0358
640.00,0.0358
639.00,0.0359
638.00,0.0360
637.00,0.0361
636.00,0.0362
635.00,0.0364
634.00,0.0366
633.00,0.0369
632.00,0.0371
631.00,0.0374
630.00,0.0377
629.00,0.0381
628.00,0.0383
627.00,0.0386
626.00,0.0389
625.00,0.0392
624.00,0.0393
623.00,0.0395
622.00,0.0397
621.00,0.0398
620.00,0.0399
619.00,0.0400
618.00,0.0402
617.00,0.0403
616.00,0.0403
615.00,0.0403
614.00,0.0404
613.00,0.0404
612.00,0.0404
611.00,0.0403
610.00,0.0404
609.00,0.0403
608.00,0.0402
607.00,0.0401
606.00,0.0401
605.00,0.0400
604.00,0.0398
603.00,0.0397
602.00,0.0396
601.00,0.0396
600.00,0.0394
599.00,0.0393
598.00,0.0393
597.00,0.0394
596.00,0.0393
595.00,0.0392
594.00,0.0393
593.00,0.0394
592.00,0.0393
591.00,0.0393
590.00,0.0393
589.00,0.0394
588.00,0.0395
587.00,0.0396
586.00,0.0397
585.00,0.0399
584.00,0.0399
583.00,0.0399
582.00,0.0400
581.00,0.0401
580.00,0.0401
579.00,0.0401
578.00,0.0403
577.00,0.0404
576.00,0.0404
575.00,0.0404
574.00,0.0407
573.00,0.0408
572.00,0.0408
571.00,0.0409
570.00,0.0411
569.00,0.0413
568.00,0.0414
567.00,0.0415
566.00,0.0417
565.00,0.0418
564.00,0.0417
563.00,0.0417
562.00,0.0419
561.00,0.0422
560.00,0.0422
559.00,0.0423
558.00,0.0426
557.00,0.0429
556.00,0.0429
555.00,0.0430
554.00,0.0432
553.00,0.0434
552.00,0.0434
551.00,0.0434
550.00,0.0436
549.00,0.0438
548.00,0.0437
547.00,0.0436
546.00,0.0437
545.00,0.0439
544.00,0.0439
543.00,0.0439
542.00,0.0440
541.00,0.0441
540.00,0.0439
539.00,0.0438
538.00,0.0438
537.00,0.0439
536.00,0.0439
535.00,0.0439
534.00,0.0440
533.00,0.0441
532.00,0.0439
531.00,0.0438
530.00,0.0439
529.00,0.0440
528.00,0.0440
527.00,0.0441
526.00,0.0443
525.00,0.0444
524.00,0.0443
523.00,0.0441
522.00,0.0440
521.00,0.0439
520.00,0.0437
519.00,0.0436
518.00,0.0436
517.00,0.0436
516.00,0.0433
515.00,0.0431
514.00,0.0432
513.00,0.0431
512.00,0.0428
511.00,0.0425
510.00,0.0425
509.00,0.0424
508.00,0.0421
507.00,0.0420
506.00,0.0420
505.00,0.0420
504.00,0.0416
503.00,0.0413
502.00,0.0412
501.00,0.0410
500.00,0.0408
499.00,0.0407
498.00,0.0409
497.00,0.0411
496.00,0.0409
495.00,0.0407
494.00,0.0407
493.00,0.0407
492.00,0.0404
491.00,0.0402
490.00,0.0403
489.00,0.0404
488.00,0.0402
487.00,0.0401
486.00,0.0402
485.00,0.0402
484.00,0.0400
483.00,0.0399
482.00,0.0400
481.00,0.0399
480.00,0.0395
479.00,0.0392
478.00,0.0393
477.00,0.0394
476.00,0.0392
475.00,0.0390
474.00,0.0391
473.00,0.0392
472.00,0.0391
471.00,0.0390
470.00,0.0392
469.00,0.0392
468.00,0.0389
467.00,0.0386
466.00,0.0388
465.00,0.0390
464.00,0.0387
463.00,0.0383
462.00,0.0385
461.00,0.0387
460.00,0.0384
459.00,0.0382
458.00,0.0383
457.00,0.0385
456.00,0.0382
455.00,0.0381
454.00,0.0384
453.00,0.0387
452.00,0.0387
451.00,0.0390
450.00,0.0398
449.00,0.0404
448.00,0.0407
447.00,0.0410
446.00,0.0417
445.00,0.0423
444.00,0.0423
443.00,0.0422
442.00,0.0423
441.00,0.0421
440.00,0.0414
439.00,0.0409
438.00,0.0410
437.00,0.0410
436.00,0.0405
435.00,0.0400
434.00,0.0399
433.00,0.0398
432.00,0.0393
431.00,0.0388
430.00,0.0389
429.00,0.0390
428.00,0.0385
427.00,0.0381
426.00,0.0382
425.00,0.0381
424.00,0.0374
423.00,0.0368
422.00,0.0371
421.00,0.0375
420.00,0.0371
419.00,0.0368
418.00,0.0374
417.00,0.0376
416.00,0.0370
415.00,0.0365
414.00,0.0368
413.00,0.0369
412.00,0.0361
411.00,0.0351
410.00,0.0351
409.00,0.0351
408.00,0.0345
407.00,0.0342
406.00,0.0349
405.00,0.0354
404.00,0.0348
403.00,0.0345
402.00,0.0354
401.00,0.0358
400.00,0.0343
