Created as New Dataset,Sample 031 By YargerLab Date Friday, November 01 2024
cm-1,A
4000.00,0.0046
3999.00,0.0046
3998.00,0.0046
3997.00,0.0046
3996.00,0.0046
3995.00,0.0046
3994.00,0.0046
3993.00,0.0046
3992.00,0.0046
3991.00,0.0046
3990.00,0.0046
3989.00,0.0046
3988.00,0.0046
3987.00,0.0046
3986.00,0.0046
3985.00,0.0046
3984.00,0.0046
3983.00,0.0046
3982.00,0.0046
3981.00,0.0046
3980.00,0.0047
3979.00,0.0047
3978.00,0.0047
3977.00,0.0047
3976.00,0.0047
3975.00,0.0047
3974.00,0.0047
3973.00,0.0046
3972.00,0.0046
3971.00,0.0046
3970.00,0.0046
3969.00,0.0047
3968.00,0.0047
3967.00,0.0047
3966.00,0.0047
3965.00,0.0047
3964.00,0.0047
3963.00,0.0046
3962.00,0.0047
3961.00,0.0047
3960.00,0.0046
3959.00,0.0046
3958.00,0.0046
3957.00,0.0046
3956.00,0.0046
3955.00,0.0046
3954.00,0.0046
3953.00,0.0046
3952.00,0.0046
3951.00,0.0046
3950.00,0.0046
3949.00,0.0046
3948.00,0.0046
3947.00,0.0046
3946.00,0.0046
3945.00,0.0046
3944.00,0.0046
3943.00,0.0046
3942.00,0.0046
3941.00,0.0046
3940.00,0.0046
3939.00,0.0046
3938.00,0.0046
3937.00,0.0046
3936.00,0.0046
3935.00,0.0046
3934.00,0.0046
3933.00,0.0046
3932.00,0.0046
3931.00,0.0046
3930.00,0.0046
3929.00,0.0046
3928.00,0.0046
3927.00,0.0046
3926.00,0.0046
3925.00,0.0046
3924.00,0.0046
3923.00,0.0046
3922.00,0.0046
3921.00,0.0046
3920.00,0.0046
3919.00,0.0046
3918.00,0.0046
3917.00,0.0046
3916.00,0.0046
3915.00,0.0046
3914.00,0.0046
3913.00,0.0046
3912.00,0.0046
3911.00,0.0046
3910.00,0.0046
3909.00,0.0046
3908.00,0.0046
3907.00,0.0046
3906.00,0.0046
3905.00,0.0046
3904.00,0.0046
3903.00,0.0046
3902.00,0.0046
3901.00,0.0046
3900.00,0.0046
3899.00,0.0046
3898.00,0.0046
3897.00,0.0046
3896.00,0.0046
3895.00,0.0046
3894.00,0.0046
3893.00,0.0045
3892.00,0.0045
3891.00,0.0045
3890.00,0.0045
3889.00,0.0046
3888.00,0.0046
3887.00,0.0046
3886.00,0.0046
3885.00,0.0046
3884.00,0.0046
3883.00,0.0046
3882.00,0.0046
3881.00,0.0046
3880.00,0.0046
3879.00,0.0046
3878.00,0.0046
3877.00,0.0046
3876.00,0.0046
3875.00,0.0046
3874.00,0.0046
3873.00,0.0046
3872.00,0.0046
3871.00,0.0046
3870.00,0.0046
3869.00,0.0046
3868.00,0.0046
3867.00,0.0046
3866.00,0.0046
3865.00,0.0046
3864.00,0.0046
3863.00,0.0046
3862.00,0.0046
3861.00,0.0046
3860.00,0.0046
3859.00,0.0045
3858.00,0.0045
3857.00,0.0045
3856.00,0.0045
3855.00,0.0045
3854.00,0.0045
3853.00,0.0046
3852.00,0.0046
3851.00,0.0046
3850.00,0.0046
3849.00,0.0045
3848.00,0.0045
3847.00,0.0045
3846.00,0.0045
3845.00,0.0045
3844.00,0.0045
3843.00,0.0045
3842.00,0.0045
3841.00,0.0045
3840.00,0.0045
3839.00,0.0045
3838.00,0.0045
3837.00,0.0045
3836.00,0.0045
3835.00,0.0045
3834.00,0.0045
3833.00,0.0045
3832.00,0.0045
3831.00,0.0045
3830.00,0.0045
3829.00,0.0045
3828.00,0.0045
3827.00,0.0045
3826.00,0.0045
3825.00,0.0045
3824.00,0.0045
3823.00,0.0045
3822.00,0.0045
3821.00,0.0045
3820.00,0.0045
3819.00,0.0045
3818.00,0.0045
3817.00,0.0045
3816.00,0.0045
3815.00,0.0045
3814.00,0.0045
3813.00,0.0045
3812.00,0.0045
3811.00,0.0045
3810.00,0.0044
3809.00,0.0044
3808.00,0.0044
3807.00,0.0044
3806.00,0.0044
3805.00,0.0044
3804.00,0.0044
3803.00,0.0044
3802.00,0.0044
3801.00,0.0045
3800.00,0.0045
3799.00,0.0045
3798.00,0.0045
3797.00,0.0045
3796.00,0.0044
3795.00,0.0044
3794.00,0.0044
3793.00,0.0044
3792.00,0.0044
3791.00,0.0044
3790.00,0.0044
3789.00,0.0044
3788.00,0.0044
3787.00,0.0044
3786.00,0.0044
3785.00,0.0044
3784.00,0.0044
3783.00,0.0044
3782.00,0.0044
3781.00,0.0044
3780.00,0.0044
3779.00,0.0044
3778.00,0.0044
3777.00,0.0044
3776.00,0.0044
3775.00,0.0044
3774.00,0.0044
3773.00,0.0044
3772.00,0.0044
3771.00,0.0044
3770.00,0.0044
3769.00,0.0044
3768.00,0.0044
3767.00,0.0044
3766.00,0.0044
3765.00,0.0044
3764.00,0.0044
3763.00,0.0044
3762.00,0.0044
3761.00,0.0044
3760.00,0.0044
3759.00,0.0044
3758.00,0.0044
3757.00,0.0044
3756.00,0.0044
3755.00,0.0044
3754.00,0.0045
3753.00,0.0045
3752.00,0.0045
3751.00,0.0044
3750.00,0.0044
3749.00,0.0044
3748.00,0.0044
3747.00,0.0044
3746.00,0.0044
3745.00,0.0044
3744.00,0.0044
3743.00,0.0044
3742.00,0.0044
3741.00,0.0044
3740.00,0.0044
3739.00,0.0044
3738.00,0.0044
3737.00,0.0044
3736.00,0.0044
3735.00,0.0044
3734.00,0.0044
3733.00,0.0044
3732.00,0.0044
3731.00,0.0044
3730.00,0.0044
3729.00,0.0044
3728.00,0.0044
3727.00,0.0044
3726.00,0.0044
3725.00,0.0044
3724.00,0.0044
3723.00,0.0044
3722.00,0.0044
3721.00,0.0044
3720.00,0.0044
3719.00,0.0044
3718.00,0.0043
3717.00,0.0043
3716.00,0.0043
3715.00,0.0043
3714.00,0.0044
3713.00,0.0044
3712.00,0.0044
3711.00,0.0044
3710.00,0.0044
3709.00,0.0043
3708.00,0.0043
3707.00,0.0043
3706.00,0.0043
3705.00,0.0043
3704.00,0.0043
3703.00,0.0043
3702.00,0.0043
3701.00,0.0043
3700.00,0.0043
3699.00,0.0043
3698.00,0.0043
3697.00,0.0042
3696.00,0.0043
3695.00,0.0043
3694.00,0.0043
3693.00,0.0043
3692.00,0.0043
3691.00,0.0043
3690.00,0.0042
3689.00,0.0042
3688.00,0.0041
3687.00,0.0041
3686.00,0.0041
3685.00,0.0041
3684.00,0.0040
3683.00,0.0040
3682.00,0.0039
3681.00,0.0039
3680.00,0.0038
3679.00,0.0037
3678.00,0.0037
3677.00,0.0036
3676.00,0.0036
3675.00,0.0035
3674.00,0.0035
3673.00,0.0034
3672.00,0.0034
3671.00,0.0033
3670.00,0.0033
3669.00,0.0033
3668.00,0.0033
3667.00,0.0032
3666.00,0.0032
3665.00,0.0031
3664.00,0.0031
3663.00,0.0031
3662.00,0.0030
3661.00,0.0030
3660.00,0.0030
3659.00,0.0030
3658.00,0.0030
3657.00,0.0031
3656.00,0.0031
3655.00,0.0031
3654.00,0.0031
3653.00,0.0031
3652.00,0.0032
3651.00,0.0032
3650.00,0.0032
3649.00,0.0032
3648.00,0.0032
3647.00,0.0033
3646.00,0.0033
3645.00,0.0033
3644.00,0.0033
3643.00,0.0033
3642.00,0.0033
3641.00,0.0034
3640.00,0.0034
3639.00,0.0035
3638.00,0.0035
3637.00,0.0035
3636.00,0.0036
3635.00,0.0037
3634.00,0.0038
3633.00,0.0039
3632.00,0.0039
3631.00,0.0040
3630.00,0.0041
3629.00,0.0041
3628.00,0.0042
3627.00,0.0042
3626.00,0.0042
3625.00,0.0042
3624.00,0.0042
3623.00,0.0042
3622.00,0.0042
3621.00,0.0042
3620.00,0.0043
3619.00,0.0043
3618.00,0.0043
3617.00,0.0043
3616.00,0.0043
3615.00,0.0043
3614.00,0.0043
3613.00,0.0043
3612.00,0.0043
3611.00,0.0043
3610.00,0.0043
3609.00,0.0043
3608.00,0.0043
3607.00,0.0043
3606.00,0.0043
3605.00,0.0044
3604.00,0.0044
3603.00,0.0044
3602.00,0.0044
3601.00,0.0044
3600.00,0.0044
3599.00,0.0044
3598.00,0.0044
3597.00,0.0044
3596.00,0.0044
3595.00,0.0044
3594.00,0.0044
3593.00,0.0044
3592.00,0.0044
3591.00,0.0044
3590.00,0.0044
3589.00,0.0044
3588.00,0.0044
3587.00,0.0044
3586.00,0.0044
3585.00,0.0044
3584.00,0.0044
3583.00,0.0044
3582.00,0.0044
3581.00,0.0044
3580.00,0.0043
3579.00,0.0043
3578.00,0.0043
3577.00,0.0043
3576.00,0.0044
3575.00,0.0044
3574.00,0.0044
3573.00,0.0044
3572.00,0.0044
3571.00,0.0044
3570.00,0.0044
3569.00,0.0044
3568.00,0.0044
3567.00,0.0044
3566.00,0.0044
3565.00,0.0044
3564.00,0.0044
3563.00,0.0044
3562.00,0.0044
3561.00,0.0044
3560.00,0.0044
3559.00,0.0044
3558.00,0.0044
3557.00,0.0044
3556.00,0.0044
3555.00,0.0044
3554.00,0.0044
3553.00,0.0044
3552.00,0.0044
3551.00,0.0044
3550.00,0.0044
3549.00,0.0044
3548.00,0.0044
3547.00,0.0044
3546.00,0.0044
3545.00,0.0044
3544.00,0.0044
3543.00,0.0044
3542.00,0.0044
3541.00,0.0044
3540.00,0.0044
3539.00,0.0044
3538.00,0.0044
3537.00,0.0044
3536.00,0.0044
3535.00,0.0044
3534.00,0.0044
3533.00,0.0044
3532.00,0.0044
3531.00,0.0044
3530.00,0.0044
3529.00,0.0044
3528.00,0.0044
3527.00,0.0044
3526.00,0.0044
3525.00,0.0044
3524.00,0.0044
3523.00,0.0044
3522.00,0.0044
3521.00,0.0044
3520.00,0.0044
3519.00,0.0044
3518.00,0.0044
3517.00,0.0044
3516.00,0.0044
3515.00,0.0044
3514.00,0.0044
3513.00,0.0044
3512.00,0.0044
3511.00,0.0044
3510.00,0.0044
3509.00,0.0044
3508.00,0.0044
3507.00,0.0044
3506.00,0.0044
3505.00,0.0044
3504.00,0.0044
3503.00,0.0044
3502.00,0.0044
3501.00,0.0044
3500.00,0.0044
3499.00,0.0044
3498.00,0.0044
3497.00,0.0044
3496.00,0.0044
3495.00,0.0044
3494.00,0.0044
3493.00,0.0044
3492.00,0.0044
3491.00,0.0044
3490.00,0.0044
3489.00,0.0044
3488.00,0.0044
3487.00,0.0044
3486.00,0.0044
3485.00,0.0044
3484.00,0.0044
3483.00,0.0044
3482.00,0.0044
3481.00,0.0044
3480.00,0.0044
3479.00,0.0044
3478.00,0.0044
3477.00,0.0044
3476.00,0.0044
3475.00,0.0044
3474.00,0.0044
3473.00,0.0044
3472.00,0.0044
3471.00,0.0044
3470.00,0.0044
3469.00,0.0044
3468.00,0.0044
3467.00,0.0044
3466.00,0.0044
3465.00,0.0044
3464.00,0.0045
3463.00,0.0045
3462.00,0.0045
3461.00,0.0045
3460.00,0.0045
3459.00,0.0045
3458.00,0.0045
3457.00,0.0045
3456.00,0.0045
3455.00,0.0045
3454.00,0.0045
3453.00,0.0045
3452.00,0.0045
3451.00,0.0045
3450.00,0.0045
3449.00,0.0045
3448.00,0.0045
3447.00,0.0045
3446.00,0.0045
3445.00,0.0045
3444.00,0.0045
3443.00,0.0045
3442.00,0.0045
3441.00,0.0045
3440.00,0.0045
3439.00,0.0045
3438.00,0.0045
3437.00,0.0045
3436.00,0.0045
3435.00,0.0045
3434.00,0.0045
3433.00,0.0045
3432.00,0.0045
3431.00,0.0045
3430.00,0.0045
3429.00,0.0045
3428.00,0.0045
3427.00,0.0045
3426.00,0.0045
3425.00,0.0045
3424.00,0.0046
3423.00,0.0046
3422.00,0.0046
3421.00,0.0046
3420.00,0.0046
3419.00,0.0046
3418.00,0.0046
3417.00,0.0046
3416.00,0.0046
3415.00,0.0046
3414.00,0.0046
3413.00,0.0046
3412.00,0.0046
3411.00,0.0046
3410.00,0.0046
3409.00,0.0046
3408.00,0.0046
3407.00,0.0046
3406.00,0.0046
3405.00,0.0046
3404.00,0.0046
3403.00,0.0047
3402.00,0.0047
3401.00,0.0047
3400.00,0.0047
3399.00,0.0046
3398.00,0.0046
3397.00,0.0046
3396.00,0.0046
3395.00,0.0046
3394.00,0.0046
3393.00,0.0046
3392.00,0.0046
3391.00,0.0047
3390.00,0.0047
3389.00,0.0047
3388.00,0.0047
3387.00,0.0047
3386.00,0.0047
3385.00,0.0047
3384.00,0.0047
3383.00,0.0047
3382.00,0.0047
3381.00,0.0047
3380.00,0.0048
3379.00,0.0048
3378.00,0.0048
3377.00,0.0048
3376.00,0.0048
3375.00,0.0048
3374.00,0.0048
3373.00,0.0048
3372.00,0.0048
3371.00,0.0048
3370.00,0.0048
3369.00,0.0048
3368.00,0.0048
3367.00,0.0048
3366.00,0.0048
3365.00,0.0048
3364.00,0.0048
3363.00,0.0048
3362.00,0.0048
3361.00,0.0048
3360.00,0.0048
3359.00,0.0048
3358.00,0.0048
3357.00,0.0048
3356.00,0.0048
3355.00,0.0048
3354.00,0.0048
3353.00,0.0049
3352.00,0.0049
3351.00,0.0049
3350.00,0.0049
3349.00,0.0049
3348.00,0.0049
3347.00,0.0049
3346.00,0.0049
3345.00,0.0049
3344.00,0.0049
3343.00,0.0049
3342.00,0.0049
3341.00,0.0049
3340.00,0.0049
3339.00,0.0050
3338.00,0.0050
3337.00,0.0050
3336.00,0.0050
3335.00,0.0050
3334.00,0.0050
3333.00,0.0050
3332.00,0.0050
3331.00,0.0050
3330.00,0.0051
3329.00,0.0051
3328.00,0.0051
3327.00,0.0051
3326.00,0.0051
3325.00,0.0051
3324.00,0.0051
3323.00,0.0051
3322.00,0.0051
3321.00,0.0051
3320.00,0.0052
3319.00,0.0052
3318.00,0.0052
3317.00,0.0052
3316.00,0.0052
3315.00,0.0052
3314.00,0.0053
3313.00,0.0053
3312.00,0.0053
3311.00,0.0053
3310.00,0.0053
3309.00,0.0053
3308.00,0.0053
3307.00,0.0053
3306.00,0.0053
3305.00,0.0053
3304.00,0.0053
3303.00,0.0053
3302.00,0.0054
3301.00,0.0054
3300.00,0.0054
3299.00,0.0054
3298.00,0.0054
3297.00,0.0055
3296.00,0.0055
3295.00,0.0055
3294.00,0.0055
3293.00,0.0055
3292.00,0.0055
3291.00,0.0055
3290.00,0.0056
3289.00,0.0056
3288.00,0.0056
3287.00,0.0056
3286.00,0.0057
3285.00,0.0057
3284.00,0.0057
3283.00,0.0057
3282.00,0.0058
3281.00,0.0058
3280.00,0.0058
3279.00,0.0058
3278.00,0.0058
3277.00,0.0058
3276.00,0.0058
3275.00,0.0058
3274.00,0.0058
3273.00,0.0058
3272.00,0.0058
3271.00,0.0058
3270.00,0.0059
3269.00,0.0059
3268.00,0.0059
3267.00,0.0060
3266.00,0.0060
3265.00,0.0060
3264.00,0.0061
3263.00,0.0061
3262.00,0.0061
3261.00,0.0061
3260.00,0.0061
3259.00,0.0062
3258.00,0.0062
3257.00,0.0062
3256.00,0.0062
3255.00,0.0062
3254.00,0.0063
3253.00,0.0063
3252.00,0.0063
3251.00,0.0063
3250.00,0.0063
3249.00,0.0063
3248.00,0.0063
3247.00,0.0063
3246.00,0.0064
3245.00,0.0064
3244.00,0.0064
3243.00,0.0065
3242.00,0.0065
3241.00,0.0065
3240.00,0.0066
3239.00,0.0066
3238.00,0.0066
3237.00,0.0066
3236.00,0.0066
3235.00,0.0067
3234.00,0.0067
3233.00,0.0067
3232.00,0.0068
3231.00,0.0068
3230.00,0.0069
3229.00,0.0069
3228.00,0.0069
3227.00,0.0070
3226.00,0.0070
3225.00,0.0070
3224.00,0.0070
3223.00,0.0071
3222.00,0.0071
3221.00,0.0071
3220.00,0.0072
3219.00,0.0072
3218.00,0.0072
3217.00,0.0073
3216.00,0.0073
3215.00,0.0073
3214.00,0.0074
3213.00,0.0074
3212.00,0.0074
3211.00,0.0075
3210.00,0.0075
3209.00,0.0075
3208.00,0.0076
3207.00,0.0076
3206.00,0.0076
3205.00,0.0077
3204.00,0.0077
3203.00,0.0077
3202.00,0.0078
3201.00,0.0078
3200.00,0.0078
3199.00,0.0079
3198.00,0.0079
3197.00,0.0079
3196.00,0.0080
3195.00,0.0080
3194.00,0.0081
3193.00,0.0081
3192.00,0.0081
3191.00,0.0082
3190.00,0.0082
3189.00,0.0082
3188.00,0.0083
3187.00,0.0083
3186.00,0.0084
3185.00,0.0084
3184.00,0.0085
3183.00,0.0085
3182.00,0.0086
3181.00,0.0086
3180.00,0.0087
3179.00,0.0087
3178.00,0.0087
3177.00,0.0088
3176.00,0.0088
3175.00,0.0089
3174.00,0.0089
3173.00,0.0090
3172.00,0.0091
3171.00,0.0091
3170.00,0.0092
3169.00,0.0092
3168.00,0.0093
3167.00,0.0094
3166.00,0.0094
3165.00,0.0095
3164.00,0.0096
3163.00,0.0097
3162.00,0.0098
3161.00,0.0098
3160.00,0.0099
3159.00,0.0100
3158.00,0.0101
3157.00,0.0102
3156.00,0.0103
3155.00,0.0104
3154.00,0.0105
3153.00,0.0106
3152.00,0.0108
3151.00,0.0109
3150.00,0.0111
3149.00,0.0113
3148.00,0.0114
3147.00,0.0116
3146.00,0.0118
3145.00,0.0120
3144.00,0.0121
3143.00,0.0123
3142.00,0.0125
3141.00,0.0126
3140.00,0.0128
3139.00,0.0130
3138.00,0.0133
3137.00,0.0135
3136.00,0.0138
3135.00,0.0140
3134.00,0.0142
3133.00,0.0145
3132.00,0.0147
3131.00,0.0149
3130.00,0.0151
3129.00,0.0154
3128.00,0.0156
3127.00,0.0158
3126.00,0.0160
3125.00,0.0161
3124.00,0.0162
3123.00,0.0163
3122.00,0.0163
3121.00,0.0164
3120.00,0.0164
3119.00,0.0164
3118.00,0.0163
3117.00,0.0163
3116.00,0.0163
3115.00,0.0162
3114.00,0.0161
3113.00,0.0160
3112.00,0.0159
3111.00,0.0158
3110.00,0.0156
3109.00,0.0155
3108.00,0.0154
3107.00,0.0153
3106.00,0.0152
3105.00,0.0150
3104.00,0.0149
3103.00,0.0148
3102.00,0.0147
3101.00,0.0146
3100.00,0.0146
3099.00,0.0145
3098.00,0.0144
3097.00,0.0144
3096.00,0.0143
3095.00,0.0143
3094.00,0.0143
3093.00,0.0142
3092.00,0.0142
3091.00,0.0141
3090.00,0.0141
3089.00,0.0141
3088.00,0.0141
3087.00,0.0141
3086.00,0.0141
3085.00,0.0141
3084.00,0.0141
3083.00,0.0142
3082.00,0.0142
3081.00,0.0142
3080.00,0.0142
3079.00,0.0143
3078.00,0.0143
3077.00,0.0144
3076.00,0.0144
3075.00,0.0145
3074.00,0.0145
3073.00,0.0145
3072.00,0.0146
3071.00,0.0146
3070.00,0.0147
3069.00,0.0147
3068.00,0.0148
3067.00,0.0149
3066.00,0.0150
3065.00,0.0151
3064.00,0.0152
3063.00,0.0154
3062.00,0.0156
3061.00,0.0158
3060.00,0.0160
3059.00,0.0161
3058.00,0.0161
3057.00,0.0161
3056.00,0.0160
3055.00,0.0159
3054.00,0.0157
3053.00,0.0156
3052.00,0.0155
3051.00,0.0154
3050.00,0.0153
3049.00,0.0152
3048.00,0.0152
3047.00,0.0152
3046.00,0.0151
3045.00,0.0151
3044.00,0.0151
3043.00,0.0151
3042.00,0.0151
3041.00,0.0150
3040.00,0.0150
3039.00,0.0150
3038.00,0.0150
3037.00,0.0150
3036.00,0.0150
3035.00,0.0151
3034.00,0.0151
3033.00,0.0151
3032.00,0.0151
3031.00,0.0151
3030.00,0.0152
3029.00,0.0152
3028.00,0.0152
3027.00,0.0153
3026.00,0.0153
3025.00,0.0153
3024.00,0.0153
3023.00,0.0152
3022.00,0.0152
3021.00,0.0151
3020.00,0.0151
3019.00,0.0150
3018.00,0.0149
3017.00,0.0148
3016.00,0.0147
3015.00,0.0146
3014.00,0.0144
3013.00,0.0143
3012.00,0.0141
3011.00,0.0139
3010.00,0.0137
3009.00,0.0135
3008.00,0.0133
3007.00,0.0130
3006.00,0.0127
3005.00,0.0125
3004.00,0.0123
3003.00,0.0121
3002.00,0.0120
3001.00,0.0119
3000.00,0.0118
2999.00,0.0117
2998.00,0.0117
2997.00,0.0117
2996.00,0.0117
2995.00,0.0118
2994.00,0.0118
2993.00,0.0119
2992.00,0.0120
2991.00,0.0122
2990.00,0.0124
2989.00,0.0127
2988.00,0.0132
2987.00,0.0135
2986.00,0.0137
2985.00,0.0135
2984.00,0.0131
2983.00,0.0124
2982.00,0.0119
2981.00,0.0117
2980.00,0.0118
2979.00,0.0120
2978.00,0.0122
2977.00,0.0123
2976.00,0.0123
2975.00,0.0122
2974.00,0.0119
2973.00,0.0116
2972.00,0.0114
2971.00,0.0114
2970.00,0.0117
2969.00,0.0122
2968.00,0.0127
2967.00,0.0133
2966.00,0.0139
2965.00,0.0145
2964.00,0.0152
2963.00,0.0160
2962.00,0.0168
2961.00,0.0177
2960.00,0.0187
2959.00,0.0196
2958.00,0.0206
2957.00,0.0215
2956.00,0.0223
2955.00,0.0231
2954.00,0.0238
2953.00,0.0245
2952.00,0.0251
2951.00,0.0255
2950.00,0.0258
2949.00,0.0261
2948.00,0.0263
2947.00,0.0267
2946.00,0.0271
2945.00,0.0275
2944.00,0.0279
2943.00,0.0284
2942.00,0.0287
2941.00,0.0291
2940.00,0.0295
2939.00,0.0298
2938.00,0.0301
2937.00,0.0303
2936.00,0.0304
2935.00,0.0303
2934.00,0.0302
2933.00,0.0299
2932.00,0.0297
2931.00,0.0295
2930.00,0.0292
2929.00,0.0290
2928.00,0.0287
2927.00,0.0284
2926.00,0.0280
2925.00,0.0277
2924.00,0.0275
2923.00,0.0272
2922.00,0.0270
2921.00,0.0268
2920.00,0.0266
2919.00,0.0264
2918.00,0.0261
2917.00,0.0259
2916.00,0.0257
2915.00,0.0254
2914.00,0.0251
2913.00,0.0248
2912.00,0.0245
2911.00,0.0242
2910.00,0.0238
2909.00,0.0235
2908.00,0.0231
2907.00,0.0229
2906.00,0.0226
2905.00,0.0224
2904.00,0.0223
2903.00,0.0222
2902.00,0.0221
2901.00,0.0221
2900.00,0.0221
2899.00,0.0221
2898.00,0.0221
2897.00,0.0221
2896.00,0.0221
2895.00,0.0222
2894.00,0.0223
2893.00,0.0226
2892.00,0.0230
2891.00,0.0235
2890.00,0.0239
2889.00,0.0242
2888.00,0.0243
2887.00,0.0242
2886.00,0.0238
2885.00,0.0233
2884.00,0.0229
2883.00,0.0226
2882.00,0.0225
2881.00,0.0226
2880.00,0.0227
2879.00,0.0230
2878.00,0.0234
2877.00,0.0239
2876.00,0.0244
2875.00,0.0251
2874.00,0.0259
2873.00,0.0267
2872.00,0.0275
2871.00,0.0282
2870.00,0.0287
2869.00,0.0290
2868.00,0.0291
2867.00,0.0289
2866.00,0.0287
2865.00,0.0283
2864.00,0.0280
2863.00,0.0276
2862.00,0.0274
2861.00,0.0271
2860.00,0.0268
2859.00,0.0265
2858.00,0.0262
2857.00,0.0258
2856.00,0.0255
2855.00,0.0251
2854.00,0.0248
2853.00,0.0246
2852.00,0.0244
2851.00,0.0242
2850.00,0.0240
2849.00,0.0238
2848.00,0.0236
2847.00,0.0234
2846.00,0.0232
2845.00,0.0231
2844.00,0.0230
2843.00,0.0229
2842.00,0.0230
2841.00,0.0231
2840.00,0.0234
2839.00,0.0237
2838.00,0.0240
2837.00,0.0243
2836.00,0.0245
2835.00,0.0246
2834.00,0.0245
2833.00,0.0242
2832.00,0.0240
2831.00,0.0236
2830.00,0.0233
2829.00,0.0230
2828.00,0.0228
2827.00,0.0225
2826.00,0.0222
2825.00,0.0220
2824.00,0.0218
2823.00,0.0216
2822.00,0.0215
2821.00,0.0214
2820.00,0.0213
2819.00,0.0212
2818.00,0.0211
2817.00,0.0210
2816.00,0.0210
2815.00,0.0209
2814.00,0.0209
2813.00,0.0208
2812.00,0.0208
2811.00,0.0208
2810.00,0.0207
2809.00,0.0207
2808.00,0.0208
2807.00,0.0208
2806.00,0.0208
2805.00,0.0208
2804.00,0.0208
2803.00,0.0209
2802.00,0.0209
2801.00,0.0209
2800.00,0.0209
2799.00,0.0209
2798.00,0.0209
2797.00,0.0209
2796.00,0.0209
2795.00,0.0209
2794.00,0.0209
2793.00,0.0209
2792.00,0.0209
2791.00,0.0208
2790.00,0.0208
2789.00,0.0208
2788.00,0.0207
2787.00,0.0207
2786.00,0.0207
2785.00,0.0206
2784.00,0.0206
2783.00,0.0206
2782.00,0.0205
2781.00,0.0205
2780.00,0.0205
2779.00,0.0205
2778.00,0.0205
2777.00,0.0204
2776.00,0.0204
2775.00,0.0204
2774.00,0.0203
2773.00,0.0203
2772.00,0.0203
2771.00,0.0202
2770.00,0.0202
2769.00,0.0202
2768.00,0.0202
2767.00,0.0201
2766.00,0.0201
2765.00,0.0201
2764.00,0.0201
2763.00,0.0201
2762.00,0.0201
2761.00,0.0200
2760.00,0.0200
2759.00,0.0200
2758.00,0.0200
2757.00,0.0200
2756.00,0.0200
2755.00,0.0201
2754.00,0.0201
2753.00,0.0201
2752.00,0.0201
2751.00,0.0202
2750.00,0.0202
2749.00,0.0202
2748.00,0.0203
2747.00,0.0203
2746.00,0.0203
2745.00,0.0203
2744.00,0.0203
2743.00,0.0203
2742.00,0.0203
2741.00,0.0203
2740.00,0.0203
2739.00,0.0204
2738.00,0.0204
2737.00,0.0204
2736.00,0.0204
2735.00,0.0204
2734.00,0.0204
2733.00,0.0204
2732.00,0.0205
2731.00,0.0205
2730.00,0.0206
2729.00,0.0206
2728.00,0.0206
2727.00,0.0206
2726.00,0.0207
2725.00,0.0207
2724.00,0.0207
2723.00,0.0207
2722.00,0.0206
2721.00,0.0206
2720.00,0.0206
2719.00,0.0205
2718.00,0.0205
2717.00,0.0204
2716.00,0.0204
2715.00,0.0203
2714.00,0.0203
2713.00,0.0202
2712.00,0.0202
2711.00,0.0202
2710.00,0.0202
2709.00,0.0201
2708.00,0.0201
2707.00,0.0201
2706.00,0.0201
2705.00,0.0201
2704.00,0.0201
2703.00,0.0201
2702.00,0.0200
2701.00,0.0200
2700.00,0.0200
2699.00,0.0200
2698.00,0.0200
2697.00,0.0200
2696.00,0.0200
2695.00,0.0200
2694.00,0.0200
2693.00,0.0200
2692.00,0.0200
2691.00,0.0200
2690.00,0.0201
2689.00,0.0201
2688.00,0.0201
2687.00,0.0201
2686.00,0.0202
2685.00,0.0202
2684.00,0.0202
2683.00,0.0203
2682.00,0.0203
2681.00,0.0203
2680.00,0.0204
2679.00,0.0204
2678.00,0.0204
2677.00,0.0204
2676.00,0.0204
2675.00,0.0204
2674.00,0.0204
2673.00,0.0204
2672.00,0.0204
2671.00,0.0203
2670.00,0.0203
2669.00,0.0203
2668.00,0.0203
2667.00,0.0203
2666.00,0.0203
2665.00,0.0203
2664.00,0.0203
2663.00,0.0203
2662.00,0.0202
2661.00,0.0202
2660.00,0.0202
2659.00,0.0202
2658.00,0.0202
2657.00,0.0202
2656.00,0.0202
2655.00,0.0202
2654.00,0.0202
2653.00,0.0202
2652.00,0.0202
2651.00,0.0202
2650.00,0.0202
2649.00,0.0202
2648.00,0.0202
2647.00,0.0201
2646.00,0.0201
2645.00,0.0201
2644.00,0.0202
2643.00,0.0202
2642.00,0.0202
2641.00,0.0202
2640.00,0.0202
2639.00,0.0202
2638.00,0.0202
2637.00,0.0202
2636.00,0.0202
2635.00,0.0202
2634.00,0.0202
2633.00,0.0202
2632.00,0.0201
2631.00,0.0201
2630.00,0.0200
2629.00,0.0200
2628.00,0.0199
2627.00,0.0199
2626.00,0.0198
2625.00,0.0198
2624.00,0.0198
2623.00,0.0198
2622.00,0.0198
2621.00,0.0198
2620.00,0.0198
2619.00,0.0198
2618.00,0.0197
2617.00,0.0197
2616.00,0.0197
2615.00,0.0197
2614.00,0.0197
2613.00,0.0198
2612.00,0.0198
2611.00,0.0198
2610.00,0.0199
2609.00,0.0199
2608.00,0.0199
2607.00,0.0199
2606.00,0.0199
2605.00,0.0199
2604.00,0.0199
2603.00,0.0199
2602.00,0.0199
2601.00,0.0198
2600.00,0.0198
2599.00,0.0198
2598.00,0.0197
2597.00,0.0197
2596.00,0.0197
2595.00,0.0197
2594.00,0.0196
2593.00,0.0196
2592.00,0.0197
2591.00,0.0197
2590.00,0.0197
2589.00,0.0198
2588.00,0.0198
2587.00,0.0198
2586.00,0.0198
2585.00,0.0199
2584.00,0.0199
2583.00,0.0199
2582.00,0.0200
2581.00,0.0200
2580.00,0.0200
2579.00,0.0200
2578.00,0.0199
2577.00,0.0199
2576.00,0.0199
2575.00,0.0199
2574.00,0.0199
2573.00,0.0199
2572.00,0.0199
2571.00,0.0198
2570.00,0.0198
2569.00,0.0198
2568.00,0.0198
2567.00,0.0198
2566.00,0.0198
2565.00,0.0198
2564.00,0.0198
2563.00,0.0198
2562.00,0.0198
2561.00,0.0198
2560.00,0.0198
2559.00,0.0199
2558.00,0.0199
2557.00,0.0199
2556.00,0.0199
2555.00,0.0199
2554.00,0.0199
2553.00,0.0199
2552.00,0.0199
2551.00,0.0199
2550.00,0.0199
2549.00,0.0199
2548.00,0.0199
2547.00,0.0199
2546.00,0.0199
2545.00,0.0199
2544.00,0.0199
2543.00,0.0199
2542.00,0.0199
2541.00,0.0199
2540.00,0.0199
2539.00,0.0199
2538.00,0.0200
2537.00,0.0200
2536.00,0.0201
2535.00,0.0201
2534.00,0.0201
2533.00,0.0202
2532.00,0.0203
2531.00,0.0203
2530.00,0.0203
2529.00,0.0204
2528.00,0.0204
2527.00,0.0205
2526.00,0.0205
2525.00,0.0205
2524.00,0.0206
2523.00,0.0206
2522.00,0.0206
2521.00,0.0206
2520.00,0.0206
2519.00,0.0206
2518.00,0.0206
2517.00,0.0206
2516.00,0.0206
2515.00,0.0207
2514.00,0.0207
2513.00,0.0207
2512.00,0.0206
2511.00,0.0206
2510.00,0.0205
2509.00,0.0204
2508.00,0.0204
2507.00,0.0204
2506.00,0.0203
2505.00,0.0203
2504.00,0.0203
2503.00,0.0202
2502.00,0.0202
2501.00,0.0201
2500.00,0.0201
2499.00,0.0200
2498.00,0.0200
2497.00,0.0200
2496.00,0.0200
2495.00,0.0201
2494.00,0.0201
2493.00,0.0201
2492.00,0.0201
2491.00,0.0201
2490.00,0.0201
2489.00,0.0201
2488.00,0.0201
2487.00,0.0201
2486.00,0.0201
2485.00,0.0201
2484.00,0.0201
2483.00,0.0201
2482.00,0.0200
2481.00,0.0200
2480.00,0.0200
2479.00,0.0199
2478.00,0.0199
2477.00,0.0198
2476.00,0.0198
2475.00,0.0197
2474.00,0.0197
2473.00,0.0197
2472.00,0.0196
2471.00,0.0196
2470.00,0.0195
2469.00,0.0195
2468.00,0.0194
2467.00,0.0194
2466.00,0.0194
2465.00,0.0193
2464.00,0.0193
2463.00,0.0192
2462.00,0.0192
2461.00,0.0191
2460.00,0.0191
2459.00,0.0190
2458.00,0.0190
2457.00,0.0189
2456.00,0.0189
2455.00,0.0188
2454.00,0.0188
2453.00,0.0187
2452.00,0.0187
2451.00,0.0187
2450.00,0.0186
2449.00,0.0185
2448.00,0.0185
2447.00,0.0184
2446.00,0.0184
2445.00,0.0183
2444.00,0.0183
2443.00,0.0182
2442.00,0.0182
2441.00,0.0181
2440.00,0.0181
2439.00,0.0181
2438.00,0.0180
2437.00,0.0180
2436.00,0.0179
2435.00,0.0179
2434.00,0.0179
2433.00,0.0179
2432.00,0.0178
2431.00,0.0178
2430.00,0.0178
2429.00,0.0178
2428.00,0.0177
2427.00,0.0177
2426.00,0.0177
2425.00,0.0176
2424.00,0.0176
2423.00,0.0176
2422.00,0.0176
2421.00,0.0176
2420.00,0.0176
2419.00,0.0175
2418.00,0.0175
2417.00,0.0175
2416.00,0.0175
2415.00,0.0174
2414.00,0.0174
2413.00,0.0174
2412.00,0.0174
2411.00,0.0173
2410.00,0.0173
2409.00,0.0172
2408.00,0.0172
2407.00,0.0172
2406.00,0.0171
2405.00,0.0171
2404.00,0.0171
2403.00,0.0170
2402.00,0.0170
2401.00,0.0169
2400.00,0.0169
2399.00,0.0168
2398.00,0.0168
2397.00,0.0167
2396.00,0.0167
2395.00,0.0166
2394.00,0.0166
2393.00,0.0166
2392.00,0.0165
2391.00,0.0165
2390.00,0.0165
2389.00,0.0164
2388.00,0.0164
2387.00,0.0163
2386.00,0.0163
2385.00,0.0162
2384.00,0.0162
2383.00,0.0162
2382.00,0.0161
2381.00,0.0161
2380.00,0.0160
2379.00,0.0160
2378.00,0.0159
2377.00,0.0159
2376.00,0.0158
2375.00,0.0157
2374.00,0.0157
2373.00,0.0156
2372.00,0.0156
2371.00,0.0155
2370.00,0.0155
2369.00,0.0154
2368.00,0.0154
2367.00,0.0153
2366.00,0.0153
2365.00,0.0153
2364.00,0.0152
2363.00,0.0152
2362.00,0.0151
2361.00,0.0150
2360.00,0.0150
2359.00,0.0149
2358.00,0.0149
2357.00,0.0148
2356.00,0.0148
2355.00,0.0147
2354.00,0.0147
2353.00,0.0146
2352.00,0.0146
2351.00,0.0145
2350.00,0.0145
2349.00,0.0144
2348.00,0.0144
2347.00,0.0143
2346.00,0.0143
2345.00,0.0142
2344.00,0.0141
2343.00,0.0141
2342.00,0.0140
2341.00,0.0140
2340.00,0.0140
2339.00,0.0139
2338.00,0.0139
2337.00,0.0138
2336.00,0.0137
2335.00,0.0137
2334.00,0.0137
2333.00,0.0137
2332.00,0.0137
2331.00,0.0136
2330.00,0.0135
2329.00,0.0134
2328.00,0.0134
2327.00,0.0133
2326.00,0.0133
2325.00,0.0133
2324.00,0.0132
2323.00,0.0132
2322.00,0.0131
2321.00,0.0131
2320.00,0.0130
2319.00,0.0130
2318.00,0.0129
2317.00,0.0129
2316.00,0.0129
2315.00,0.0128
2314.00,0.0128
2313.00,0.0128
2312.00,0.0127
2311.00,0.0127
2310.00,0.0127
2309.00,0.0126
2308.00,0.0126
2307.00,0.0125
2306.00,0.0125
2305.00,0.0125
2304.00,0.0124
2303.00,0.0124
2302.00,0.0123
2301.00,0.0123
2300.00,0.0122
2299.00,0.0122
2298.00,0.0122
2297.00,0.0122
2296.00,0.0121
2295.00,0.0121
2294.00,0.0120
2293.00,0.0120
2292.00,0.0120
2291.00,0.0119
2290.00,0.0119
2289.00,0.0118
2288.00,0.0118
2287.00,0.0118
2286.00,0.0118
2285.00,0.0117
2284.00,0.0117
2283.00,0.0117
2282.00,0.0116
2281.00,0.0116
2280.00,0.0116
2279.00,0.0115
2278.00,0.0115
2277.00,0.0114
2276.00,0.0114
2275.00,0.0114
2274.00,0.0113
2273.00,0.0113
2272.00,0.0112
2271.00,0.0112
2270.00,0.0112
2269.00,0.0111
2268.00,0.0111
2267.00,0.0111
2266.00,0.0110
2265.00,0.0110
2264.00,0.0109
2263.00,0.0109
2262.00,0.0109
2261.00,0.0109
2260.00,0.0108
2259.00,0.0108
2258.00,0.0108
2257.00,0.0108
2256.00,0.0108
2255.00,0.0108
2254.00,0.0108
2253.00,0.0108
2252.00,0.0108
2251.00,0.0107
2250.00,0.0107
2249.00,0.0107
2248.00,0.0107
2247.00,0.0106
2246.00,0.0106
2245.00,0.0105
2244.00,0.0105
2243.00,0.0104
2242.00,0.0104
2241.00,0.0104
2240.00,0.0104
2239.00,0.0104
2238.00,0.0103
2237.00,0.0103
2236.00,0.0103
2235.00,0.0103
2234.00,0.0103
2233.00,0.0103
2232.00,0.0104
2231.00,0.0104
2230.00,0.0104
2229.00,0.0103
2228.00,0.0103
2227.00,0.0102
2226.00,0.0102
2225.00,0.0101
2224.00,0.0101
2223.00,0.0100
2222.00,0.0100
2221.00,0.0100
2220.00,0.0100
2219.00,0.0100
2218.00,0.0100
2217.00,0.0100
2216.00,0.0100
2215.00,0.0099
2214.00,0.0099
2213.00,0.0099
2212.00,0.0099
2211.00,0.0099
2210.00,0.0099
2209.00,0.0099
2208.00,0.0099
2207.00,0.0099
2206.00,0.0098
2205.00,0.0098
2204.00,0.0097
2203.00,0.0097
2202.00,0.0096
2201.00,0.0096
2200.00,0.0096
2199.00,0.0095
2198.00,0.0095
2197.00,0.0094
2196.00,0.0095
2195.00,0.0095
2194.00,0.0095
2193.00,0.0095
2192.00,0.0095
2191.00,0.0095
2190.00,0.0095
2189.00,0.0095
2188.00,0.0094
2187.00,0.0094
2186.00,0.0094
2185.00,0.0095
2184.00,0.0095
2183.00,0.0094
2182.00,0.0093
2181.00,0.0093
2180.00,0.0093
2179.00,0.0093
2178.00,0.0093
2177.00,0.0093
2176.00,0.0093
2175.00,0.0093
2174.00,0.0092
2173.00,0.0092
2172.00,0.0091
2171.00,0.0091
2170.00,0.0090
2169.00,0.0089
2168.00,0.0089
2167.00,0.0088
2166.00,0.0088
2165.00,0.0087
2164.00,0.0087
2163.00,0.0088
2162.00,0.0089
2161.00,0.0090
2160.00,0.0090
2159.00,0.0090
2158.00,0.0089
2157.00,0.0088
2156.00,0.0087
2155.00,0.0086
2154.00,0.0086
2153.00,0.0086
2152.00,0.0087
2151.00,0.0087
2150.00,0.0087
2149.00,0.0087
2148.00,0.0087
2147.00,0.0087
2146.00,0.0088
2145.00,0.0088
2144.00,0.0088
2143.00,0.0088
2142.00,0.0088
2141.00,0.0088
2140.00,0.0087
2139.00,0.0087
2138.00,0.0087
2137.00,0.0087
2136.00,0.0087
2135.00,0.0087
2134.00,0.0086
2133.00,0.0085
2132.00,0.0085
2131.00,0.0085
2130.00,0.0085
2129.00,0.0085
2128.00,0.0085
2127.00,0.0084
2126.00,0.0084
2125.00,0.0084
2124.00,0.0084
2123.00,0.0084
2122.00,0.0084
2121.00,0.0084
2120.00,0.0084
2119.00,0.0084
2118.00,0.0083
2117.00,0.0083
2116.00,0.0082
2115.00,0.0082
2114.00,0.0082
2113.00,0.0082
2112.00,0.0082
2111.00,0.0082
2110.00,0.0081
2109.00,0.0081
2108.00,0.0081
2107.00,0.0081
2106.00,0.0081
2105.00,0.0081
2104.00,0.0081
2103.00,0.0081
2102.00,0.0081
2101.00,0.0081
2100.00,0.0081
2099.00,0.0081
2098.00,0.0081
2097.00,0.0081
2096.00,0.0081
2095.00,0.0081
2094.00,0.0082
2093.00,0.0082
2092.00,0.0082
2091.00,0.0081
2090.00,0.0081
2089.00,0.0081
2088.00,0.0081
2087.00,0.0080
2086.00,0.0080
2085.00,0.0080
2084.00,0.0079
2083.00,0.0079
2082.00,0.0079
2081.00,0.0079
2080.00,0.0079
2079.00,0.0079
2078.00,0.0079
2077.00,0.0079
2076.00,0.0079
2075.00,0.0079
2074.00,0.0079
2073.00,0.0079
2072.00,0.0079
2071.00,0.0079
2070.00,0.0079
2069.00,0.0080
2068.00,0.0080
2067.00,0.0080
2066.00,0.0080
2065.00,0.0080
2064.00,0.0080
2063.00,0.0080
2062.00,0.0080
2061.00,0.0080
2060.00,0.0079
2059.00,0.0079
2058.00,0.0079
2057.00,0.0079
2056.00,0.0079
2055.00,0.0079
2054.00,0.0078
2053.00,0.0078
2052.00,0.0078
2051.00,0.0079
2050.00,0.0079
2049.00,0.0079
2048.00,0.0078
2047.00,0.0078
2046.00,0.0078
2045.00,0.0078
2044.00,0.0079
2043.00,0.0079
2042.00,0.0079
2041.00,0.0079
2040.00,0.0080
2039.00,0.0080
2038.00,0.0080
2037.00,0.0080
2036.00,0.0079
2035.00,0.0079
2034.00,0.0078
2033.00,0.0079
2032.00,0.0080
2031.00,0.0081
2030.00,0.0081
2029.00,0.0082
2028.00,0.0082
2027.00,0.0081
2026.00,0.0080
2025.00,0.0079
2024.00,0.0079
2023.00,0.0079
2022.00,0.0079
2021.00,0.0079
2020.00,0.0079
2019.00,0.0079
2018.00,0.0080
2017.00,0.0081
2016.00,0.0082
2015.00,0.0082
2014.00,0.0082
2013.00,0.0082
2012.00,0.0082
2011.00,0.0082
2010.00,0.0083
2009.00,0.0083
2008.00,0.0083
2007.00,0.0083
2006.00,0.0083
2005.00,0.0084
2004.00,0.0084
2003.00,0.0085
2002.00,0.0085
2001.00,0.0085
2000.00,0.0084
1999.00,0.0084
1998.00,0.0083
1997.00,0.0083
1996.00,0.0082
1995.00,0.0082
1994.00,0.0083
1993.00,0.0083
1992.00,0.0084
1991.00,0.0084
1990.00,0.0084
1989.00,0.0084
1988.00,0.0084
1987.00,0.0084
1986.00,0.0084
1985.00,0.0084
1984.00,0.0084
1983.00,0.0084
1982.00,0.0084
1981.00,0.0084
1980.00,0.0084
1979.00,0.0085
1978.00,0.0086
1977.00,0.0088
1976.00,0.0089
1975.00,0.0089
1974.00,0.0090
1973.00,0.0091
1972.00,0.0092
1971.00,0.0092
1970.00,0.0092
1969.00,0.0091
1968.00,0.0091
1967.00,0.0091
1966.00,0.0091
1965.00,0.0092
1964.00,0.0092
1963.00,0.0093
1962.00,0.0093
1961.00,0.0093
1960.00,0.0093
1959.00,0.0093
1958.00,0.0093
1957.00,0.0094
1956.00,0.0094
1955.00,0.0095
1954.00,0.0095
1953.00,0.0096
1952.00,0.0095
1951.00,0.0095
1950.00,0.0095
1949.00,0.0096
1948.00,0.0096
1947.00,0.0097
1946.00,0.0097
1945.00,0.0098
1944.00,0.0099
1943.00,0.0100
1942.00,0.0100
1941.00,0.0100
1940.00,0.0100
1939.00,0.0100
1938.00,0.0100
1937.00,0.0101
1936.00,0.0101
1935.00,0.0102
1934.00,0.0103
1933.00,0.0103
1932.00,0.0104
1931.00,0.0104
1930.00,0.0104
1929.00,0.0104
1928.00,0.0104
1927.00,0.0103
1926.00,0.0103
1925.00,0.0102
1924.00,0.0102
1923.00,0.0102
1922.00,0.0102
1921.00,0.0103
1920.00,0.0103
1919.00,0.0103
1918.00,0.0103
1917.00,0.0103
1916.00,0.0103
1915.00,0.0103
1914.00,0.0103
1913.00,0.0103
1912.00,0.0102
1911.00,0.0102
1910.00,0.0102
1909.00,0.0102
1908.00,0.0102
1907.00,0.0101
1906.00,0.0101
1905.00,0.0100
1904.00,0.0100
1903.00,0.0100
1902.00,0.0100
1901.00,0.0099
1900.00,0.0099
1899.00,0.0099
1898.00,0.0098
1897.00,0.0098
1896.00,0.0097
1895.00,0.0097
1894.00,0.0096
1893.00,0.0096
1892.00,0.0096
1891.00,0.0095
1890.00,0.0095
1889.00,0.0094
1888.00,0.0094
1887.00,0.0094
1886.00,0.0094
1885.00,0.0093
1884.00,0.0093
1883.00,0.0093
1882.00,0.0092
1881.00,0.0091
1880.00,0.0091
1879.00,0.0090
1878.00,0.0090
1877.00,0.0089
1876.00,0.0089
1875.00,0.0088
1874.00,0.0088
1873.00,0.0088
1872.00,0.0088
1871.00,0.0087
1870.00,0.0087
1869.00,0.0086
1868.00,0.0086
1867.00,0.0085
1866.00,0.0085
1865.00,0.0084
1864.00,0.0084
1863.00,0.0084
1862.00,0.0083
1861.00,0.0083
1860.00,0.0082
1859.00,0.0082
1858.00,0.0081
1857.00,0.0081
1856.00,0.0080
1855.00,0.0079
1854.00,0.0079
1853.00,0.0078
1852.00,0.0078
1851.00,0.0077
1850.00,0.0077
1849.00,0.0076
1848.00,0.0076
1847.00,0.0076
1846.00,0.0075
1845.00,0.0075
1844.00,0.0075
1843.00,0.0075
1842.00,0.0074
1841.00,0.0074
1840.00,0.0074
1839.00,0.0073
1838.00,0.0073
1837.00,0.0073
1836.00,0.0072
1835.00,0.0072
1834.00,0.0072
1833.00,0.0072
1832.00,0.0072
1831.00,0.0071
1830.00,0.0071
1829.00,0.0071
1828.00,0.0071
1827.00,0.0070
1826.00,0.0070
1825.00,0.0070
1824.00,0.0070
1823.00,0.0070
1822.00,0.0069
1821.00,0.0069
1820.00,0.0069
1819.00,0.0069
1818.00,0.0069
1817.00,0.0069
1816.00,0.0069
1815.00,0.0069
1814.00,0.0069
1813.00,0.0069
1812.00,0.0069
1811.00,0.0069
1810.00,0.0069
1809.00,0.0069
1808.00,0.0069
1807.00,0.0069
1806.00,0.0068
1805.00,0.0068
1804.00,0.0068
1803.00,0.0068
1802.00,0.0068
1801.00,0.0068
1800.00,0.0068
1799.00,0.0068
1798.00,0.0068
1797.00,0.0068
1796.00,0.0068
1795.00,0.0067
1794.00,0.0067
1793.00,0.0067
1792.00,0.0067
1791.00,0.0067
1790.00,0.0067
1789.00,0.0066
1788.00,0.0066
1787.00,0.0066
1786.00,0.0065
1785.00,0.0065
1784.00,0.0065
1783.00,0.0065
1782.00,0.0065
1781.00,0.0065
1780.00,0.0064
1779.00,0.0064
1778.00,0.0064
1777.00,0.0064
1776.00,0.0064
1775.00,0.0064
1774.00,0.0064
1773.00,0.0064
1772.00,0.0064
1771.00,0.0063
1770.00,0.0063
1769.00,0.0063
1768.00,0.0063
1767.00,0.0063
1766.00,0.0063
1765.00,0.0063
1764.00,0.0063
1763.00,0.0062
1762.00,0.0062
1761.00,0.0062
1760.00,0.0062
1759.00,0.0062
1758.00,0.0061
1757.00,0.0061
1756.00,0.0061
1755.00,0.0061
1754.00,0.0060
1753.00,0.0060
1752.00,0.0060
1751.00,0.0060
1750.00,0.0060
1749.00,0.0060
1748.00,0.0060
1747.00,0.0060
1746.00,0.0060
1745.00,0.0060
1744.00,0.0061
1743.00,0.0061
1742.00,0.0061
1741.00,0.0062
1740.00,0.0062
1739.00,0.0062
1738.00,0.0062
1737.00,0.0062
1736.00,0.0062
1735.00,0.0062
1734.00,0.0063
1733.00,0.0063
1732.00,0.0064
1731.00,0.0064
1730.00,0.0065
1729.00,0.0065
1728.00,0.0065
1727.00,0.0065
1726.00,0.0065
1725.00,0.0065
1724.00,0.0066
1723.00,0.0066
1722.00,0.0066
1721.00,0.0066
1720.00,0.0067
1719.00,0.0067
1718.00,0.0067
1717.00,0.0067
1716.00,0.0068
1715.00,0.0068
1714.00,0.0068
1713.00,0.0068
1712.00,0.0068
1711.00,0.0068
1710.00,0.0068
1709.00,0.0069
1708.00,0.0069
1707.00,0.0069
1706.00,0.0069
1705.00,0.0069
1704.00,0.0070
1703.00,0.0070
1702.00,0.0070
1701.00,0.0071
1700.00,0.0071
1699.00,0.0072
1698.00,0.0073
1697.00,0.0073
1696.00,0.0074
1695.00,0.0074
1694.00,0.0075
1693.00,0.0076
1692.00,0.0077
1691.00,0.0077
1690.00,0.0078
1689.00,0.0078
1688.00,0.0079
1687.00,0.0080
1686.00,0.0081
1685.00,0.0081
1684.00,0.0083
1683.00,0.0084
1682.00,0.0085
1681.00,0.0086
1680.00,0.0087
1679.00,0.0088
1678.00,0.0089
1677.00,0.0090
1676.00,0.0092
1675.00,0.0095
1674.00,0.0097
1673.00,0.0100
1672.00,0.0103
1671.00,0.0107
1670.00,0.0112
1669.00,0.0118
1668.00,0.0125
1667.00,0.0131
1666.00,0.0135
1665.00,0.0140
1664.00,0.0143
1663.00,0.0147
1662.00,0.0150
1661.00,0.0153
1660.00,0.0158
1659.00,0.0163
1658.00,0.0168
1657.00,0.0175
1656.00,0.0182
1655.00,0.0189
1654.00,0.0200
1653.00,0.0215
1652.00,0.0231
1651.00,0.0244
1650.00,0.0255
1649.00,0.0267
1648.00,0.0283
1647.00,0.0304
1646.00,0.0328
1645.00,0.0352
1644.00,0.0374
1643.00,0.0394
1642.00,0.0413
1641.00,0.0433
1640.00,0.0451
1639.00,0.0467
1638.00,0.0479
1637.00,0.0490
1636.00,0.0500
1635.00,0.0509
1634.00,0.0515
1633.00,0.0517
1632.00,0.0517
1631.00,0.0515
1630.00,0.0513
1629.00,0.0511
1628.00,0.0511
1627.00,0.0512
1626.00,0.0514
1625.00,0.0517
1624.00,0.0522
1623.00,0.0530
1622.00,0.0539
1621.00,0.0550
1620.00,0.0560
1619.00,0.0571
1618.00,0.0584
1617.00,0.0603
1616.00,0.0624
1615.00,0.0643
1614.00,0.0656
1613.00,0.0664
1612.00,0.0669
1611.00,0.0671
1610.00,0.0671
1609.00,0.0669
1608.00,0.0667
1607.00,0.0666
1606.00,0.0667
1605.00,0.0669
1604.00,0.0675
1603.00,0.0683
1602.00,0.0692
1601.00,0.0704
1600.00,0.0715
1599.00,0.0727
1598.00,0.0737
1597.00,0.0746
1596.00,0.0754
1595.00,0.0759
1594.00,0.0761
1593.00,0.0760
1592.00,0.0754
1591.00,0.0745
1590.00,0.0730
1589.00,0.0712
1588.00,0.0692
1587.00,0.0669
1586.00,0.0645
1585.00,0.0621
1584.00,0.0598
1583.00,0.0578
1582.00,0.0561
1581.00,0.0549
1580.00,0.0543
1579.00,0.0544
1578.00,0.0557
1577.00,0.0588
1576.00,0.0642
1575.00,0.0707
1574.00,0.0765
1573.00,0.0812
1572.00,0.0846
1571.00,0.0869
1570.00,0.0879
1569.00,0.0879
1568.00,0.0872
1567.00,0.0857
1566.00,0.0835
1565.00,0.0807
1564.00,0.0777
1563.00,0.0748
1562.00,0.0716
1561.00,0.0679
1560.00,0.0632
1559.00,0.0580
1558.00,0.0536
1557.00,0.0505
1556.00,0.0479
1555.00,0.0455
1554.00,0.0430
1553.00,0.0407
1552.00,0.0388
1551.00,0.0372
1550.00,0.0356
1549.00,0.0342
1548.00,0.0330
1547.00,0.0320
1546.00,0.0310
1545.00,0.0299
1544.00,0.0290
1543.00,0.0282
1542.00,0.0274
1541.00,0.0264
1540.00,0.0254
1539.00,0.0246
1538.00,0.0240
1537.00,0.0235
1536.00,0.0231
1535.00,0.0226
1534.00,0.0221
1533.00,0.0215
1532.00,0.0212
1531.00,0.0209
1530.00,0.0206
1529.00,0.0203
1528.00,0.0200
1527.00,0.0198
1526.00,0.0196
1525.00,0.0194
1524.00,0.0193
1523.00,0.0191
1522.00,0.0189
1521.00,0.0187
1520.00,0.0186
1519.00,0.0186
1518.00,0.0184
1517.00,0.0182
1516.00,0.0181
1515.00,0.0179
1514.00,0.0178
1513.00,0.0177
1512.00,0.0176
1511.00,0.0175
1510.00,0.0175
1509.00,0.0175
1508.00,0.0175
1507.00,0.0175
1506.00,0.0175
1505.00,0.0175
1504.00,0.0175
1503.00,0.0175
1502.00,0.0175
1501.00,0.0175
1500.00,0.0175
1499.00,0.0175
1498.00,0.0175
1497.00,0.0175
1496.00,0.0175
1495.00,0.0175
1494.00,0.0175
1493.00,0.0175
1492.00,0.0175
1491.00,0.0174
1490.00,0.0174
1489.00,0.0173
1488.00,0.0173
1487.00,0.0173
1486.00,0.0172
1485.00,0.0172
1484.00,0.0172
1483.00,0.0173
1482.00,0.0175
1481.00,0.0179
1480.00,0.0184
1479.00,0.0190
1478.00,0.0198
1477.00,0.0208
1476.00,0.0221
1475.00,0.0236
1474.00,0.0256
1473.00,0.0283
1472.00,0.0318
1471.00,0.0353
1470.00,0.0382
1469.00,0.0400
1468.00,0.0408
1467.00,0.0407
1466.00,0.0400
1465.00,0.0393
1464.00,0.0388
1463.00,0.0386
1462.00,0.0385
1461.00,0.0386
1460.00,0.0387
1459.00,0.0387
1458.00,0.0388
1457.00,0.0390
1456.00,0.0391
1455.00,0.0392
1454.00,0.0390
1453.00,0.0387
1452.00,0.0382
1451.00,0.0376
1450.00,0.0370
1449.00,0.0364
1448.00,0.0358
1447.00,0.0355
1446.00,0.0353
1445.00,0.0351
1444.00,0.0349
1443.00,0.0346
1442.00,0.0342
1441.00,0.0338
1440.00,0.0332
1439.00,0.0326
1438.00,0.0319
1437.00,0.0312
1436.00,0.0308
1435.00,0.0307
1434.00,0.0309
1433.00,0.0311
1432.00,0.0311
1431.00,0.0307
1430.00,0.0300
1429.00,0.0292
1428.00,0.0287
1427.00,0.0286
1426.00,0.0290
1425.00,0.0301
1424.00,0.0321
1423.00,0.0347
1422.00,0.0373
1421.00,0.0394
1420.00,0.0402
1419.00,0.0396
1418.00,0.0383
1417.00,0.0374
1416.00,0.0373
1415.00,0.0381
1414.00,0.0397
1413.00,0.0418
1412.00,0.0443
1411.00,0.0467
1410.00,0.0488
1409.00,0.0504
1408.00,0.0515
1407.00,0.0520
1406.00,0.0521
1405.00,0.0521
1404.00,0.0519
1403.00,0.0516
1402.00,0.0511
1401.00,0.0503
1400.00,0.0492
1399.00,0.0477
1398.00,0.0461
1397.00,0.0445
1396.00,0.0429
1395.00,0.0417
1394.00,0.0411
1393.00,0.0411
1392.00,0.0413
1391.00,0.0414
1390.00,0.0415
1389.00,0.0417
1388.00,0.0424
1387.00,0.0438
1386.00,0.0457
1385.00,0.0480
1384.00,0.0505
1383.00,0.0532
1382.00,0.0558
1381.00,0.0580
1380.00,0.0596
1379.00,0.0608
1378.00,0.0618
1377.00,0.0626
1376.00,0.0635
1375.00,0.0640
1374.00,0.0639
1373.00,0.0629
1372.00,0.0611
1371.00,0.0590
1370.00,0.0569
1369.00,0.0553
1368.00,0.0543
1367.00,0.0537
1366.00,0.0532
1365.00,0.0523
1364.00,0.0507
1363.00,0.0485
1362.00,0.0459
1361.00,0.0436
1360.00,0.0416
1359.00,0.0402
1358.00,0.0392
1357.00,0.0384
1356.00,0.0377
1355.00,0.0368
1354.00,0.0357
1353.00,0.0344
1352.00,0.0330
1351.00,0.0316
1350.00,0.0303
1349.00,0.0291
1348.00,0.0282
1347.00,0.0275
1346.00,0.0271
1345.00,0.0268
1344.00,0.0265
1343.00,0.0262
1342.00,0.0258
1341.00,0.0254
1340.00,0.0251
1339.00,0.0249
1338.00,0.0249
1337.00,0.0249
1336.00,0.0250
1335.00,0.0253
1334.00,0.0257
1333.00,0.0264
1332.00,0.0273
1331.00,0.0286
1330.00,0.0305
1329.00,0.0330
1328.00,0.0361
1327.00,0.0393
1326.00,0.0420
1325.00,0.0439
1324.00,0.0446
1323.00,0.0447
1322.00,0.0443
1321.00,0.0439
1320.00,0.0435
1319.00,0.0432
1318.00,0.0426
1317.00,0.0418
1316.00,0.0407
1315.00,0.0396
1314.00,0.0388
1313.00,0.0385
1312.00,0.0386
1311.00,0.0393
1310.00,0.0404
1309.00,0.0421
1308.00,0.0445
1307.00,0.0477
1306.00,0.0514
1305.00,0.0550
1304.00,0.0577
1303.00,0.0591
1302.00,0.0592
1301.00,0.0587
1300.00,0.0581
1299.00,0.0577
1298.00,0.0579
1297.00,0.0585
1296.00,0.0597
1295.00,0.0612
1294.00,0.0632
1293.00,0.0656
1292.00,0.0683
1291.00,0.0711
1290.00,0.0733
1289.00,0.0745
1288.00,0.0744
1287.00,0.0730
1286.00,0.0705
1285.00,0.0672
1284.00,0.0636
1283.00,0.0600
1282.00,0.0570
1281.00,0.0547
1280.00,0.0534
1279.00,0.0528
1278.00,0.0527
1277.00,0.0528
1276.00,0.0528
1275.00,0.0526
1274.00,0.0524
1273.00,0.0521
1272.00,0.0519
1271.00,0.0519
1270.00,0.0521
1269.00,0.0526
1268.00,0.0535
1267.00,0.0547
1266.00,0.0563
1265.00,0.0581
1264.00,0.0603
1263.00,0.0631
1262.00,0.0667
1261.00,0.0713
1260.00,0.0770
1259.00,0.0836
1258.00,0.0908
1257.00,0.0982
1256.00,0.1053
1255.00,0.1116
1254.00,0.1167
1253.00,0.1205
1252.00,0.1234
1251.00,0.1258
1250.00,0.1277
1249.00,0.1292
1248.00,0.1299
1247.00,0.1293
1246.00,0.1271
1245.00,0.1236
1244.00,0.1191
1243.00,0.1140
1242.00,0.1088
1241.00,0.1040
1240.00,0.1000
1239.00,0.0972
1238.00,0.0960
1237.00,0.0965
1236.00,0.0983
1235.00,0.1006
1234.00,0.1020
1233.00,0.1018
1232.00,0.0996
1231.00,0.0959
1230.00,0.0912
1229.00,0.0862
1228.00,0.0815
1227.00,0.0775
1226.00,0.0748
1225.00,0.0736
1224.00,0.0734
1223.00,0.0733
1222.00,0.0723
1221.00,0.0700
1220.00,0.0666
1219.00,0.0626
1218.00,0.0586
1217.00,0.0549
1216.00,0.0516
1215.00,0.0487
1214.00,0.0461
1213.00,0.0438
1212.00,0.0417
1211.00,0.0400
1210.00,0.0385
1209.00,0.0374
1208.00,0.0367
1207.00,0.0364
1206.00,0.0366
1205.00,0.0373
1204.00,0.0386
1203.00,0.0407
1202.00,0.0440
1201.00,0.0487
1200.00,0.0552
1199.00,0.0634
1198.00,0.0725
1197.00,0.0810
1196.00,0.0874
1195.00,0.0908
1194.00,0.0912
1193.00,0.0895
1192.00,0.0869
1191.00,0.0843
1190.00,0.0820
1189.00,0.0798
1188.00,0.0777
1187.00,0.0756
1186.00,0.0737
1185.00,0.0719
1184.00,0.0701
1183.00,0.0681
1182.00,0.0656
1181.00,0.0624
1180.00,0.0587
1179.00,0.0548
1178.00,0.0511
1177.00,0.0479
1176.00,0.0454
1175.00,0.0439
1174.00,0.0433
1173.00,0.0435
1172.00,0.0440
1171.00,0.0444
1170.00,0.0440
1169.00,0.0429
1168.00,0.0412
1167.00,0.0391
1166.00,0.0369
1165.00,0.0348
1164.00,0.0327
1163.00,0.0306
1162.00,0.0288
1161.00,0.0271
1160.00,0.0257
1159.00,0.0245
1158.00,0.0235
1157.00,0.0228
1156.00,0.0223
1155.00,0.0221
1154.00,0.0224
1153.00,0.0231
1152.00,0.0244
1151.00,0.0262
1150.00,0.0285
1149.00,0.0308
1148.00,0.0327
1147.00,0.0339
1146.00,0.0341
1145.00,0.0336
1144.00,0.0328
1143.00,0.0322
1142.00,0.0324
1141.00,0.0336
1140.00,0.0359
1139.00,0.0393
1138.00,0.0437
1137.00,0.0488
1136.00,0.0541
1135.00,0.0590
1134.00,0.0630
1133.00,0.0655
1132.00,0.0661
1131.00,0.0649
1130.00,0.0621
1129.00,0.0584
1128.00,0.0547
1127.00,0.0521
1126.00,0.0513
1125.00,0.0528
1124.00,0.0566
1123.00,0.0625
1122.00,0.0693
1121.00,0.0754
1120.00,0.0792
1119.00,0.0799
1118.00,0.0773
1117.00,0.0724
1116.00,0.0663
1115.00,0.0605
1114.00,0.0556
1113.00,0.0518
1112.00,0.0490
1111.00,0.0469
1110.00,0.0452
1109.00,0.0436
1108.00,0.0418
1107.00,0.0397
1106.00,0.0373
1105.00,0.0348
1104.00,0.0326
1103.00,0.0307
1102.00,0.0293
1101.00,0.0282
1100.00,0.0274
1099.00,0.0268
1098.00,0.0264
1097.00,0.0259
1096.00,0.0254
1095.00,0.0248
1094.00,0.0241
1093.00,0.0234
1092.00,0.0227
1091.00,0.0221
1090.00,0.0216
1089.00,0.0213
1088.00,0.0211
1087.00,0.0212
1086.00,0.0215
1085.00,0.0221
1084.00,0.0232
1083.00,0.0248
1082.00,0.0274
1081.00,0.0311
1080.00,0.0355
1079.00,0.0399
1078.00,0.0434
1077.00,0.0449
1076.00,0.0441
1075.00,0.0415
1074.00,0.0380
1073.00,0.0344
1072.00,0.0311
1071.00,0.0285
1070.00,0.0267
1069.00,0.0254
1068.00,0.0248
1067.00,0.0247
1066.00,0.0249
1065.00,0.0250
1064.00,0.0248
1063.00,0.0245
1062.00,0.0243
1061.00,0.0245
1060.00,0.0254
1059.00,0.0273
1058.00,0.0302
1057.00,0.0335
1056.00,0.0368
1055.00,0.0392
1054.00,0.0403
1053.00,0.0399
1052.00,0.0383
1051.00,0.0360
1050.00,0.0336
1049.00,0.0315
1048.00,0.0299
1047.00,0.0289
1046.00,0.0286
1045.00,0.0290
1044.00,0.0300
1043.00,0.0314
1042.00,0.0331
1041.00,0.0346
1040.00,0.0357
1039.00,0.0361
1038.00,0.0355
1037.00,0.0343
1036.00,0.0327
1035.00,0.0312
1034.00,0.0298
1033.00,0.0286
1032.00,0.0274
1031.00,0.0262
1030.00,0.0251
1029.00,0.0242
1028.00,0.0235
1027.00,0.0232
1026.00,0.0236
1025.00,0.0246
1024.00,0.0259
1023.00,0.0273
1022.00,0.0281
1021.00,0.0282
1020.00,0.0276
1019.00,0.0266
1018.00,0.0258
1017.00,0.0253
1016.00,0.0250
1015.00,0.0248
1014.00,0.0246
1013.00,0.0244
1012.00,0.0241
1011.00,0.0239
1010.00,0.0238
1009.00,0.0237
1008.00,0.0235
1007.00,0.0233
1006.00,0.0232
1005.00,0.0233
1004.00,0.0237
1003.00,0.0246
1002.00,0.0259
1001.00,0.0275
1000.00,0.0288
999.00,0.0295
998.00,0.0294
997.00,0.0288
996.00,0.0283
995.00,0.0280
994.00,0.0282
993.00,0.0286
992.00,0.0288
991.00,0.0287
990.00,0.0281
989.00,0.0272
988.00,0.0261
987.00,0.0251
986.00,0.0243
985.00,0.0238
984.00,0.0234
983.00,0.0233
982.00,0.0234
981.00,0.0237
980.00,0.0240
979.00,0.0242
978.00,0.0241
977.00,0.0238
976.00,0.0231
975.00,0.0222
974.00,0.0214
973.00,0.0205
972.00,0.0197
971.00,0.0189
970.00,0.0182
969.00,0.0176
968.00,0.0171
967.00,0.0166
966.00,0.0162
965.00,0.0159
964.00,0.0156
963.00,0.0154
962.00,0.0153
961.00,0.0152
960.00,0.0150
959.00,0.0149
958.00,0.0150
957.00,0.0152
956.00,0.0156
955.00,0.0161
954.00,0.0169
953.00,0.0178
952.00,0.0187
951.00,0.0196
950.00,0.0205
949.00,0.0213
948.00,0.0217
947.00,0.0217
946.00,0.0215
945.00,0.0209
944.00,0.0202
943.00,0.0194
942.00,0.0188
941.00,0.0183
940.00,0.0180
939.00,0.0178
938.00,0.0177
937.00,0.0177
936.00,0.0176
935.00,0.0176
934.00,0.0175
933.00,0.0175
932.00,0.0175
931.00,0.0176
930.00,0.0179
929.00,0.0183
928.00,0.0190
927.00,0.0201
926.00,0.0217
925.00,0.0235
924.00,0.0249
923.00,0.0256
922.00,0.0256
921.00,0.0252
920.00,0.0248
919.00,0.0248
918.00,0.0252
917.00,0.0260
916.00,0.0272
915.00,0.0287
914.00,0.0305
913.00,0.0320
912.00,0.0330
911.00,0.0334
910.00,0.0332
909.00,0.0327
908.00,0.0320
907.00,0.0311
906.00,0.0302
905.00,0.0291
904.00,0.0279
903.00,0.0268
902.00,0.0259
901.00,0.0252
900.00,0.0247
899.00,0.0245
898.00,0.0247
897.00,0.0252
896.00,0.0258
895.00,0.0266
894.00,0.0274
893.00,0.0280
892.00,0.0284
891.00,0.0283
890.00,0.0277
889.00,0.0268
888.00,0.0258
887.00,0.0247
886.00,0.0240
885.00,0.0235
884.00,0.0231
883.00,0.0230
882.00,0.0231
881.00,0.0234
880.00,0.0239
879.00,0.0247
878.00,0.0258
877.00,0.0273
876.00,0.0289
875.00,0.0307
874.00,0.0323
873.00,0.0335
872.00,0.0341
871.00,0.0341
870.00,0.0341
869.00,0.0343
868.00,0.0353
867.00,0.0375
866.00,0.0410
865.00,0.0451
864.00,0.0486
863.00,0.0506
862.00,0.0510
861.00,0.0504
860.00,0.0499
859.00,0.0500
858.00,0.0509
857.00,0.0524
856.00,0.0543
855.00,0.0566
854.00,0.0592
853.00,0.0619
852.00,0.0645
851.00,0.0671
850.00,0.0693
849.00,0.0711
848.00,0.0721
847.00,0.0722
846.00,0.0713
845.00,0.0694
844.00,0.0668
843.00,0.0637
842.00,0.0607
841.00,0.0579
840.00,0.0554
839.00,0.0535
838.00,0.0522
837.00,0.0513
836.00,0.0506
835.00,0.0497
834.00,0.0484
833.00,0.0465
832.00,0.0442
831.00,0.0421
830.00,0.0405
829.00,0.0396
828.00,0.0391
827.00,0.0386
826.00,0.0377
825.00,0.0361
824.00,0.0341
823.00,0.0321
822.00,0.0305
821.00,0.0292
820.00,0.0280
819.00,0.0270
818.00,0.0263
817.00,0.0257
816.00,0.0252
815.00,0.0250
814.00,0.0250
813.00,0.0253
812.00,0.0257
811.00,0.0263
810.00,0.0270
809.00,0.0275
808.00,0.0277
807.00,0.0272
806.00,0.0261
805.00,0.0244
804.00,0.0227
803.00,0.0212
802.00,0.0203
801.00,0.0197
800.00,0.0195
799.00,0.0196
798.00,0.0200
797.00,0.0206
796.00,0.0215
795.00,0.0229
794.00,0.0247
793.00,0.0271
792.00,0.0300
791.00,0.0333
790.00,0.0366
789.00,0.0391
788.00,0.0402
787.00,0.0398
786.00,0.0379
785.00,0.0353
784.00,0.0325
783.00,0.0300
782.00,0.0281
781.00,0.0267
780.00,0.0258
779.00,0.0254
778.00,0.0256
777.00,0.0260
776.00,0.0267
775.00,0.0274
774.00,0.0278
773.00,0.0279
772.00,0.0274
771.00,0.0266
770.00,0.0256
769.00,0.0246
768.00,0.0238
767.00,0.0234
766.00,0.0234
765.00,0.0237
764.00,0.0241
763.00,0.0246
762.00,0.0249
761.00,0.0250
760.00,0.0249
759.00,0.0244
758.00,0.0238
757.00,0.0231
756.00,0.0223
755.00,0.0215
754.00,0.0209
753.00,0.0204
752.00,0.0199
751.00,0.0195
750.00,0.0192
749.00,0.0190
748.00,0.0188
747.00,0.0187
746.00,0.0188
745.00,0.0191
744.00,0.0197
743.00,0.0207
742.00,0.0225
741.00,0.0247
740.00,0.0267
739.00,0.0280
738.00,0.0282
737.00,0.0274
736.00,0.0264
735.00,0.0257
734.00,0.0258
733.00,0.0264
732.00,0.0269
731.00,0.0268
730.00,0.0263
729.00,0.0257
728.00,0.0257
727.00,0.0268
726.00,0.0291
725.00,0.0322
724.00,0.0354
723.00,0.0378
722.00,0.0387
721.00,0.0382
720.00,0.0367
719.00,0.0352
718.00,0.0342
717.00,0.0337
716.00,0.0335
715.00,0.0334
714.00,0.0332
713.00,0.0327
712.00,0.0318
711.00,0.0308
710.00,0.0298
709.00,0.0285
708.00,0.0272
707.00,0.0258
706.00,0.0246
705.00,0.0235
704.00,0.0224
703.00,0.0216
702.00,0.0209
701.00,0.0204
700.00,0.0198
699.00,0.0194
698.00,0.0191
697.00,0.0188
696.00,0.0185
695.00,0.0183
694.00,0.0182
693.00,0.0181
692.00,0.0179
691.00,0.0178
690.00,0.0177
689.00,0.0176
688.00,0.0175
687.00,0.0175
686.00,0.0175
685.00,0.0176
684.00,0.0177
683.00,0.0179
682.00,0.0183
681.00,0.0188
680.00,0.0195
679.00,0.0204
678.00,0.0217
677.00,0.0232
676.00,0.0246
675.00,0.0260
674.00,0.0270
673.00,0.0274
672.00,0.0271
671.00,0.0265
670.00,0.0256
669.00,0.0244
668.00,0.0230
667.00,0.0220
666.00,0.0216
665.00,0.0215
664.00,0.0217
663.00,0.0221
662.00,0.0230
661.00,0.0244
660.00,0.0263
659.00,0.0287
658.00,0.0313
657.00,0.0337
656.00,0.0356
655.00,0.0370
654.00,0.0376
653.00,0.0374
652.00,0.0368
651.00,0.0363
650.00,0.0364
649.00,0.0370
648.00,0.0378
647.00,0.0387
646.00,0.0393
645.00,0.0392
644.00,0.0385
643.00,0.0374
642.00,0.0362
641.00,0.0351
640.00,0.0339
639.00,0.0329
638.00,0.0320
637.00,0.0311
636.00,0.0301
635.00,0.0289
634.00,0.0277
633.00,0.0262
632.00,0.0247
631.00,0.0234
630.00,0.0224
629.00,0.0215
628.00,0.0208
627.00,0.0203
626.00,0.0201
625.00,0.0199
624.00,0.0197
623.00,0.0195
622.00,0.0193
621.00,0.0191
620.00,0.0188
619.00,0.0185
618.00,0.0184
617.00,0.0184
616.00,0.0185
615.00,0.0188
614.00,0.0195
613.00,0.0201
612.00,0.0204
611.00,0.0201
610.00,0.0195
609.00,0.0186
608.00,0.0176
607.00,0.0166
606.00,0.0159
605.00,0.0154
604.00,0.0149
603.00,0.0147
602.00,0.0148
601.00,0.0152
600.00,0.0157
599.00,0.0167
598.00,0.0181
597.00,0.0198
596.00,0.0215
595.00,0.0229
594.00,0.0239
593.00,0.0241
592.00,0.0233
591.00,0.0219
590.00,0.0204
589.00,0.0188
588.00,0.0173
587.00,0.0161
586.00,0.0152
585.00,0.0145
584.00,0.0137
583.00,0.0132
582.00,0.0129
581.00,0.0126
580.00,0.0123
579.00,0.0121
578.00,0.0120
577.00,0.0119
576.00,0.0118
575.00,0.0118
574.00,0.0121
573.00,0.0124
572.00,0.0127
571.00,0.0131
570.00,0.0137
569.00,0.0142
568.00,0.0146
567.00,0.0149
566.00,0.0152
565.00,0.0155
564.00,0.0158
563.00,0.0164
562.00,0.0176
561.00,0.0190
560.00,0.0205
559.00,0.0220
558.00,0.0233
557.00,0.0242
556.00,0.0243
555.00,0.0239
554.00,0.0231
553.00,0.0218
552.00,0.0203
551.00,0.0190
550.00,0.0185
549.00,0.0183
548.00,0.0185
547.00,0.0188
546.00,0.0192
545.00,0.0191
544.00,0.0182
543.00,0.0170
542.00,0.0157
541.00,0.0146
540.00,0.0135
539.00,0.0128
538.00,0.0125
537.00,0.0123
536.00,0.0120
535.00,0.0118
534.00,0.0119
533.00,0.0120
532.00,0.0120
531.00,0.0123
530.00,0.0129
529.00,0.0136
528.00,0.0141
527.00,0.0148
526.00,0.0156
525.00,0.0162
524.00,0.0162
523.00,0.0158
522.00,0.0154
521.00,0.0148
520.00,0.0140
519.00,0.0134
518.00,0.0132
517.00,0.0131
516.00,0.0129
515.00,0.0129
514.00,0.0133
513.00,0.0139
512.00,0.0143
511.00,0.0149
510.00,0.0160
509.00,0.0173
508.00,0.0186
507.00,0.0201
506.00,0.0219
505.00,0.0234
504.00,0.0244
503.00,0.0249
502.00,0.0251
501.00,0.0251
500.00,0.0248
499.00,0.0251
498.00,0.0263
497.00,0.0283
496.00,0.0305
495.00,0.0326
494.00,0.0340
493.00,0.0339
492.00,0.0323
491.00,0.0302
490.00,0.0283
489.00,0.0268
488.00,0.0257
487.00,0.0254
486.00,0.0261
485.00,0.0275
484.00,0.0292
483.00,0.0312
482.00,0.0338
481.00,0.0363
480.00,0.0380
479.00,0.0392
478.00,0.0397
477.00,0.0392
476.00,0.0376
475.00,0.0356
474.00,0.0337
473.00,0.0319
472.00,0.0302
471.00,0.0292
470.00,0.0292
469.00,0.0293
468.00,0.0287
467.00,0.0278
466.00,0.0273
465.00,0.0268
464.00,0.0260
463.00,0.0252
462.00,0.0246
461.00,0.0238
460.00,0.0227
459.00,0.0220
458.00,0.0219
457.00,0.0220
456.00,0.0219
455.00,0.0222
454.00,0.0230
453.00,0.0236
452.00,0.0236
451.00,0.0235
450.00,0.0239
449.00,0.0242
448.00,0.0241
447.00,0.0240
446.00,0.0242
445.00,0.0244
444.00,0.0246
443.00,0.0256
442.00,0.0282
441.00,0.0318
440.00,0.0357
439.00,0.0394
438.00,0.0425
437.00,0.0434
436.00,0.0416
435.00,0.0385
434.00,0.0356
433.00,0.0331
432.00,0.0307
431.00,0.0292
430.00,0.0288
429.00,0.0287
428.00,0.0280
427.00,0.0272
426.00,0.0269
425.00,0.0263
424.00,0.0251
423.00,0.0240
422.00,0.0238
421.00,0.0235
420.00,0.0222
419.00,0.0209
418.00,0.0210
417.00,0.0214
416.00,0.0211
415.00,0.0209
414.00,0.0213
413.00,0.0213
412.00,0.0200
411.00,0.0188
410.00,0.0187
409.00,0.0186
408.00,0.0176
407.00,0.0167
406.00,0.0169
405.00,0.0173
404.00,0.0169
403.00,0.0168
402.00,0.0179
401.00,0.0184
400.00,0.0176
