Created as New Dataset,Sample 276 By YargerLab Date Wednesday, July 24 2024
cm-1,A
4000.00,0.0043
3999.00,0.0043
3998.00,0.0043
3997.00,0.0043
3996.00,0.0043
3995.00,0.0043
3994.00,0.0043
3993.00,0.0043
3992.00,0.0043
3991.00,0.0043
3990.00,0.0043
3989.00,0.0043
3988.00,0.0043
3987.00,0.0043
3986.00,0.0043
3985.00,0.0043
3984.00,0.0043
3983.00,0.0043
3982.00,0.0043
3981.00,0.0043
3980.00,0.0043
3979.00,0.0043
3978.00,0.0043
3977.00,0.0043
3976.00,0.0043
3975.00,0.0043
3974.00,0.0043
3973.00,0.0043
3972.00,0.0043
3971.00,0.0043
3970.00,0.0043
3969.00,0.0043
3968.00,0.0043
3967.00,0.0043
3966.00,0.0043
3965.00,0.0043
3964.00,0.0043
3963.00,0.0043
3962.00,0.0043
3961.00,0.0043
3960.00,0.0043
3959.00,0.0043
3958.00,0.0043
3957.00,0.0043
3956.00,0.0043
3955.00,0.0043
3954.00,0.0043
3953.00,0.0043
3952.00,0.0043
3951.00,0.0043
3950.00,0.0043
3949.00,0.0043
3948.00,0.0043
3947.00,0.0043
3946.00,0.0043
3945.00,0.0043
3944.00,0.0043
3943.00,0.0043
3942.00,0.0043
3941.00,0.0043
3940.00,0.0043
3939.00,0.0043
3938.00,0.0043
3937.00,0.0043
3936.00,0.0043
3935.00,0.0043
3934.00,0.0043
3933.00,0.0043
3932.00,0.0043
3931.00,0.0043
3930.00,0.0043
3929.00,0.0043
3928.00,0.0043
3927.00,0.0043
3926.00,0.0043
3925.00,0.0043
3924.00,0.0043
3923.00,0.0043
3922.00,0.0043
3921.00,0.0043
3920.00,0.0043
3919.00,0.0043
3918.00,0.0043
3917.00,0.0043
3916.00,0.0043
3915.00,0.0043
3914.00,0.0043
3913.00,0.0042
3912.00,0.0042
3911.00,0.0042
3910.00,0.0042
3909.00,0.0042
3908.00,0.0042
3907.00,0.0042
3906.00,0.0042
3905.00,0.0042
3904.00,0.0043
3903.00,0.0043
3902.00,0.0043
3901.00,0.0043
3900.00,0.0042
3899.00,0.0042
3898.00,0.0042
3897.00,0.0042
3896.00,0.0042
3895.00,0.0042
3894.00,0.0042
3893.00,0.0042
3892.00,0.0042
3891.00,0.0042
3890.00,0.0042
3889.00,0.0042
3888.00,0.0042
3887.00,0.0042
3886.00,0.0042
3885.00,0.0042
3884.00,0.0042
3883.00,0.0042
3882.00,0.0042
3881.00,0.0042
3880.00,0.0042
3879.00,0.0042
3878.00,0.0042
3877.00,0.0042
3876.00,0.0042
3875.00,0.0042
3874.00,0.0042
3873.00,0.0042
3872.00,0.0042
3871.00,0.0042
3870.00,0.0042
3869.00,0.0042
3868.00,0.0042
3867.00,0.0042
3866.00,0.0042
3865.00,0.0042
3864.00,0.0042
3863.00,0.0042
3862.00,0.0042
3861.00,0.0042
3860.00,0.0042
3859.00,0.0042
3858.00,0.0042
3857.00,0.0041
3856.00,0.0041
3855.00,0.0041
3854.00,0.0041
3853.00,0.0041
3852.00,0.0041
3851.00,0.0041
3850.00,0.0041
3849.00,0.0041
3848.00,0.0041
3847.00,0.0041
3846.00,0.0041
3845.00,0.0041
3844.00,0.0041
3843.00,0.0041
3842.00,0.0041
3841.00,0.0041
3840.00,0.0041
3839.00,0.0041
3838.00,0.0041
3837.00,0.0041
3836.00,0.0041
3835.00,0.0041
3834.00,0.0041
3833.00,0.0041
3832.00,0.0041
3831.00,0.0041
3830.00,0.0041
3829.00,0.0041
3828.00,0.0041
3827.00,0.0041
3826.00,0.0041
3825.00,0.0041
3824.00,0.0041
3823.00,0.0041
3822.00,0.0041
3821.00,0.0041
3820.00,0.0041
3819.00,0.0041
3818.00,0.0041
3817.00,0.0041
3816.00,0.0041
3815.00,0.0040
3814.00,0.0040
3813.00,0.0040
3812.00,0.0040
3811.00,0.0041
3810.00,0.0041
3809.00,0.0041
3808.00,0.0041
3807.00,0.0040
3806.00,0.0040
3805.00,0.0040
3804.00,0.0040
3803.00,0.0040
3802.00,0.0040
3801.00,0.0040
3800.00,0.0040
3799.00,0.0040
3798.00,0.0040
3797.00,0.0040
3796.00,0.0040
3795.00,0.0040
3794.00,0.0040
3793.00,0.0040
3792.00,0.0040
3791.00,0.0040
3790.00,0.0040
3789.00,0.0040
3788.00,0.0040
3787.00,0.0040
3786.00,0.0040
3785.00,0.0040
3784.00,0.0040
3783.00,0.0040
3782.00,0.0041
3781.00,0.0040
3780.00,0.0040
3779.00,0.0040
3778.00,0.0040
3777.00,0.0040
3776.00,0.0040
3775.00,0.0040
3774.00,0.0040
3773.00,0.0040
3772.00,0.0040
3771.00,0.0040
3770.00,0.0040
3769.00,0.0040
3768.00,0.0040
3767.00,0.0040
3766.00,0.0040
3765.00,0.0040
3764.00,0.0041
3763.00,0.0041
3762.00,0.0040
3761.00,0.0040
3760.00,0.0040
3759.00,0.0040
3758.00,0.0040
3757.00,0.0040
3756.00,0.0040
3755.00,0.0041
3754.00,0.0041
3753.00,0.0041
3752.00,0.0041
3751.00,0.0041
3750.00,0.0041
3749.00,0.0041
3748.00,0.0041
3747.00,0.0041
3746.00,0.0041
3745.00,0.0041
3744.00,0.0041
3743.00,0.0040
3742.00,0.0040
3741.00,0.0041
3740.00,0.0041
3739.00,0.0041
3738.00,0.0041
3737.00,0.0041
3736.00,0.0041
3735.00,0.0041
3734.00,0.0041
3733.00,0.0041
3732.00,0.0041
3731.00,0.0041
3730.00,0.0040
3729.00,0.0040
3728.00,0.0040
3727.00,0.0040
3726.00,0.0040
3725.00,0.0040
3724.00,0.0040
3723.00,0.0040
3722.00,0.0040
3721.00,0.0040
3720.00,0.0040
3719.00,0.0040
3718.00,0.0040
3717.00,0.0040
3716.00,0.0040
3715.00,0.0040
3714.00,0.0040
3713.00,0.0040
3712.00,0.0040
3711.00,0.0040
3710.00,0.0040
3709.00,0.0040
3708.00,0.0040
3707.00,0.0040
3706.00,0.0040
3705.00,0.0040
3704.00,0.0040
3703.00,0.0040
3702.00,0.0040
3701.00,0.0040
3700.00,0.0039
3699.00,0.0039
3698.00,0.0039
3697.00,0.0039
3696.00,0.0039
3695.00,0.0039
3694.00,0.0039
3693.00,0.0039
3692.00,0.0039
3691.00,0.0039
3690.00,0.0039
3689.00,0.0039
3688.00,0.0039
3687.00,0.0039
3686.00,0.0038
3685.00,0.0038
3684.00,0.0038
3683.00,0.0038
3682.00,0.0038
3681.00,0.0038
3680.00,0.0038
3679.00,0.0037
3678.00,0.0037
3677.00,0.0037
3676.00,0.0036
3675.00,0.0036
3674.00,0.0036
3673.00,0.0035
3672.00,0.0035
3671.00,0.0035
3670.00,0.0035
3669.00,0.0036
3668.00,0.0036
3667.00,0.0036
3666.00,0.0036
3665.00,0.0036
3664.00,0.0036
3663.00,0.0036
3662.00,0.0036
3661.00,0.0036
3660.00,0.0037
3659.00,0.0037
3658.00,0.0037
3657.00,0.0037
3656.00,0.0038
3655.00,0.0038
3654.00,0.0039
3653.00,0.0039
3652.00,0.0040
3651.00,0.0040
3650.00,0.0041
3649.00,0.0041
3648.00,0.0042
3647.00,0.0043
3646.00,0.0043
3645.00,0.0044
3644.00,0.0044
3643.00,0.0045
3642.00,0.0046
3641.00,0.0046
3640.00,0.0047
3639.00,0.0047
3638.00,0.0047
3637.00,0.0048
3636.00,0.0049
3635.00,0.0050
3634.00,0.0051
3633.00,0.0053
3632.00,0.0054
3631.00,0.0054
3630.00,0.0055
3629.00,0.0056
3628.00,0.0056
3627.00,0.0057
3626.00,0.0057
3625.00,0.0058
3624.00,0.0059
3623.00,0.0059
3622.00,0.0060
3621.00,0.0061
3620.00,0.0061
3619.00,0.0062
3618.00,0.0062
3617.00,0.0063
3616.00,0.0064
3615.00,0.0064
3614.00,0.0065
3613.00,0.0065
3612.00,0.0066
3611.00,0.0067
3610.00,0.0067
3609.00,0.0068
3608.00,0.0068
3607.00,0.0068
3606.00,0.0069
3605.00,0.0070
3604.00,0.0070
3603.00,0.0071
3602.00,0.0071
3601.00,0.0072
3600.00,0.0073
3599.00,0.0073
3598.00,0.0074
3597.00,0.0074
3596.00,0.0075
3595.00,0.0075
3594.00,0.0076
3593.00,0.0077
3592.00,0.0077
3591.00,0.0078
3590.00,0.0079
3589.00,0.0079
3588.00,0.0080
3587.00,0.0080
3586.00,0.0081
3585.00,0.0081
3584.00,0.0082
3583.00,0.0082
3582.00,0.0083
3581.00,0.0083
3580.00,0.0084
3579.00,0.0085
3578.00,0.0085
3577.00,0.0086
3576.00,0.0087
3575.00,0.0088
3574.00,0.0088
3573.00,0.0089
3572.00,0.0090
3571.00,0.0091
3570.00,0.0092
3569.00,0.0092
3568.00,0.0093
3567.00,0.0094
3566.00,0.0094
3565.00,0.0095
3564.00,0.0095
3563.00,0.0096
3562.00,0.0097
3561.00,0.0097
3560.00,0.0098
3559.00,0.0099
3558.00,0.0099
3557.00,0.0100
3556.00,0.0100
3555.00,0.0101
3554.00,0.0102
3553.00,0.0103
3552.00,0.0103
3551.00,0.0104
3550.00,0.0105
3549.00,0.0106
3548.00,0.0107
3547.00,0.0108
3546.00,0.0108
3545.00,0.0109
3544.00,0.0109
3543.00,0.0110
3542.00,0.0110
3541.00,0.0111
3540.00,0.0112
3539.00,0.0113
3538.00,0.0113
3537.00,0.0114
3536.00,0.0115
3535.00,0.0115
3534.00,0.0116
3533.00,0.0116
3532.00,0.0117
3531.00,0.0118
3530.00,0.0119
3529.00,0.0119
3528.00,0.0120
3527.00,0.0121
3526.00,0.0122
3525.00,0.0123
3524.00,0.0123
3523.00,0.0124
3522.00,0.0124
3521.00,0.0125
3520.00,0.0126
3519.00,0.0126
3518.00,0.0127
3517.00,0.0128
3516.00,0.0128
3515.00,0.0129
3514.00,0.0130
3513.00,0.0131
3512.00,0.0132
3511.00,0.0132
3510.00,0.0133
3509.00,0.0134
3508.00,0.0134
3507.00,0.0135
3506.00,0.0136
3505.00,0.0137
3504.00,0.0138
3503.00,0.0138
3502.00,0.0139
3501.00,0.0140
3500.00,0.0140
3499.00,0.0141
3498.00,0.0142
3497.00,0.0143
3496.00,0.0143
3495.00,0.0144
3494.00,0.0145
3493.00,0.0146
3492.00,0.0146
3491.00,0.0147
3490.00,0.0148
3489.00,0.0149
3488.00,0.0150
3487.00,0.0150
3486.00,0.0151
3485.00,0.0152
3484.00,0.0153
3483.00,0.0154
3482.00,0.0154
3481.00,0.0155
3480.00,0.0156
3479.00,0.0156
3478.00,0.0157
3477.00,0.0158
3476.00,0.0159
3475.00,0.0159
3474.00,0.0160
3473.00,0.0161
3472.00,0.0162
3471.00,0.0163
3470.00,0.0164
3469.00,0.0165
3468.00,0.0166
3467.00,0.0167
3466.00,0.0168
3465.00,0.0168
3464.00,0.0169
3463.00,0.0170
3462.00,0.0171
3461.00,0.0172
3460.00,0.0172
3459.00,0.0173
3458.00,0.0174
3457.00,0.0174
3456.00,0.0175
3455.00,0.0176
3454.00,0.0177
3453.00,0.0177
3452.00,0.0178
3451.00,0.0179
3450.00,0.0180
3449.00,0.0181
3448.00,0.0182
3447.00,0.0182
3446.00,0.0183
3445.00,0.0184
3444.00,0.0185
3443.00,0.0186
3442.00,0.0186
3441.00,0.0187
3440.00,0.0188
3439.00,0.0189
3438.00,0.0190
3437.00,0.0190
3436.00,0.0191
3435.00,0.0192
3434.00,0.0193
3433.00,0.0194
3432.00,0.0195
3431.00,0.0195
3430.00,0.0196
3429.00,0.0197
3428.00,0.0198
3427.00,0.0199
3426.00,0.0200
3425.00,0.0200
3424.00,0.0201
3423.00,0.0202
3422.00,0.0203
3421.00,0.0203
3420.00,0.0204
3419.00,0.0205
3418.00,0.0206
3417.00,0.0207
3416.00,0.0208
3415.00,0.0208
3414.00,0.0209
3413.00,0.0210
3412.00,0.0211
3411.00,0.0212
3410.00,0.0212
3409.00,0.0213
3408.00,0.0214
3407.00,0.0215
3406.00,0.0215
3405.00,0.0216
3404.00,0.0217
3403.00,0.0218
3402.00,0.0219
3401.00,0.0219
3400.00,0.0220
3399.00,0.0221
3398.00,0.0222
3397.00,0.0223
3396.00,0.0223
3395.00,0.0224
3394.00,0.0225
3393.00,0.0226
3392.00,0.0226
3391.00,0.0227
3390.00,0.0228
3389.00,0.0228
3388.00,0.0229
3387.00,0.0230
3386.00,0.0231
3385.00,0.0232
3384.00,0.0233
3383.00,0.0233
3382.00,0.0234
3381.00,0.0235
3380.00,0.0236
3379.00,0.0237
3378.00,0.0238
3377.00,0.0239
3376.00,0.0240
3375.00,0.0241
3374.00,0.0242
3373.00,0.0243
3372.00,0.0244
3371.00,0.0245
3370.00,0.0246
3369.00,0.0247
3368.00,0.0248
3367.00,0.0250
3366.00,0.0251
3365.00,0.0252
3364.00,0.0253
3363.00,0.0254
3362.00,0.0256
3361.00,0.0257
3360.00,0.0258
3359.00,0.0260
3358.00,0.0261
3357.00,0.0262
3356.00,0.0263
3355.00,0.0265
3354.00,0.0266
3353.00,0.0267
3352.00,0.0269
3351.00,0.0270
3350.00,0.0272
3349.00,0.0273
3348.00,0.0275
3347.00,0.0276
3346.00,0.0278
3345.00,0.0279
3344.00,0.0280
3343.00,0.0282
3342.00,0.0283
3341.00,0.0285
3340.00,0.0286
3339.00,0.0288
3338.00,0.0290
3337.00,0.0292
3336.00,0.0293
3335.00,0.0295
3334.00,0.0297
3333.00,0.0299
3332.00,0.0300
3331.00,0.0302
3330.00,0.0304
3329.00,0.0306
3328.00,0.0308
3327.00,0.0309
3326.00,0.0311
3325.00,0.0313
3324.00,0.0315
3323.00,0.0318
3322.00,0.0320
3321.00,0.0322
3320.00,0.0324
3319.00,0.0326
3318.00,0.0328
3317.00,0.0330
3316.00,0.0332
3315.00,0.0335
3314.00,0.0337
3313.00,0.0339
3312.00,0.0341
3311.00,0.0343
3310.00,0.0345
3309.00,0.0347
3308.00,0.0349
3307.00,0.0351
3306.00,0.0354
3305.00,0.0356
3304.00,0.0359
3303.00,0.0362
3302.00,0.0365
3301.00,0.0367
3300.00,0.0369
3299.00,0.0372
3298.00,0.0374
3297.00,0.0376
3296.00,0.0378
3295.00,0.0380
3294.00,0.0382
3293.00,0.0385
3292.00,0.0387
3291.00,0.0389
3290.00,0.0391
3289.00,0.0393
3288.00,0.0395
3287.00,0.0397
3286.00,0.0399
3285.00,0.0400
3284.00,0.0402
3283.00,0.0403
3282.00,0.0404
3281.00,0.0405
3280.00,0.0406
3279.00,0.0407
3278.00,0.0407
3277.00,0.0407
3276.00,0.0407
3275.00,0.0407
3274.00,0.0407
3273.00,0.0407
3272.00,0.0406
3271.00,0.0406
3270.00,0.0405
3269.00,0.0404
3268.00,0.0403
3267.00,0.0402
3266.00,0.0401
3265.00,0.0400
3264.00,0.0398
3263.00,0.0396
3262.00,0.0395
3261.00,0.0393
3260.00,0.0391
3259.00,0.0389
3258.00,0.0387
3257.00,0.0384
3256.00,0.0382
3255.00,0.0380
3254.00,0.0379
3253.00,0.0377
3252.00,0.0375
3251.00,0.0373
3250.00,0.0370
3249.00,0.0368
3248.00,0.0366
3247.00,0.0364
3246.00,0.0362
3245.00,0.0361
3244.00,0.0359
3243.00,0.0357
3242.00,0.0356
3241.00,0.0354
3240.00,0.0352
3239.00,0.0350
3238.00,0.0349
3237.00,0.0347
3236.00,0.0345
3235.00,0.0343
3234.00,0.0342
3233.00,0.0340
3232.00,0.0339
3231.00,0.0338
3230.00,0.0338
3229.00,0.0336
3228.00,0.0335
3227.00,0.0334
3226.00,0.0333
3225.00,0.0332
3224.00,0.0330
3223.00,0.0329
3222.00,0.0328
3221.00,0.0327
3220.00,0.0326
3219.00,0.0325
3218.00,0.0324
3217.00,0.0323
3216.00,0.0322
3215.00,0.0321
3214.00,0.0320
3213.00,0.0319
3212.00,0.0318
3211.00,0.0317
3210.00,0.0316
3209.00,0.0315
3208.00,0.0314
3207.00,0.0313
3206.00,0.0312
3205.00,0.0311
3204.00,0.0310
3203.00,0.0309
3202.00,0.0308
3201.00,0.0307
3200.00,0.0306
3199.00,0.0305
3198.00,0.0304
3197.00,0.0303
3196.00,0.0302
3195.00,0.0301
3194.00,0.0300
3193.00,0.0298
3192.00,0.0297
3191.00,0.0296
3190.00,0.0295
3189.00,0.0293
3188.00,0.0292
3187.00,0.0291
3186.00,0.0290
3185.00,0.0289
3184.00,0.0288
3183.00,0.0286
3182.00,0.0285
3181.00,0.0284
3180.00,0.0282
3179.00,0.0281
3178.00,0.0280
3177.00,0.0278
3176.00,0.0277
3175.00,0.0276
3174.00,0.0275
3173.00,0.0273
3172.00,0.0272
3171.00,0.0271
3170.00,0.0270
3169.00,0.0268
3168.00,0.0267
3167.00,0.0266
3166.00,0.0265
3165.00,0.0263
3164.00,0.0262
3163.00,0.0261
3162.00,0.0260
3161.00,0.0258
3160.00,0.0257
3159.00,0.0256
3158.00,0.0254
3157.00,0.0253
3156.00,0.0252
3155.00,0.0250
3154.00,0.0249
3153.00,0.0248
3152.00,0.0247
3151.00,0.0246
3150.00,0.0245
3149.00,0.0244
3148.00,0.0243
3147.00,0.0242
3146.00,0.0241
3145.00,0.0240
3144.00,0.0239
3143.00,0.0238
3142.00,0.0237
3141.00,0.0236
3140.00,0.0235
3139.00,0.0234
3138.00,0.0233
3137.00,0.0232
3136.00,0.0232
3135.00,0.0231
3134.00,0.0230
3133.00,0.0230
3132.00,0.0229
3131.00,0.0228
3130.00,0.0227
3129.00,0.0227
3128.00,0.0226
3127.00,0.0226
3126.00,0.0225
3125.00,0.0225
3124.00,0.0224
3123.00,0.0223
3122.00,0.0222
3121.00,0.0222
3120.00,0.0221
3119.00,0.0221
3118.00,0.0221
3117.00,0.0220
3116.00,0.0220
3115.00,0.0220
3114.00,0.0220
3113.00,0.0220
3112.00,0.0220
3111.00,0.0220
3110.00,0.0220
3109.00,0.0220
3108.00,0.0220
3107.00,0.0220
3106.00,0.0220
3105.00,0.0220
3104.00,0.0220
3103.00,0.0220
3102.00,0.0220
3101.00,0.0220
3100.00,0.0221
3099.00,0.0221
3098.00,0.0221
3097.00,0.0222
3096.00,0.0222
3095.00,0.0222
3094.00,0.0222
3093.00,0.0223
3092.00,0.0223
3091.00,0.0223
3090.00,0.0223
3089.00,0.0224
3088.00,0.0224
3087.00,0.0224
3086.00,0.0224
3085.00,0.0225
3084.00,0.0225
3083.00,0.0225
3082.00,0.0225
3081.00,0.0226
3080.00,0.0226
3079.00,0.0226
3078.00,0.0227
3077.00,0.0227
3076.00,0.0228
3075.00,0.0228
3074.00,0.0228
3073.00,0.0229
3072.00,0.0229
3071.00,0.0229
3070.00,0.0228
3069.00,0.0228
3068.00,0.0227
3067.00,0.0227
3066.00,0.0227
3065.00,0.0227
3064.00,0.0227
3063.00,0.0226
3062.00,0.0226
3061.00,0.0226
3060.00,0.0226
3059.00,0.0225
3058.00,0.0224
3057.00,0.0224
3056.00,0.0223
3055.00,0.0222
3054.00,0.0221
3053.00,0.0220
3052.00,0.0219
3051.00,0.0218
3050.00,0.0217
3049.00,0.0217
3048.00,0.0216
3047.00,0.0215
3046.00,0.0214
3045.00,0.0213
3044.00,0.0212
3043.00,0.0211
3042.00,0.0210
3041.00,0.0210
3040.00,0.0209
3039.00,0.0209
3038.00,0.0208
3037.00,0.0207
3036.00,0.0206
3035.00,0.0205
3034.00,0.0204
3033.00,0.0203
3032.00,0.0203
3031.00,0.0202
3030.00,0.0201
3029.00,0.0201
3028.00,0.0200
3027.00,0.0198
3026.00,0.0197
3025.00,0.0196
3024.00,0.0195
3023.00,0.0194
3022.00,0.0193
3021.00,0.0191
3020.00,0.0190
3019.00,0.0188
3018.00,0.0187
3017.00,0.0185
3016.00,0.0183
3015.00,0.0182
3014.00,0.0180
3013.00,0.0178
3012.00,0.0177
3011.00,0.0175
3010.00,0.0173
3009.00,0.0171
3008.00,0.0169
3007.00,0.0167
3006.00,0.0164
3005.00,0.0161
3004.00,0.0159
3003.00,0.0156
3002.00,0.0153
3001.00,0.0151
3000.00,0.0149
2999.00,0.0146
2998.00,0.0145
2997.00,0.0144
2996.00,0.0143
2995.00,0.0142
2994.00,0.0141
2993.00,0.0141
2992.00,0.0141
2991.00,0.0141
2990.00,0.0141
2989.00,0.0141
2988.00,0.0141
2987.00,0.0140
2986.00,0.0138
2985.00,0.0133
2984.00,0.0127
2983.00,0.0121
2982.00,0.0117
2981.00,0.0117
2980.00,0.0120
2979.00,0.0126
2978.00,0.0132
2977.00,0.0137
2976.00,0.0142
2975.00,0.0145
2974.00,0.0146
2973.00,0.0147
2972.00,0.0149
2971.00,0.0151
2970.00,0.0155
2969.00,0.0160
2968.00,0.0165
2967.00,0.0170
2966.00,0.0173
2965.00,0.0177
2964.00,0.0180
2963.00,0.0183
2962.00,0.0185
2961.00,0.0187
2960.00,0.0189
2959.00,0.0191
2958.00,0.0192
2957.00,0.0193
2956.00,0.0194
2955.00,0.0195
2954.00,0.0196
2953.00,0.0197
2952.00,0.0198
2951.00,0.0199
2950.00,0.0200
2949.00,0.0201
2948.00,0.0202
2947.00,0.0204
2946.00,0.0206
2945.00,0.0208
2944.00,0.0211
2943.00,0.0213
2942.00,0.0216
2941.00,0.0218
2940.00,0.0220
2939.00,0.0223
2938.00,0.0225
2937.00,0.0228
2936.00,0.0230
2935.00,0.0232
2934.00,0.0234
2933.00,0.0235
2932.00,0.0237
2931.00,0.0238
2930.00,0.0239
2929.00,0.0240
2928.00,0.0241
2927.00,0.0242
2926.00,0.0242
2925.00,0.0242
2924.00,0.0242
2923.00,0.0242
2922.00,0.0242
2921.00,0.0241
2920.00,0.0239
2919.00,0.0237
2918.00,0.0235
2917.00,0.0232
2916.00,0.0228
2915.00,0.0224
2914.00,0.0220
2913.00,0.0216
2912.00,0.0212
2911.00,0.0209
2910.00,0.0205
2909.00,0.0202
2908.00,0.0200
2907.00,0.0197
2906.00,0.0195
2905.00,0.0193
2904.00,0.0191
2903.00,0.0190
2902.00,0.0188
2901.00,0.0187
2900.00,0.0185
2899.00,0.0184
2898.00,0.0182
2897.00,0.0181
2896.00,0.0179
2895.00,0.0178
2894.00,0.0177
2893.00,0.0175
2892.00,0.0174
2891.00,0.0173
2890.00,0.0172
2889.00,0.0171
2888.00,0.0171
2887.00,0.0171
2886.00,0.0171
2885.00,0.0171
2884.00,0.0171
2883.00,0.0172
2882.00,0.0174
2881.00,0.0175
2880.00,0.0177
2879.00,0.0179
2878.00,0.0181
2877.00,0.0182
2876.00,0.0183
2875.00,0.0183
2874.00,0.0184
2873.00,0.0184
2872.00,0.0184
2871.00,0.0184
2870.00,0.0184
2869.00,0.0183
2868.00,0.0183
2867.00,0.0182
2866.00,0.0181
2865.00,0.0181
2864.00,0.0181
2863.00,0.0181
2862.00,0.0181
2861.00,0.0182
2860.00,0.0183
2859.00,0.0184
2858.00,0.0185
2857.00,0.0186
2856.00,0.0187
2855.00,0.0188
2854.00,0.0189
2853.00,0.0190
2852.00,0.0190
2851.00,0.0190
2850.00,0.0189
2849.00,0.0187
2848.00,0.0185
2847.00,0.0181
2846.00,0.0178
2845.00,0.0175
2844.00,0.0171
2843.00,0.0169
2842.00,0.0166
2841.00,0.0164
2840.00,0.0162
2839.00,0.0161
2838.00,0.0159
2837.00,0.0158
2836.00,0.0157
2835.00,0.0156
2834.00,0.0155
2833.00,0.0155
2832.00,0.0154
2831.00,0.0153
2830.00,0.0153
2829.00,0.0152
2828.00,0.0152
2827.00,0.0151
2826.00,0.0151
2825.00,0.0150
2824.00,0.0149
2823.00,0.0149
2822.00,0.0148
2821.00,0.0148
2820.00,0.0148
2819.00,0.0147
2818.00,0.0147
2817.00,0.0146
2816.00,0.0146
2815.00,0.0146
2814.00,0.0145
2813.00,0.0145
2812.00,0.0145
2811.00,0.0144
2810.00,0.0144
2809.00,0.0143
2808.00,0.0143
2807.00,0.0143
2806.00,0.0143
2805.00,0.0142
2804.00,0.0142
2803.00,0.0142
2802.00,0.0141
2801.00,0.0141
2800.00,0.0140
2799.00,0.0140
2798.00,0.0139
2797.00,0.0139
2796.00,0.0139
2795.00,0.0138
2794.00,0.0138
2793.00,0.0138
2792.00,0.0137
2791.00,0.0137
2790.00,0.0137
2789.00,0.0137
2788.00,0.0136
2787.00,0.0136
2786.00,0.0136
2785.00,0.0136
2784.00,0.0135
2783.00,0.0135
2782.00,0.0135
2781.00,0.0134
2780.00,0.0134
2779.00,0.0134
2778.00,0.0133
2777.00,0.0133
2776.00,0.0133
2775.00,0.0133
2774.00,0.0132
2773.00,0.0132
2772.00,0.0132
2771.00,0.0132
2770.00,0.0131
2769.00,0.0131
2768.00,0.0131
2767.00,0.0131
2766.00,0.0131
2765.00,0.0130
2764.00,0.0130
2763.00,0.0130
2762.00,0.0129
2761.00,0.0129
2760.00,0.0129
2759.00,0.0129
2758.00,0.0128
2757.00,0.0128
2756.00,0.0128
2755.00,0.0128
2754.00,0.0127
2753.00,0.0127
2752.00,0.0127
2751.00,0.0126
2750.00,0.0126
2749.00,0.0126
2748.00,0.0126
2747.00,0.0125
2746.00,0.0125
2745.00,0.0125
2744.00,0.0125
2743.00,0.0124
2742.00,0.0124
2741.00,0.0124
2740.00,0.0124
2739.00,0.0124
2738.00,0.0123
2737.00,0.0123
2736.00,0.0123
2735.00,0.0122
2734.00,0.0122
2733.00,0.0122
2732.00,0.0122
2731.00,0.0122
2730.00,0.0121
2729.00,0.0121
2728.00,0.0121
2727.00,0.0120
2726.00,0.0120
2725.00,0.0120
2724.00,0.0119
2723.00,0.0119
2722.00,0.0119
2721.00,0.0119
2720.00,0.0119
2719.00,0.0118
2718.00,0.0118
2717.00,0.0118
2716.00,0.0117
2715.00,0.0117
2714.00,0.0117
2713.00,0.0116
2712.00,0.0116
2711.00,0.0116
2710.00,0.0116
2709.00,0.0115
2708.00,0.0115
2707.00,0.0115
2706.00,0.0115
2705.00,0.0114
2704.00,0.0114
2703.00,0.0114
2702.00,0.0114
2701.00,0.0114
2700.00,0.0113
2699.00,0.0113
2698.00,0.0113
2697.00,0.0113
2696.00,0.0113
2695.00,0.0113
2694.00,0.0112
2693.00,0.0112
2692.00,0.0112
2691.00,0.0112
2690.00,0.0112
2689.00,0.0111
2688.00,0.0111
2687.00,0.0111
2686.00,0.0111
2685.00,0.0111
2684.00,0.0111
2683.00,0.0110
2682.00,0.0110
2681.00,0.0110
2680.00,0.0110
2679.00,0.0110
2678.00,0.0110
2677.00,0.0110
2676.00,0.0109
2675.00,0.0109
2674.00,0.0109
2673.00,0.0109
2672.00,0.0109
2671.00,0.0109
2670.00,0.0109
2669.00,0.0108
2668.00,0.0108
2667.00,0.0108
2666.00,0.0108
2665.00,0.0108
2664.00,0.0108
2663.00,0.0107
2662.00,0.0107
2661.00,0.0107
2660.00,0.0107
2659.00,0.0107
2658.00,0.0107
2657.00,0.0107
2656.00,0.0107
2655.00,0.0107
2654.00,0.0107
2653.00,0.0107
2652.00,0.0107
2651.00,0.0107
2650.00,0.0107
2649.00,0.0107
2648.00,0.0107
2647.00,0.0106
2646.00,0.0106
2645.00,0.0106
2644.00,0.0106
2643.00,0.0107
2642.00,0.0107
2641.00,0.0107
2640.00,0.0107
2639.00,0.0107
2638.00,0.0107
2637.00,0.0106
2636.00,0.0106
2635.00,0.0106
2634.00,0.0106
2633.00,0.0106
2632.00,0.0106
2631.00,0.0106
2630.00,0.0106
2629.00,0.0106
2628.00,0.0106
2627.00,0.0106
2626.00,0.0106
2625.00,0.0106
2624.00,0.0106
2623.00,0.0106
2622.00,0.0106
2621.00,0.0106
2620.00,0.0106
2619.00,0.0106
2618.00,0.0106
2617.00,0.0106
2616.00,0.0106
2615.00,0.0106
2614.00,0.0105
2613.00,0.0105
2612.00,0.0105
2611.00,0.0105
2610.00,0.0105
2609.00,0.0105
2608.00,0.0105
2607.00,0.0105
2606.00,0.0105
2605.00,0.0105
2604.00,0.0105
2603.00,0.0105
2602.00,0.0105
2601.00,0.0104
2600.00,0.0104
2599.00,0.0104
2598.00,0.0104
2597.00,0.0104
2596.00,0.0104
2595.00,0.0103
2594.00,0.0103
2593.00,0.0103
2592.00,0.0103
2591.00,0.0103
2590.00,0.0103
2589.00,0.0103
2588.00,0.0103
2587.00,0.0103
2586.00,0.0103
2585.00,0.0103
2584.00,0.0103
2583.00,0.0103
2582.00,0.0102
2581.00,0.0102
2580.00,0.0102
2579.00,0.0102
2578.00,0.0102
2577.00,0.0102
2576.00,0.0102
2575.00,0.0101
2574.00,0.0101
2573.00,0.0101
2572.00,0.0101
2571.00,0.0101
2570.00,0.0101
2569.00,0.0101
2568.00,0.0101
2567.00,0.0101
2566.00,0.0101
2565.00,0.0100
2564.00,0.0100
2563.00,0.0100
2562.00,0.0100
2561.00,0.0100
2560.00,0.0100
2559.00,0.0100
2558.00,0.0099
2557.00,0.0099
2556.00,0.0099
2555.00,0.0099
2554.00,0.0099
2553.00,0.0099
2552.00,0.0099
2551.00,0.0099
2550.00,0.0099
2549.00,0.0099
2548.00,0.0099
2547.00,0.0099
2546.00,0.0099
2545.00,0.0099
2544.00,0.0099
2543.00,0.0098
2542.00,0.0098
2541.00,0.0098
2540.00,0.0098
2539.00,0.0098
2538.00,0.0098
2537.00,0.0098
2536.00,0.0098
2535.00,0.0098
2534.00,0.0097
2533.00,0.0097
2532.00,0.0097
2531.00,0.0097
2530.00,0.0097
2529.00,0.0096
2528.00,0.0097
2527.00,0.0097
2526.00,0.0097
2525.00,0.0096
2524.00,0.0096
2523.00,0.0096
2522.00,0.0096
2521.00,0.0096
2520.00,0.0096
2519.00,0.0096
2518.00,0.0095
2517.00,0.0095
2516.00,0.0095
2515.00,0.0095
2514.00,0.0095
2513.00,0.0095
2512.00,0.0095
2511.00,0.0095
2510.00,0.0095
2509.00,0.0095
2508.00,0.0095
2507.00,0.0095
2506.00,0.0095
2505.00,0.0095
2504.00,0.0094
2503.00,0.0094
2502.00,0.0094
2501.00,0.0094
2500.00,0.0094
2499.00,0.0094
2498.00,0.0094
2497.00,0.0094
2496.00,0.0094
2495.00,0.0094
2494.00,0.0094
2493.00,0.0094
2492.00,0.0094
2491.00,0.0093
2490.00,0.0093
2489.00,0.0093
2488.00,0.0094
2487.00,0.0093
2486.00,0.0093
2485.00,0.0093
2484.00,0.0093
2483.00,0.0092
2482.00,0.0092
2481.00,0.0092
2480.00,0.0092
2479.00,0.0092
2478.00,0.0092
2477.00,0.0092
2476.00,0.0092
2475.00,0.0092
2474.00,0.0091
2473.00,0.0091
2472.00,0.0091
2471.00,0.0091
2470.00,0.0091
2469.00,0.0091
2468.00,0.0091
2467.00,0.0091
2466.00,0.0090
2465.00,0.0090
2464.00,0.0090
2463.00,0.0090
2462.00,0.0090
2461.00,0.0090
2460.00,0.0090
2459.00,0.0090
2458.00,0.0089
2457.00,0.0089
2456.00,0.0089
2455.00,0.0089
2454.00,0.0089
2453.00,0.0089
2452.00,0.0089
2451.00,0.0089
2450.00,0.0089
2449.00,0.0089
2448.00,0.0088
2447.00,0.0088
2446.00,0.0088
2445.00,0.0088
2444.00,0.0088
2443.00,0.0088
2442.00,0.0088
2441.00,0.0088
2440.00,0.0088
2439.00,0.0088
2438.00,0.0087
2437.00,0.0087
2436.00,0.0087
2435.00,0.0087
2434.00,0.0087
2433.00,0.0087
2432.00,0.0087
2431.00,0.0087
2430.00,0.0087
2429.00,0.0087
2428.00,0.0087
2427.00,0.0087
2426.00,0.0086
2425.00,0.0086
2424.00,0.0086
2423.00,0.0086
2422.00,0.0086
2421.00,0.0086
2420.00,0.0086
2419.00,0.0085
2418.00,0.0085
2417.00,0.0085
2416.00,0.0085
2415.00,0.0085
2414.00,0.0085
2413.00,0.0085
2412.00,0.0085
2411.00,0.0085
2410.00,0.0084
2409.00,0.0084
2408.00,0.0084
2407.00,0.0084
2406.00,0.0084
2405.00,0.0084
2404.00,0.0084
2403.00,0.0084
2402.00,0.0084
2401.00,0.0084
2400.00,0.0083
2399.00,0.0083
2398.00,0.0083
2397.00,0.0083
2396.00,0.0083
2395.00,0.0083
2394.00,0.0083
2393.00,0.0082
2392.00,0.0082
2391.00,0.0082
2390.00,0.0082
2389.00,0.0082
2388.00,0.0082
2387.00,0.0082
2386.00,0.0082
2385.00,0.0082
2384.00,0.0081
2383.00,0.0081
2382.00,0.0081
2381.00,0.0081
2380.00,0.0081
2379.00,0.0081
2378.00,0.0081
2377.00,0.0081
2376.00,0.0081
2375.00,0.0080
2374.00,0.0080
2373.00,0.0080
2372.00,0.0080
2371.00,0.0080
2370.00,0.0080
2369.00,0.0080
2368.00,0.0080
2367.00,0.0080
2366.00,0.0079
2365.00,0.0079
2364.00,0.0079
2363.00,0.0079
2362.00,0.0079
2361.00,0.0078
2360.00,0.0078
2359.00,0.0078
2358.00,0.0078
2357.00,0.0078
2356.00,0.0078
2355.00,0.0078
2354.00,0.0078
2353.00,0.0078
2352.00,0.0078
2351.00,0.0077
2350.00,0.0076
2349.00,0.0075
2348.00,0.0076
2347.00,0.0076
2346.00,0.0077
2345.00,0.0077
2344.00,0.0077
2343.00,0.0076
2342.00,0.0076
2341.00,0.0076
2340.00,0.0076
2339.00,0.0076
2338.00,0.0076
2337.00,0.0076
2336.00,0.0076
2335.00,0.0076
2334.00,0.0076
2333.00,0.0076
2332.00,0.0076
2331.00,0.0076
2330.00,0.0076
2329.00,0.0076
2328.00,0.0076
2327.00,0.0075
2326.00,0.0075
2325.00,0.0075
2324.00,0.0075
2323.00,0.0075
2322.00,0.0075
2321.00,0.0075
2320.00,0.0075
2319.00,0.0075
2318.00,0.0075
2317.00,0.0075
2316.00,0.0075
2315.00,0.0075
2314.00,0.0075
2313.00,0.0075
2312.00,0.0075
2311.00,0.0075
2310.00,0.0075
2309.00,0.0075
2308.00,0.0075
2307.00,0.0075
2306.00,0.0075
2305.00,0.0075
2304.00,0.0075
2303.00,0.0075
2302.00,0.0076
2301.00,0.0076
2300.00,0.0076
2299.00,0.0075
2298.00,0.0075
2297.00,0.0075
2296.00,0.0075
2295.00,0.0075
2294.00,0.0075
2293.00,0.0075
2292.00,0.0075
2291.00,0.0075
2290.00,0.0075
2289.00,0.0075
2288.00,0.0075
2287.00,0.0075
2286.00,0.0075
2285.00,0.0075
2284.00,0.0075
2283.00,0.0075
2282.00,0.0075
2281.00,0.0075
2280.00,0.0075
2279.00,0.0075
2278.00,0.0075
2277.00,0.0075
2276.00,0.0075
2275.00,0.0075
2274.00,0.0075
2273.00,0.0075
2272.00,0.0075
2271.00,0.0075
2270.00,0.0075
2269.00,0.0075
2268.00,0.0075
2267.00,0.0075
2266.00,0.0074
2265.00,0.0074
2264.00,0.0075
2263.00,0.0075
2262.00,0.0075
2261.00,0.0075
2260.00,0.0075
2259.00,0.0075
2258.00,0.0075
2257.00,0.0075
2256.00,0.0074
2255.00,0.0074
2254.00,0.0074
2253.00,0.0074
2252.00,0.0074
2251.00,0.0074
2250.00,0.0074
2249.00,0.0074
2248.00,0.0073
2247.00,0.0073
2246.00,0.0073
2245.00,0.0073
2244.00,0.0073
2243.00,0.0073
2242.00,0.0073
2241.00,0.0073
2240.00,0.0073
2239.00,0.0073
2238.00,0.0073
2237.00,0.0073
2236.00,0.0073
2235.00,0.0073
2234.00,0.0072
2233.00,0.0073
2232.00,0.0073
2231.00,0.0074
2230.00,0.0074
2229.00,0.0073
2228.00,0.0073
2227.00,0.0073
2226.00,0.0072
2225.00,0.0072
2224.00,0.0072
2223.00,0.0072
2222.00,0.0072
2221.00,0.0072
2220.00,0.0072
2219.00,0.0072
2218.00,0.0072
2217.00,0.0072
2216.00,0.0072
2215.00,0.0072
2214.00,0.0072
2213.00,0.0072
2212.00,0.0073
2211.00,0.0073
2210.00,0.0073
2209.00,0.0073
2208.00,0.0073
2207.00,0.0073
2206.00,0.0073
2205.00,0.0072
2204.00,0.0072
2203.00,0.0072
2202.00,0.0071
2201.00,0.0071
2200.00,0.0072
2199.00,0.0071
2198.00,0.0071
2197.00,0.0071
2196.00,0.0071
2195.00,0.0070
2194.00,0.0070
2193.00,0.0071
2192.00,0.0071
2191.00,0.0071
2190.00,0.0071
2189.00,0.0071
2188.00,0.0071
2187.00,0.0071
2186.00,0.0070
2185.00,0.0070
2184.00,0.0070
2183.00,0.0070
2182.00,0.0070
2181.00,0.0071
2180.00,0.0071
2179.00,0.0071
2178.00,0.0070
2177.00,0.0070
2176.00,0.0071
2175.00,0.0071
2174.00,0.0071
2173.00,0.0071
2172.00,0.0071
2171.00,0.0070
2170.00,0.0070
2169.00,0.0070
2168.00,0.0071
2167.00,0.0071
2166.00,0.0070
2165.00,0.0070
2164.00,0.0070
2163.00,0.0070
2162.00,0.0069
2161.00,0.0068
2160.00,0.0067
2159.00,0.0067
2158.00,0.0068
2157.00,0.0069
2156.00,0.0070
2155.00,0.0070
2154.00,0.0069
2153.00,0.0069
2152.00,0.0069
2151.00,0.0070
2150.00,0.0070
2149.00,0.0070
2148.00,0.0071
2147.00,0.0071
2146.00,0.0071
2145.00,0.0071
2144.00,0.0070
2143.00,0.0069
2142.00,0.0069
2141.00,0.0069
2140.00,0.0069
2139.00,0.0069
2138.00,0.0069
2137.00,0.0069
2136.00,0.0069
2135.00,0.0069
2134.00,0.0069
2133.00,0.0069
2132.00,0.0069
2131.00,0.0069
2130.00,0.0069
2129.00,0.0069
2128.00,0.0070
2127.00,0.0070
2126.00,0.0070
2125.00,0.0070
2124.00,0.0070
2123.00,0.0070
2122.00,0.0070
2121.00,0.0069
2120.00,0.0069
2119.00,0.0069
2118.00,0.0069
2117.00,0.0069
2116.00,0.0070
2115.00,0.0070
2114.00,0.0069
2113.00,0.0069
2112.00,0.0069
2111.00,0.0069
2110.00,0.0069
2109.00,0.0069
2108.00,0.0069
2107.00,0.0069
2106.00,0.0068
2105.00,0.0068
2104.00,0.0069
2103.00,0.0069
2102.00,0.0068
2101.00,0.0068
2100.00,0.0068
2099.00,0.0068
2098.00,0.0068
2097.00,0.0068
2096.00,0.0068
2095.00,0.0068
2094.00,0.0068
2093.00,0.0068
2092.00,0.0067
2091.00,0.0067
2090.00,0.0067
2089.00,0.0068
2088.00,0.0068
2087.00,0.0067
2086.00,0.0067
2085.00,0.0067
2084.00,0.0067
2083.00,0.0067
2082.00,0.0067
2081.00,0.0067
2080.00,0.0067
2079.00,0.0067
2078.00,0.0067
2077.00,0.0066
2076.00,0.0066
2075.00,0.0066
2074.00,0.0066
2073.00,0.0066
2072.00,0.0066
2071.00,0.0065
2070.00,0.0065
2069.00,0.0065
2068.00,0.0065
2067.00,0.0065
2066.00,0.0065
2065.00,0.0065
2064.00,0.0065
2063.00,0.0065
2062.00,0.0065
2061.00,0.0065
2060.00,0.0065
2059.00,0.0064
2058.00,0.0064
2057.00,0.0064
2056.00,0.0063
2055.00,0.0062
2054.00,0.0062
2053.00,0.0062
2052.00,0.0062
2051.00,0.0062
2050.00,0.0062
2049.00,0.0062
2048.00,0.0062
2047.00,0.0062
2046.00,0.0062
2045.00,0.0062
2044.00,0.0063
2043.00,0.0063
2042.00,0.0062
2041.00,0.0062
2040.00,0.0062
2039.00,0.0062
2038.00,0.0062
2037.00,0.0062
2036.00,0.0062
2035.00,0.0061
2034.00,0.0061
2033.00,0.0061
2032.00,0.0061
2031.00,0.0061
2030.00,0.0060
2029.00,0.0060
2028.00,0.0060
2027.00,0.0060
2026.00,0.0060
2025.00,0.0060
2024.00,0.0060
2023.00,0.0060
2022.00,0.0060
2021.00,0.0060
2020.00,0.0060
2019.00,0.0060
2018.00,0.0059
2017.00,0.0059
2016.00,0.0060
2015.00,0.0060
2014.00,0.0060
2013.00,0.0061
2012.00,0.0061
2011.00,0.0061
2010.00,0.0061
2009.00,0.0061
2008.00,0.0061
2007.00,0.0062
2006.00,0.0062
2005.00,0.0062
2004.00,0.0062
2003.00,0.0061
2002.00,0.0061
2001.00,0.0060
2000.00,0.0060
1999.00,0.0060
1998.00,0.0059
1997.00,0.0058
1996.00,0.0058
1995.00,0.0057
1994.00,0.0057
1993.00,0.0058
1992.00,0.0059
1991.00,0.0059
1990.00,0.0058
1989.00,0.0058
1988.00,0.0058
1987.00,0.0058
1986.00,0.0058
1985.00,0.0059
1984.00,0.0059
1983.00,0.0059
1982.00,0.0059
1981.00,0.0059
1980.00,0.0059
1979.00,0.0059
1978.00,0.0058
1977.00,0.0057
1976.00,0.0057
1975.00,0.0057
1974.00,0.0057
1973.00,0.0057
1972.00,0.0058
1971.00,0.0058
1970.00,0.0057
1969.00,0.0056
1968.00,0.0056
1967.00,0.0056
1966.00,0.0055
1965.00,0.0056
1964.00,0.0056
1963.00,0.0056
1962.00,0.0056
1961.00,0.0056
1960.00,0.0056
1959.00,0.0056
1958.00,0.0056
1957.00,0.0056
1956.00,0.0056
1955.00,0.0056
1954.00,0.0056
1953.00,0.0057
1952.00,0.0057
1951.00,0.0057
1950.00,0.0056
1949.00,0.0056
1948.00,0.0055
1947.00,0.0055
1946.00,0.0054
1945.00,0.0054
1944.00,0.0054
1943.00,0.0055
1942.00,0.0055
1941.00,0.0055
1940.00,0.0055
1939.00,0.0055
1938.00,0.0054
1937.00,0.0054
1936.00,0.0055
1935.00,0.0055
1934.00,0.0054
1933.00,0.0054
1932.00,0.0055
1931.00,0.0055
1930.00,0.0054
1929.00,0.0054
1928.00,0.0054
1927.00,0.0053
1926.00,0.0053
1925.00,0.0053
1924.00,0.0053
1923.00,0.0053
1922.00,0.0053
1921.00,0.0053
1920.00,0.0053
1919.00,0.0052
1918.00,0.0052
1917.00,0.0052
1916.00,0.0053
1915.00,0.0052
1914.00,0.0052
1913.00,0.0051
1912.00,0.0050
1911.00,0.0050
1910.00,0.0049
1909.00,0.0049
1908.00,0.0050
1907.00,0.0050
1906.00,0.0050
1905.00,0.0050
1904.00,0.0050
1903.00,0.0050
1902.00,0.0050
1901.00,0.0050
1900.00,0.0050
1899.00,0.0050
1898.00,0.0050
1897.00,0.0049
1896.00,0.0049
1895.00,0.0049
1894.00,0.0049
1893.00,0.0049
1892.00,0.0048
1891.00,0.0048
1890.00,0.0048
1889.00,0.0048
1888.00,0.0048
1887.00,0.0048
1886.00,0.0048
1885.00,0.0048
1884.00,0.0048
1883.00,0.0048
1882.00,0.0048
1881.00,0.0047
1880.00,0.0047
1879.00,0.0047
1878.00,0.0046
1877.00,0.0046
1876.00,0.0046
1875.00,0.0046
1874.00,0.0046
1873.00,0.0045
1872.00,0.0045
1871.00,0.0045
1870.00,0.0044
1869.00,0.0045
1868.00,0.0045
1867.00,0.0045
1866.00,0.0045
1865.00,0.0045
1864.00,0.0044
1863.00,0.0044
1862.00,0.0044
1861.00,0.0044
1860.00,0.0044
1859.00,0.0043
1858.00,0.0043
1857.00,0.0043
1856.00,0.0042
1855.00,0.0042
1854.00,0.0042
1853.00,0.0042
1852.00,0.0042
1851.00,0.0042
1850.00,0.0042
1849.00,0.0041
1848.00,0.0041
1847.00,0.0041
1846.00,0.0041
1845.00,0.0042
1844.00,0.0042
1843.00,0.0042
1842.00,0.0042
1841.00,0.0041
1840.00,0.0041
1839.00,0.0041
1838.00,0.0040
1837.00,0.0040
1836.00,0.0040
1835.00,0.0040
1834.00,0.0040
1833.00,0.0039
1832.00,0.0039
1831.00,0.0038
1830.00,0.0038
1829.00,0.0038
1828.00,0.0038
1827.00,0.0038
1826.00,0.0037
1825.00,0.0037
1824.00,0.0038
1823.00,0.0038
1822.00,0.0038
1821.00,0.0038
1820.00,0.0037
1819.00,0.0037
1818.00,0.0036
1817.00,0.0036
1816.00,0.0036
1815.00,0.0036
1814.00,0.0036
1813.00,0.0035
1812.00,0.0035
1811.00,0.0035
1810.00,0.0035
1809.00,0.0035
1808.00,0.0035
1807.00,0.0035
1806.00,0.0034
1805.00,0.0034
1804.00,0.0034
1803.00,0.0033
1802.00,0.0033
1801.00,0.0033
1800.00,0.0034
1799.00,0.0034
1798.00,0.0033
1797.00,0.0033
1796.00,0.0033
1795.00,0.0033
1794.00,0.0033
1793.00,0.0034
1792.00,0.0034
1791.00,0.0034
1790.00,0.0033
1789.00,0.0033
1788.00,0.0033
1787.00,0.0033
1786.00,0.0032
1785.00,0.0032
1784.00,0.0032
1783.00,0.0032
1782.00,0.0031
1781.00,0.0031
1780.00,0.0032
1779.00,0.0032
1778.00,0.0032
1777.00,0.0031
1776.00,0.0032
1775.00,0.0032
1774.00,0.0033
1773.00,0.0033
1772.00,0.0034
1771.00,0.0034
1770.00,0.0033
1769.00,0.0033
1768.00,0.0033
1767.00,0.0033
1766.00,0.0032
1765.00,0.0032
1764.00,0.0032
1763.00,0.0032
1762.00,0.0033
1761.00,0.0033
1760.00,0.0034
1759.00,0.0034
1758.00,0.0034
1757.00,0.0035
1756.00,0.0036
1755.00,0.0037
1754.00,0.0037
1753.00,0.0037
1752.00,0.0039
1751.00,0.0040
1750.00,0.0041
1749.00,0.0042
1748.00,0.0044
1747.00,0.0045
1746.00,0.0046
1745.00,0.0047
1744.00,0.0049
1743.00,0.0051
1742.00,0.0052
1741.00,0.0055
1740.00,0.0057
1739.00,0.0059
1738.00,0.0060
1737.00,0.0061
1736.00,0.0063
1735.00,0.0065
1734.00,0.0067
1733.00,0.0067
1732.00,0.0066
1731.00,0.0065
1730.00,0.0064
1729.00,0.0065
1728.00,0.0066
1727.00,0.0067
1726.00,0.0067
1725.00,0.0067
1724.00,0.0068
1723.00,0.0069
1722.00,0.0069
1721.00,0.0070
1720.00,0.0071
1719.00,0.0073
1718.00,0.0075
1717.00,0.0077
1716.00,0.0080
1715.00,0.0082
1714.00,0.0083
1713.00,0.0085
1712.00,0.0088
1711.00,0.0091
1710.00,0.0095
1709.00,0.0099
1708.00,0.0105
1707.00,0.0111
1706.00,0.0119
1705.00,0.0129
1704.00,0.0140
1703.00,0.0151
1702.00,0.0165
1701.00,0.0185
1700.00,0.0210
1699.00,0.0230
1698.00,0.0242
1697.00,0.0253
1696.00,0.0265
1695.00,0.0276
1694.00,0.0284
1693.00,0.0290
1692.00,0.0297
1691.00,0.0305
1690.00,0.0314
1689.00,0.0324
1688.00,0.0335
1687.00,0.0347
1686.00,0.0358
1685.00,0.0371
1684.00,0.0387
1683.00,0.0402
1682.00,0.0413
1681.00,0.0423
1680.00,0.0435
1679.00,0.0448
1678.00,0.0460
1677.00,0.0473
1676.00,0.0488
1675.00,0.0503
1674.00,0.0517
1673.00,0.0530
1672.00,0.0542
1671.00,0.0556
1670.00,0.0570
1669.00,0.0587
1668.00,0.0602
1667.00,0.0616
1666.00,0.0629
1665.00,0.0642
1664.00,0.0657
1663.00,0.0673
1662.00,0.0689
1661.00,0.0704
1660.00,0.0718
1659.00,0.0732
1658.00,0.0745
1657.00,0.0758
1656.00,0.0772
1655.00,0.0785
1654.00,0.0797
1653.00,0.0808
1652.00,0.0819
1651.00,0.0827
1650.00,0.0832
1649.00,0.0838
1648.00,0.0844
1647.00,0.0850
1646.00,0.0854
1645.00,0.0858
1644.00,0.0862
1643.00,0.0866
1642.00,0.0869
1641.00,0.0872
1640.00,0.0876
1639.00,0.0880
1638.00,0.0883
1637.00,0.0885
1636.00,0.0885
1635.00,0.0885
1634.00,0.0886
1633.00,0.0888
1632.00,0.0892
1631.00,0.0896
1630.00,0.0899
1629.00,0.0902
1628.00,0.0906
1627.00,0.0911
1626.00,0.0917
1625.00,0.0922
1624.00,0.0927
1623.00,0.0931
1622.00,0.0935
1621.00,0.0939
1620.00,0.0944
1619.00,0.0947
1618.00,0.0946
1617.00,0.0939
1616.00,0.0929
1615.00,0.0919
1614.00,0.0909
1613.00,0.0897
1612.00,0.0883
1611.00,0.0865
1610.00,0.0846
1609.00,0.0824
1608.00,0.0802
1607.00,0.0781
1606.00,0.0760
1605.00,0.0740
1604.00,0.0719
1603.00,0.0699
1602.00,0.0679
1601.00,0.0660
1600.00,0.0643
1599.00,0.0626
1598.00,0.0611
1597.00,0.0595
1596.00,0.0580
1595.00,0.0565
1594.00,0.0551
1593.00,0.0538
1592.00,0.0527
1591.00,0.0516
1590.00,0.0506
1589.00,0.0498
1588.00,0.0490
1587.00,0.0482
1586.00,0.0476
1585.00,0.0471
1584.00,0.0466
1583.00,0.0462
1582.00,0.0458
1581.00,0.0456
1580.00,0.0454
1579.00,0.0453
1578.00,0.0453
1577.00,0.0453
1576.00,0.0453
1575.00,0.0452
1574.00,0.0453
1573.00,0.0455
1572.00,0.0458
1571.00,0.0461
1570.00,0.0466
1569.00,0.0472
1568.00,0.0479
1567.00,0.0485
1566.00,0.0492
1565.00,0.0500
1564.00,0.0509
1563.00,0.0518
1562.00,0.0528
1561.00,0.0539
1560.00,0.0550
1559.00,0.0567
1558.00,0.0586
1557.00,0.0599
1556.00,0.0608
1555.00,0.0619
1554.00,0.0631
1553.00,0.0644
1552.00,0.0656
1551.00,0.0667
1550.00,0.0680
1549.00,0.0693
1548.00,0.0706
1547.00,0.0716
1546.00,0.0726
1545.00,0.0736
1544.00,0.0746
1543.00,0.0756
1542.00,0.0765
1541.00,0.0774
1540.00,0.0781
1539.00,0.0788
1538.00,0.0794
1537.00,0.0799
1536.00,0.0804
1535.00,0.0808
1534.00,0.0813
1533.00,0.0817
1532.00,0.0822
1531.00,0.0828
1530.00,0.0833
1529.00,0.0838
1528.00,0.0842
1527.00,0.0847
1526.00,0.0853
1525.00,0.0858
1524.00,0.0864
1523.00,0.0869
1522.00,0.0874
1521.00,0.0879
1520.00,0.0885
1519.00,0.0890
1518.00,0.0894
1517.00,0.0898
1516.00,0.0900
1515.00,0.0901
1514.00,0.0901
1513.00,0.0899
1512.00,0.0893
1511.00,0.0887
1510.00,0.0881
1509.00,0.0875
1508.00,0.0863
1507.00,0.0844
1506.00,0.0825
1505.00,0.0810
1504.00,0.0799
1503.00,0.0788
1502.00,0.0776
1501.00,0.0764
1500.00,0.0750
1499.00,0.0735
1498.00,0.0719
1497.00,0.0702
1496.00,0.0683
1495.00,0.0666
1494.00,0.0652
1493.00,0.0638
1492.00,0.0623
1491.00,0.0605
1490.00,0.0586
1489.00,0.0568
1488.00,0.0553
1487.00,0.0540
1486.00,0.0528
1485.00,0.0516
1484.00,0.0506
1483.00,0.0496
1482.00,0.0486
1481.00,0.0477
1480.00,0.0470
1479.00,0.0464
1478.00,0.0459
1477.00,0.0455
1476.00,0.0452
1475.00,0.0451
1474.00,0.0451
1473.00,0.0452
1472.00,0.0455
1471.00,0.0458
1470.00,0.0461
1469.00,0.0462
1468.00,0.0464
1467.00,0.0464
1466.00,0.0464
1465.00,0.0464
1464.00,0.0464
1463.00,0.0465
1462.00,0.0467
1461.00,0.0470
1460.00,0.0474
1459.00,0.0479
1458.00,0.0487
1457.00,0.0498
1456.00,0.0508
1455.00,0.0514
1454.00,0.0518
1453.00,0.0520
1452.00,0.0522
1451.00,0.0523
1450.00,0.0522
1449.00,0.0521
1448.00,0.0518
1447.00,0.0515
1446.00,0.0512
1445.00,0.0508
1444.00,0.0504
1443.00,0.0499
1442.00,0.0494
1441.00,0.0488
1440.00,0.0483
1439.00,0.0479
1438.00,0.0473
1437.00,0.0467
1436.00,0.0460
1435.00,0.0455
1434.00,0.0450
1433.00,0.0446
1432.00,0.0442
1431.00,0.0438
1430.00,0.0436
1429.00,0.0434
1428.00,0.0433
1427.00,0.0432
1426.00,0.0433
1425.00,0.0434
1424.00,0.0436
1423.00,0.0439
1422.00,0.0442
1421.00,0.0445
1420.00,0.0448
1419.00,0.0452
1418.00,0.0456
1417.00,0.0460
1416.00,0.0464
1415.00,0.0467
1414.00,0.0470
1413.00,0.0473
1412.00,0.0475
1411.00,0.0477
1410.00,0.0479
1409.00,0.0481
1408.00,0.0482
1407.00,0.0482
1406.00,0.0482
1405.00,0.0481
1404.00,0.0481
1403.00,0.0480
1402.00,0.0479
1401.00,0.0478
1400.00,0.0476
1399.00,0.0474
1398.00,0.0473
1397.00,0.0471
1396.00,0.0470
1395.00,0.0470
1394.00,0.0469
1393.00,0.0470
1392.00,0.0470
1391.00,0.0470
1390.00,0.0469
1389.00,0.0469
1388.00,0.0469
1387.00,0.0469
1386.00,0.0469
1385.00,0.0469
1384.00,0.0468
1383.00,0.0467
1382.00,0.0466
1381.00,0.0465
1380.00,0.0464
1379.00,0.0463
1378.00,0.0463
1377.00,0.0463
1376.00,0.0462
1375.00,0.0461
1374.00,0.0461
1373.00,0.0461
1372.00,0.0462
1371.00,0.0462
1370.00,0.0462
1369.00,0.0461
1368.00,0.0459
1367.00,0.0457
1366.00,0.0455
1365.00,0.0451
1364.00,0.0447
1363.00,0.0444
1362.00,0.0441
1361.00,0.0439
1360.00,0.0438
1359.00,0.0437
1358.00,0.0436
1357.00,0.0435
1356.00,0.0434
1355.00,0.0434
1354.00,0.0434
1353.00,0.0434
1352.00,0.0434
1351.00,0.0435
1350.00,0.0435
1349.00,0.0436
1348.00,0.0437
1347.00,0.0438
1346.00,0.0440
1345.00,0.0441
1344.00,0.0442
1343.00,0.0442
1342.00,0.0442
1341.00,0.0442
1340.00,0.0442
1339.00,0.0443
1338.00,0.0443
1337.00,0.0444
1336.00,0.0444
1335.00,0.0443
1334.00,0.0443
1333.00,0.0442
1332.00,0.0441
1331.00,0.0439
1330.00,0.0438
1329.00,0.0438
1328.00,0.0437
1327.00,0.0436
1326.00,0.0436
1325.00,0.0436
1324.00,0.0436
1323.00,0.0436
1322.00,0.0436
1321.00,0.0436
1320.00,0.0436
1319.00,0.0437
1318.00,0.0437
1317.00,0.0438
1316.00,0.0438
1315.00,0.0439
1314.00,0.0439
1313.00,0.0439
1312.00,0.0440
1311.00,0.0440
1310.00,0.0441
1309.00,0.0441
1308.00,0.0441
1307.00,0.0441
1306.00,0.0441
1305.00,0.0441
1304.00,0.0440
1303.00,0.0440
1302.00,0.0439
1301.00,0.0439
1300.00,0.0438
1299.00,0.0436
1298.00,0.0435
1297.00,0.0434
1296.00,0.0433
1295.00,0.0432
1294.00,0.0431
1293.00,0.0429
1292.00,0.0428
1291.00,0.0427
1290.00,0.0426
1289.00,0.0425
1288.00,0.0425
1287.00,0.0424
1286.00,0.0423
1285.00,0.0422
1284.00,0.0421
1283.00,0.0420
1282.00,0.0419
1281.00,0.0418
1280.00,0.0418
1279.00,0.0417
1278.00,0.0416
1277.00,0.0415
1276.00,0.0415
1275.00,0.0414
1274.00,0.0413
1273.00,0.0412
1272.00,0.0412
1271.00,0.0413
1270.00,0.0414
1269.00,0.0415
1268.00,0.0417
1267.00,0.0418
1266.00,0.0420
1265.00,0.0422
1264.00,0.0424
1263.00,0.0427
1262.00,0.0429
1261.00,0.0432
1260.00,0.0434
1259.00,0.0437
1258.00,0.0439
1257.00,0.0442
1256.00,0.0444
1255.00,0.0447
1254.00,0.0449
1253.00,0.0452
1252.00,0.0455
1251.00,0.0459
1250.00,0.0463
1249.00,0.0466
1248.00,0.0470
1247.00,0.0474
1246.00,0.0477
1245.00,0.0480
1244.00,0.0482
1243.00,0.0485
1242.00,0.0487
1241.00,0.0489
1240.00,0.0491
1239.00,0.0492
1238.00,0.0494
1237.00,0.0495
1236.00,0.0496
1235.00,0.0496
1234.00,0.0496
1233.00,0.0496
1232.00,0.0496
1231.00,0.0495
1230.00,0.0494
1229.00,0.0493
1228.00,0.0492
1227.00,0.0490
1226.00,0.0489
1225.00,0.0487
1224.00,0.0485
1223.00,0.0483
1222.00,0.0480
1221.00,0.0478
1220.00,0.0476
1219.00,0.0473
1218.00,0.0470
1217.00,0.0467
1216.00,0.0464
1215.00,0.0461
1214.00,0.0457
1213.00,0.0453
1212.00,0.0449
1211.00,0.0446
1210.00,0.0442
1209.00,0.0439
1208.00,0.0435
1207.00,0.0432
1206.00,0.0428
1205.00,0.0424
1204.00,0.0420
1203.00,0.0415
1202.00,0.0411
1201.00,0.0406
1200.00,0.0402
1199.00,0.0398
1198.00,0.0394
1197.00,0.0390
1196.00,0.0386
1195.00,0.0382
1194.00,0.0378
1193.00,0.0375
1192.00,0.0371
1191.00,0.0368
1190.00,0.0365
1189.00,0.0362
1188.00,0.0360
1187.00,0.0357
1186.00,0.0355
1185.00,0.0353
1184.00,0.0351
1183.00,0.0350
1182.00,0.0349
1181.00,0.0348
1180.00,0.0348
1179.00,0.0349
1178.00,0.0350
1177.00,0.0352
1176.00,0.0355
1175.00,0.0358
1174.00,0.0361
1173.00,0.0364
1172.00,0.0367
1171.00,0.0370
1170.00,0.0373
1169.00,0.0375
1168.00,0.0377
1167.00,0.0378
1166.00,0.0380
1165.00,0.0380
1164.00,0.0381
1163.00,0.0380
1162.00,0.0380
1161.00,0.0379
1160.00,0.0377
1159.00,0.0375
1158.00,0.0372
1157.00,0.0369
1156.00,0.0365
1155.00,0.0362
1154.00,0.0358
1153.00,0.0354
1152.00,0.0351
1151.00,0.0347
1150.00,0.0344
1149.00,0.0341
1148.00,0.0338
1147.00,0.0335
1146.00,0.0333
1145.00,0.0331
1144.00,0.0329
1143.00,0.0327
1142.00,0.0325
1141.00,0.0324
1140.00,0.0323
1139.00,0.0322
1138.00,0.0321
1137.00,0.0320
1136.00,0.0320
1135.00,0.0320
1134.00,0.0320
1133.00,0.0319
1132.00,0.0319
1131.00,0.0319
1130.00,0.0318
1129.00,0.0318
1128.00,0.0317
1127.00,0.0317
1126.00,0.0317
1125.00,0.0317
1124.00,0.0317
1123.00,0.0317
1122.00,0.0317
1121.00,0.0317
1120.00,0.0318
1119.00,0.0318
1118.00,0.0319
1117.00,0.0319
1116.00,0.0320
1115.00,0.0320
1114.00,0.0320
1113.00,0.0320
1112.00,0.0321
1111.00,0.0321
1110.00,0.0322
1109.00,0.0322
1108.00,0.0323
1107.00,0.0324
1106.00,0.0325
1105.00,0.0326
1104.00,0.0326
1103.00,0.0327
1102.00,0.0327
1101.00,0.0328
1100.00,0.0328
1099.00,0.0328
1098.00,0.0329
1097.00,0.0329
1096.00,0.0330
1095.00,0.0332
1094.00,0.0333
1093.00,0.0336
1092.00,0.0338
1091.00,0.0341
1090.00,0.0345
1089.00,0.0349
1088.00,0.0354
1087.00,0.0359
1086.00,0.0364
1085.00,0.0369
1084.00,0.0375
1083.00,0.0380
1082.00,0.0386
1081.00,0.0392
1080.00,0.0397
1079.00,0.0402
1078.00,0.0407
1077.00,0.0411
1076.00,0.0415
1075.00,0.0419
1074.00,0.0422
1073.00,0.0425
1072.00,0.0428
1071.00,0.0431
1070.00,0.0434
1069.00,0.0437
1068.00,0.0440
1067.00,0.0442
1066.00,0.0444
1065.00,0.0446
1064.00,0.0447
1063.00,0.0447
1062.00,0.0448
1061.00,0.0447
1060.00,0.0446
1059.00,0.0445
1058.00,0.0443
1057.00,0.0442
1056.00,0.0440
1055.00,0.0439
1054.00,0.0438
1053.00,0.0436
1052.00,0.0435
1051.00,0.0433
1050.00,0.0432
1049.00,0.0430
1048.00,0.0428
1047.00,0.0426
1046.00,0.0423
1045.00,0.0421
1044.00,0.0418
1043.00,0.0415
1042.00,0.0412
1041.00,0.0409
1040.00,0.0405
1039.00,0.0402
1038.00,0.0398
1037.00,0.0395
1036.00,0.0393
1035.00,0.0390
1034.00,0.0387
1033.00,0.0385
1032.00,0.0383
1031.00,0.0380
1030.00,0.0378
1029.00,0.0374
1028.00,0.0370
1027.00,0.0366
1026.00,0.0361
1025.00,0.0356
1024.00,0.0352
1023.00,0.0348
1022.00,0.0343
1021.00,0.0339
1020.00,0.0335
1019.00,0.0331
1018.00,0.0327
1017.00,0.0323
1016.00,0.0320
1015.00,0.0316
1014.00,0.0313
1013.00,0.0309
1012.00,0.0306
1011.00,0.0302
1010.00,0.0298
1009.00,0.0294
1008.00,0.0290
1007.00,0.0286
1006.00,0.0283
1005.00,0.0281
1004.00,0.0278
1003.00,0.0276
1002.00,0.0274
1001.00,0.0272
1000.00,0.0270
999.00,0.0268
998.00,0.0266
997.00,0.0265
996.00,0.0263
995.00,0.0262
994.00,0.0261
993.00,0.0260
992.00,0.0259
991.00,0.0258
990.00,0.0257
989.00,0.0255
988.00,0.0254
987.00,0.0253
986.00,0.0251
985.00,0.0250
984.00,0.0249
983.00,0.0248
982.00,0.0247
981.00,0.0246
980.00,0.0245
979.00,0.0244
978.00,0.0243
977.00,0.0242
976.00,0.0240
975.00,0.0239
974.00,0.0238
973.00,0.0237
972.00,0.0236
971.00,0.0235
970.00,0.0234
969.00,0.0234
968.00,0.0235
967.00,0.0235
966.00,0.0236
965.00,0.0237
964.00,0.0237
963.00,0.0237
962.00,0.0237
961.00,0.0235
960.00,0.0233
959.00,0.0231
958.00,0.0229
957.00,0.0227
956.00,0.0225
955.00,0.0223
954.00,0.0221
953.00,0.0220
952.00,0.0219
951.00,0.0218
950.00,0.0218
949.00,0.0217
948.00,0.0217
947.00,0.0216
946.00,0.0216
945.00,0.0216
944.00,0.0215
943.00,0.0215
942.00,0.0215
941.00,0.0215
940.00,0.0216
939.00,0.0216
938.00,0.0217
937.00,0.0218
936.00,0.0220
935.00,0.0221
934.00,0.0223
933.00,0.0224
932.00,0.0225
931.00,0.0225
930.00,0.0226
929.00,0.0226
928.00,0.0227
927.00,0.0227
926.00,0.0227
925.00,0.0227
924.00,0.0226
923.00,0.0225
922.00,0.0225
921.00,0.0224
920.00,0.0223
919.00,0.0223
918.00,0.0222
917.00,0.0221
916.00,0.0220
915.00,0.0219
914.00,0.0218
913.00,0.0218
912.00,0.0217
911.00,0.0217
910.00,0.0217
909.00,0.0217
908.00,0.0217
907.00,0.0217
906.00,0.0218
905.00,0.0219
904.00,0.0219
903.00,0.0220
902.00,0.0220
901.00,0.0220
900.00,0.0220
899.00,0.0220
898.00,0.0220
897.00,0.0220
896.00,0.0219
895.00,0.0219
894.00,0.0219
893.00,0.0218
892.00,0.0217
891.00,0.0217
890.00,0.0216
889.00,0.0215
888.00,0.0214
887.00,0.0213
886.00,0.0212
885.00,0.0211
884.00,0.0211
883.00,0.0211
882.00,0.0211
881.00,0.0210
880.00,0.0210
879.00,0.0210
878.00,0.0210
877.00,0.0210
876.00,0.0210
875.00,0.0210
874.00,0.0210
873.00,0.0209
872.00,0.0209
871.00,0.0209
870.00,0.0208
869.00,0.0208
868.00,0.0207
867.00,0.0206
866.00,0.0205
865.00,0.0204
864.00,0.0203
863.00,0.0202
862.00,0.0201
861.00,0.0200
860.00,0.0199
859.00,0.0199
858.00,0.0199
857.00,0.0199
856.00,0.0199
855.00,0.0199
854.00,0.0200
853.00,0.0200
852.00,0.0201
851.00,0.0202
850.00,0.0202
849.00,0.0202
848.00,0.0202
847.00,0.0201
846.00,0.0201
845.00,0.0201
844.00,0.0201
843.00,0.0202
842.00,0.0203
841.00,0.0204
840.00,0.0205
839.00,0.0206
838.00,0.0207
837.00,0.0209
836.00,0.0210
835.00,0.0212
834.00,0.0214
833.00,0.0216
832.00,0.0219
831.00,0.0222
830.00,0.0224
829.00,0.0227
828.00,0.0229
827.00,0.0231
826.00,0.0231
825.00,0.0231
824.00,0.0230
823.00,0.0230
822.00,0.0230
821.00,0.0231
820.00,0.0232
819.00,0.0233
818.00,0.0233
817.00,0.0235
816.00,0.0236
815.00,0.0238
814.00,0.0240
813.00,0.0242
812.00,0.0244
811.00,0.0246
810.00,0.0248
809.00,0.0249
808.00,0.0251
807.00,0.0253
806.00,0.0255
805.00,0.0257
804.00,0.0259
803.00,0.0260
802.00,0.0261
801.00,0.0262
800.00,0.0262
799.00,0.0262
798.00,0.0263
797.00,0.0264
796.00,0.0265
795.00,0.0267
794.00,0.0268
793.00,0.0269
792.00,0.0270
791.00,0.0271
790.00,0.0273
789.00,0.0275
788.00,0.0278
787.00,0.0280
786.00,0.0282
785.00,0.0285
784.00,0.0287
783.00,0.0290
782.00,0.0293
781.00,0.0296
780.00,0.0299
779.00,0.0302
778.00,0.0305
777.00,0.0308
776.00,0.0311
775.00,0.0314
774.00,0.0317
773.00,0.0321
772.00,0.0324
771.00,0.0327
770.00,0.0330
769.00,0.0334
768.00,0.0337
767.00,0.0341
766.00,0.0345
765.00,0.0348
764.00,0.0351
763.00,0.0353
762.00,0.0356
761.00,0.0359
760.00,0.0361
759.00,0.0364
758.00,0.0367
757.00,0.0369
756.00,0.0372
755.00,0.0374
754.00,0.0376
753.00,0.0378
752.00,0.0380
751.00,0.0382
750.00,0.0384
749.00,0.0385
748.00,0.0386
747.00,0.0387
746.00,0.0388
745.00,0.0388
744.00,0.0388
743.00,0.0388
742.00,0.0387
741.00,0.0387
740.00,0.0386
739.00,0.0386
738.00,0.0387
737.00,0.0388
736.00,0.0389
735.00,0.0390
734.00,0.0392
733.00,0.0394
732.00,0.0397
731.00,0.0399
730.00,0.0402
729.00,0.0406
728.00,0.0409
727.00,0.0414
726.00,0.0418
725.00,0.0423
724.00,0.0429
723.00,0.0435
722.00,0.0441
721.00,0.0447
720.00,0.0453
719.00,0.0458
718.00,0.0464
717.00,0.0470
716.00,0.0476
715.00,0.0482
714.00,0.0488
713.00,0.0494
712.00,0.0501
711.00,0.0508
710.00,0.0515
709.00,0.0522
708.00,0.0530
707.00,0.0539
706.00,0.0547
705.00,0.0556
704.00,0.0565
703.00,0.0573
702.00,0.0580
701.00,0.0585
700.00,0.0589
699.00,0.0592
698.00,0.0593
697.00,0.0594
696.00,0.0595
695.00,0.0595
694.00,0.0595
693.00,0.0595
692.00,0.0595
691.00,0.0596
690.00,0.0597
689.00,0.0598
688.00,0.0599
687.00,0.0600
686.00,0.0601
685.00,0.0603
684.00,0.0605
683.00,0.0607
682.00,0.0609
681.00,0.0611
680.00,0.0613
679.00,0.0615
678.00,0.0617
677.00,0.0619
676.00,0.0621
675.00,0.0622
674.00,0.0624
673.00,0.0626
672.00,0.0628
671.00,0.0630
670.00,0.0632
669.00,0.0634
668.00,0.0637
667.00,0.0639
666.00,0.0640
665.00,0.0641
664.00,0.0642
663.00,0.0644
662.00,0.0646
661.00,0.0648
660.00,0.0650
659.00,0.0651
658.00,0.0652
657.00,0.0653
656.00,0.0654
655.00,0.0656
654.00,0.0657
653.00,0.0659
652.00,0.0661
651.00,0.0663
650.00,0.0665
649.00,0.0667
648.00,0.0670
647.00,0.0672
646.00,0.0675
645.00,0.0678
644.00,0.0681
643.00,0.0684
642.00,0.0688
641.00,0.0691
640.00,0.0694
639.00,0.0697
638.00,0.0700
637.00,0.0702
636.00,0.0705
635.00,0.0708
634.00,0.0711
633.00,0.0714
632.00,0.0717
631.00,0.0719
630.00,0.0722
629.00,0.0724
628.00,0.0726
627.00,0.0728
626.00,0.0729
625.00,0.0730
624.00,0.0731
623.00,0.0732
622.00,0.0732
621.00,0.0733
620.00,0.0733
619.00,0.0733
618.00,0.0733
617.00,0.0732
616.00,0.0733
615.00,0.0733
614.00,0.0732
613.00,0.0732
612.00,0.0732
611.00,0.0732
610.00,0.0731
609.00,0.0730
608.00,0.0730
607.00,0.0730
606.00,0.0730
605.00,0.0730
604.00,0.0731
603.00,0.0732
602.00,0.0732
601.00,0.0732
600.00,0.0733
599.00,0.0733
598.00,0.0734
597.00,0.0735
596.00,0.0736
595.00,0.0737
594.00,0.0738
593.00,0.0738
592.00,0.0739
591.00,0.0739
590.00,0.0740
589.00,0.0740
588.00,0.0742
587.00,0.0743
586.00,0.0745
585.00,0.0746
584.00,0.0748
583.00,0.0749
582.00,0.0750
581.00,0.0752
580.00,0.0754
579.00,0.0755
578.00,0.0756
577.00,0.0758
576.00,0.0759
575.00,0.0760
574.00,0.0761
573.00,0.0762
572.00,0.0763
571.00,0.0764
570.00,0.0764
569.00,0.0766
568.00,0.0768
567.00,0.0770
566.00,0.0772
565.00,0.0773
564.00,0.0774
563.00,0.0776
562.00,0.0777
561.00,0.0779
560.00,0.0780
559.00,0.0782
558.00,0.0783
557.00,0.0783
556.00,0.0785
555.00,0.0786
554.00,0.0788
553.00,0.0789
552.00,0.0791
551.00,0.0793
550.00,0.0794
549.00,0.0795
548.00,0.0797
547.00,0.0798
546.00,0.0798
545.00,0.0799
544.00,0.0799
543.00,0.0800
542.00,0.0800
541.00,0.0801
540.00,0.0803
539.00,0.0805
538.00,0.0807
537.00,0.0810
536.00,0.0812
535.00,0.0813
534.00,0.0814
533.00,0.0815
532.00,0.0817
531.00,0.0819
530.00,0.0821
529.00,0.0823
528.00,0.0827
527.00,0.0830
526.00,0.0832
525.00,0.0833
524.00,0.0834
523.00,0.0835
522.00,0.0835
521.00,0.0837
520.00,0.0838
519.00,0.0839
518.00,0.0839
517.00,0.0839
516.00,0.0840
515.00,0.0840
514.00,0.0839
513.00,0.0837
512.00,0.0835
511.00,0.0831
510.00,0.0827
509.00,0.0823
508.00,0.0821
507.00,0.0819
506.00,0.0817
505.00,0.0815
504.00,0.0812
503.00,0.0810
502.00,0.0807
501.00,0.0806
500.00,0.0805
499.00,0.0805
498.00,0.0804
497.00,0.0805
496.00,0.0806
495.00,0.0808
494.00,0.0810
493.00,0.0811
492.00,0.0812
491.00,0.0813
490.00,0.0811
489.00,0.0808
488.00,0.0805
487.00,0.0803
486.00,0.0802
485.00,0.0801
484.00,0.0802
483.00,0.0803
482.00,0.0803
481.00,0.0803
480.00,0.0803
479.00,0.0803
478.00,0.0803
477.00,0.0803
476.00,0.0804
475.00,0.0804
474.00,0.0803
473.00,0.0801
472.00,0.0800
471.00,0.0798
470.00,0.0796
469.00,0.0794
468.00,0.0796
467.00,0.0797
466.00,0.0798
465.00,0.0797
464.00,0.0798
463.00,0.0800
462.00,0.0801
461.00,0.0800
460.00,0.0797
459.00,0.0793
458.00,0.0789
457.00,0.0788
456.00,0.0789
455.00,0.0790
454.00,0.0787
453.00,0.0785
452.00,0.0785
451.00,0.0786
450.00,0.0785
449.00,0.0782
448.00,0.0777
447.00,0.0773
446.00,0.0768
445.00,0.0763
444.00,0.0759
443.00,0.0756
442.00,0.0752
441.00,0.0749
440.00,0.0746
439.00,0.0742
438.00,0.0736
437.00,0.0730
436.00,0.0723
435.00,0.0716
434.00,0.0708
433.00,0.0703
432.00,0.0701
431.00,0.0701
430.00,0.0701
429.00,0.0700
428.00,0.0699
427.00,0.0694
426.00,0.0689
425.00,0.0683
424.00,0.0680
423.00,0.0677
422.00,0.0674
421.00,0.0672
420.00,0.0670
419.00,0.0671
418.00,0.0673
417.00,0.0677
416.00,0.0679
415.00,0.0679
414.00,0.0677
413.00,0.0674
412.00,0.0672
411.00,0.0669
410.00,0.0664
409.00,0.0659
408.00,0.0657
407.00,0.0659
406.00,0.0660
405.00,0.0659
404.00,0.0656
403.00,0.0648
402.00,0.0638
401.00,0.0630
400.00,0.0627
