Created as New Dataset,Sample 662 By YargerLab Date Wednesday, June 11 2025
cm-1,A
4000.00,0.0052
3999.00,0.0052
3998.00,0.0052
3997.00,0.0052
3996.00,0.0052
3995.00,0.0052
3994.00,0.0052
3993.00,0.0051
3992.00,0.0052
3991.00,0.0052
3990.00,0.0053
3989.00,0.0054
3988.00,0.0054
3987.00,0.0054
3986.00,0.0054
3985.00,0.0053
3984.00,0.0053
3983.00,0.0052
3982.00,0.0052
3981.00,0.0053
3980.00,0.0053
3979.00,0.0054
3978.00,0.0054
3977.00,0.0053
3976.00,0.0052
3975.00,0.0052
3974.00,0.0052
3973.00,0.0052
3972.00,0.0052
3971.00,0.0053
3970.00,0.0053
3969.00,0.0054
3968.00,0.0054
3967.00,0.0054
3966.00,0.0053
3965.00,0.0053
3964.00,0.0053
3963.00,0.0052
3962.00,0.0052
3961.00,0.0052
3960.00,0.0052
3959.00,0.0052
3958.00,0.0052
3957.00,0.0052
3956.00,0.0053
3955.00,0.0053
3954.00,0.0052
3953.00,0.0053
3952.00,0.0053
3951.00,0.0052
3950.00,0.0052
3949.00,0.0052
3948.00,0.0052
3947.00,0.0052
3946.00,0.0051
3945.00,0.0051
3944.00,0.0050
3943.00,0.0050
3942.00,0.0051
3941.00,0.0052
3940.00,0.0053
3939.00,0.0053
3938.00,0.0052
3937.00,0.0052
3936.00,0.0052
3935.00,0.0052
3934.00,0.0052
3933.00,0.0052
3932.00,0.0053
3931.00,0.0053
3930.00,0.0054
3929.00,0.0053
3928.00,0.0053
3927.00,0.0052
3926.00,0.0051
3925.00,0.0051
3924.00,0.0051
3923.00,0.0052
3922.00,0.0053
3921.00,0.0053
3920.00,0.0053
3919.00,0.0052
3918.00,0.0052
3917.00,0.0052
3916.00,0.0052
3915.00,0.0052
3914.00,0.0053
3913.00,0.0053
3912.00,0.0054
3911.00,0.0054
3910.00,0.0054
3909.00,0.0054
3908.00,0.0054
3907.00,0.0053
3906.00,0.0053
3905.00,0.0052
3904.00,0.0051
3903.00,0.0050
3902.00,0.0049
3901.00,0.0049
3900.00,0.0049
3899.00,0.0050
3898.00,0.0050
3897.00,0.0051
3896.00,0.0051
3895.00,0.0051
3894.00,0.0051
3893.00,0.0051
3892.00,0.0051
3891.00,0.0051
3890.00,0.0051
3889.00,0.0051
3888.00,0.0051
3887.00,0.0050
3886.00,0.0050
3885.00,0.0049
3884.00,0.0050
3883.00,0.0050
3882.00,0.0050
3881.00,0.0050
3880.00,0.0051
3879.00,0.0052
3878.00,0.0053
3877.00,0.0053
3876.00,0.0053
3875.00,0.0053
3874.00,0.0052
3873.00,0.0053
3872.00,0.0053
3871.00,0.0053
3870.00,0.0053
3869.00,0.0053
3868.00,0.0053
3867.00,0.0052
3866.00,0.0052
3865.00,0.0051
3864.00,0.0051
3863.00,0.0052
3862.00,0.0053
3861.00,0.0053
3860.00,0.0052
3859.00,0.0052
3858.00,0.0053
3857.00,0.0053
3856.00,0.0053
3855.00,0.0051
3854.00,0.0050
3853.00,0.0049
3852.00,0.0050
3851.00,0.0051
3850.00,0.0051
3849.00,0.0051
3848.00,0.0051
3847.00,0.0051
3846.00,0.0051
3845.00,0.0051
3844.00,0.0051
3843.00,0.0051
3842.00,0.0051
3841.00,0.0051
3840.00,0.0051
3839.00,0.0051
3838.00,0.0051
3837.00,0.0051
3836.00,0.0052
3835.00,0.0052
3834.00,0.0054
3833.00,0.0054
3832.00,0.0054
3831.00,0.0054
3830.00,0.0053
3829.00,0.0052
3828.00,0.0052
3827.00,0.0052
3826.00,0.0052
3825.00,0.0053
3824.00,0.0054
3823.00,0.0054
3822.00,0.0053
3821.00,0.0051
3820.00,0.0050
3819.00,0.0050
3818.00,0.0050
3817.00,0.0049
3816.00,0.0049
3815.00,0.0049
3814.00,0.0050
3813.00,0.0051
3812.00,0.0051
3811.00,0.0052
3810.00,0.0052
3809.00,0.0052
3808.00,0.0052
3807.00,0.0051
3806.00,0.0051
3805.00,0.0051
3804.00,0.0051
3803.00,0.0052
3802.00,0.0052
3801.00,0.0053
3800.00,0.0054
3799.00,0.0054
3798.00,0.0053
3797.00,0.0052
3796.00,0.0051
3795.00,0.0050
3794.00,0.0050
3793.00,0.0050
3792.00,0.0050
3791.00,0.0051
3790.00,0.0052
3789.00,0.0053
3788.00,0.0053
3787.00,0.0052
3786.00,0.0052
3785.00,0.0051
3784.00,0.0051
3783.00,0.0051
3782.00,0.0051
3781.00,0.0052
3780.00,0.0052
3779.00,0.0052
3778.00,0.0053
3777.00,0.0053
3776.00,0.0052
3775.00,0.0052
3774.00,0.0052
3773.00,0.0052
3772.00,0.0052
3771.00,0.0052
3770.00,0.0053
3769.00,0.0054
3768.00,0.0054
3767.00,0.0053
3766.00,0.0052
3765.00,0.0051
3764.00,0.0051
3763.00,0.0051
3762.00,0.0050
3761.00,0.0050
3760.00,0.0050
3759.00,0.0050
3758.00,0.0050
3757.00,0.0051
3756.00,0.0051
3755.00,0.0052
3754.00,0.0052
3753.00,0.0053
3752.00,0.0053
3751.00,0.0053
3750.00,0.0052
3749.00,0.0051
3748.00,0.0050
3747.00,0.0049
3746.00,0.0048
3745.00,0.0048
3744.00,0.0048
3743.00,0.0049
3742.00,0.0050
3741.00,0.0051
3740.00,0.0051
3739.00,0.0051
3738.00,0.0051
3737.00,0.0051
3736.00,0.0050
3735.00,0.0049
3734.00,0.0048
3733.00,0.0047
3732.00,0.0047
3731.00,0.0047
3730.00,0.0048
3729.00,0.0049
3728.00,0.0050
3727.00,0.0051
3726.00,0.0050
3725.00,0.0049
3724.00,0.0048
3723.00,0.0047
3722.00,0.0047
3721.00,0.0047
3720.00,0.0047
3719.00,0.0048
3718.00,0.0048
3717.00,0.0049
3716.00,0.0049
3715.00,0.0050
3714.00,0.0051
3713.00,0.0051
3712.00,0.0051
3711.00,0.0051
3710.00,0.0050
3709.00,0.0049
3708.00,0.0049
3707.00,0.0049
3706.00,0.0049
3705.00,0.0049
3704.00,0.0049
3703.00,0.0049
3702.00,0.0048
3701.00,0.0048
3700.00,0.0049
3699.00,0.0050
3698.00,0.0051
3697.00,0.0050
3696.00,0.0050
3695.00,0.0049
3694.00,0.0049
3693.00,0.0049
3692.00,0.0049
3691.00,0.0049
3690.00,0.0048
3689.00,0.0047
3688.00,0.0047
3687.00,0.0046
3686.00,0.0046
3685.00,0.0046
3684.00,0.0046
3683.00,0.0045
3682.00,0.0045
3681.00,0.0046
3680.00,0.0047
3679.00,0.0049
3678.00,0.0051
3677.00,0.0051
3676.00,0.0050
3675.00,0.0049
3674.00,0.0048
3673.00,0.0047
3672.00,0.0046
3671.00,0.0046
3670.00,0.0046
3669.00,0.0048
3668.00,0.0049
3667.00,0.0050
3666.00,0.0049
3665.00,0.0049
3664.00,0.0049
3663.00,0.0048
3662.00,0.0048
3661.00,0.0049
3660.00,0.0049
3659.00,0.0050
3658.00,0.0050
3657.00,0.0051
3656.00,0.0051
3655.00,0.0051
3654.00,0.0051
3653.00,0.0050
3652.00,0.0049
3651.00,0.0048
3650.00,0.0047
3649.00,0.0047
3648.00,0.0048
3647.00,0.0049
3646.00,0.0050
3645.00,0.0051
3644.00,0.0050
3643.00,0.0049
3642.00,0.0048
3641.00,0.0048
3640.00,0.0048
3639.00,0.0048
3638.00,0.0048
3637.00,0.0049
3636.00,0.0049
3635.00,0.0049
3634.00,0.0050
3633.00,0.0051
3632.00,0.0052
3631.00,0.0053
3630.00,0.0053
3629.00,0.0052
3628.00,0.0052
3627.00,0.0052
3626.00,0.0052
3625.00,0.0052
3624.00,0.0052
3623.00,0.0053
3622.00,0.0054
3621.00,0.0055
3620.00,0.0054
3619.00,0.0052
3618.00,0.0051
3617.00,0.0050
3616.00,0.0050
3615.00,0.0051
3614.00,0.0050
3613.00,0.0050
3612.00,0.0049
3611.00,0.0049
3610.00,0.0048
3609.00,0.0049
3608.00,0.0049
3607.00,0.0050
3606.00,0.0051
3605.00,0.0052
3604.00,0.0052
3603.00,0.0052
3602.00,0.0053
3601.00,0.0054
3600.00,0.0054
3599.00,0.0054
3598.00,0.0053
3597.00,0.0053
3596.00,0.0052
3595.00,0.0051
3594.00,0.0051
3593.00,0.0051
3592.00,0.0051
3591.00,0.0051
3590.00,0.0051
3589.00,0.0052
3588.00,0.0052
3587.00,0.0053
3586.00,0.0053
3585.00,0.0054
3584.00,0.0053
3583.00,0.0054
3582.00,0.0054
3581.00,0.0055
3580.00,0.0056
3579.00,0.0056
3578.00,0.0056
3577.00,0.0057
3576.00,0.0057
3575.00,0.0058
3574.00,0.0058
3573.00,0.0057
3572.00,0.0056
3571.00,0.0056
3570.00,0.0056
3569.00,0.0056
3568.00,0.0056
3567.00,0.0055
3566.00,0.0054
3565.00,0.0055
3564.00,0.0056
3563.00,0.0058
3562.00,0.0059
3561.00,0.0059
3560.00,0.0059
3559.00,0.0060
3558.00,0.0060
3557.00,0.0061
3556.00,0.0061
3555.00,0.0062
3554.00,0.0062
3553.00,0.0062
3552.00,0.0061
3551.00,0.0061
3550.00,0.0061
3549.00,0.0061
3548.00,0.0062
3547.00,0.0062
3546.00,0.0062
3545.00,0.0062
3544.00,0.0062
3543.00,0.0062
3542.00,0.0063
3541.00,0.0064
3540.00,0.0065
3539.00,0.0065
3538.00,0.0066
3537.00,0.0066
3536.00,0.0066
3535.00,0.0067
3534.00,0.0066
3533.00,0.0066
3532.00,0.0066
3531.00,0.0065
3530.00,0.0065
3529.00,0.0065
3528.00,0.0066
3527.00,0.0066
3526.00,0.0065
3525.00,0.0065
3524.00,0.0066
3523.00,0.0067
3522.00,0.0069
3521.00,0.0071
3520.00,0.0072
3519.00,0.0072
3518.00,0.0072
3517.00,0.0071
3516.00,0.0069
3515.00,0.0069
3514.00,0.0069
3513.00,0.0069
3512.00,0.0069
3511.00,0.0069
3510.00,0.0069
3509.00,0.0069
3508.00,0.0069
3507.00,0.0069
3506.00,0.0069
3505.00,0.0069
3504.00,0.0070
3503.00,0.0070
3502.00,0.0070
3501.00,0.0070
3500.00,0.0070
3499.00,0.0070
3498.00,0.0070
3497.00,0.0070
3496.00,0.0070
3495.00,0.0071
3494.00,0.0071
3493.00,0.0072
3492.00,0.0073
3491.00,0.0073
3490.00,0.0074
3489.00,0.0074
3488.00,0.0075
3487.00,0.0075
3486.00,0.0076
3485.00,0.0076
3484.00,0.0075
3483.00,0.0075
3482.00,0.0075
3481.00,0.0076
3480.00,0.0077
3479.00,0.0078
3478.00,0.0079
3477.00,0.0078
3476.00,0.0078
3475.00,0.0078
3474.00,0.0078
3473.00,0.0079
3472.00,0.0079
3471.00,0.0079
3470.00,0.0079
3469.00,0.0079
3468.00,0.0079
3467.00,0.0079
3466.00,0.0079
3465.00,0.0080
3464.00,0.0081
3463.00,0.0081
3462.00,0.0081
3461.00,0.0081
3460.00,0.0082
3459.00,0.0083
3458.00,0.0083
3457.00,0.0084
3456.00,0.0085
3455.00,0.0085
3454.00,0.0086
3453.00,0.0086
3452.00,0.0086
3451.00,0.0087
3450.00,0.0087
3449.00,0.0087
3448.00,0.0087
3447.00,0.0088
3446.00,0.0088
3445.00,0.0089
3444.00,0.0089
3443.00,0.0090
3442.00,0.0090
3441.00,0.0090
3440.00,0.0089
3439.00,0.0089
3438.00,0.0088
3437.00,0.0088
3436.00,0.0088
3435.00,0.0089
3434.00,0.0090
3433.00,0.0090
3432.00,0.0091
3431.00,0.0091
3430.00,0.0091
3429.00,0.0092
3428.00,0.0093
3427.00,0.0094
3426.00,0.0094
3425.00,0.0095
3424.00,0.0095
3423.00,0.0095
3422.00,0.0095
3421.00,0.0095
3420.00,0.0095
3419.00,0.0095
3418.00,0.0096
3417.00,0.0096
3416.00,0.0096
3415.00,0.0097
3414.00,0.0097
3413.00,0.0097
3412.00,0.0098
3411.00,0.0098
3410.00,0.0099
3409.00,0.0099
3408.00,0.0100
3407.00,0.0100
3406.00,0.0100
3405.00,0.0101
3404.00,0.0102
3403.00,0.0102
3402.00,0.0102
3401.00,0.0102
3400.00,0.0102
3399.00,0.0103
3398.00,0.0105
3397.00,0.0105
3396.00,0.0106
3395.00,0.0106
3394.00,0.0106
3393.00,0.0107
3392.00,0.0107
3391.00,0.0108
3390.00,0.0108
3389.00,0.0108
3388.00,0.0108
3387.00,0.0108
3386.00,0.0108
3385.00,0.0108
3384.00,0.0108
3383.00,0.0108
3382.00,0.0108
3381.00,0.0108
3380.00,0.0109
3379.00,0.0110
3378.00,0.0111
3377.00,0.0112
3376.00,0.0114
3375.00,0.0115
3374.00,0.0115
3373.00,0.0114
3372.00,0.0113
3371.00,0.0112
3370.00,0.0112
3369.00,0.0113
3368.00,0.0114
3367.00,0.0115
3366.00,0.0116
3365.00,0.0118
3364.00,0.0119
3363.00,0.0120
3362.00,0.0120
3361.00,0.0120
3360.00,0.0120
3359.00,0.0121
3358.00,0.0121
3357.00,0.0121
3356.00,0.0120
3355.00,0.0120
3354.00,0.0121
3353.00,0.0123
3352.00,0.0125
3351.00,0.0127
3350.00,0.0128
3349.00,0.0128
3348.00,0.0127
3347.00,0.0126
3346.00,0.0125
3345.00,0.0125
3344.00,0.0126
3343.00,0.0127
3342.00,0.0127
3341.00,0.0128
3340.00,0.0128
3339.00,0.0129
3338.00,0.0130
3337.00,0.0131
3336.00,0.0133
3335.00,0.0134
3334.00,0.0135
3333.00,0.0136
3332.00,0.0137
3331.00,0.0138
3330.00,0.0138
3329.00,0.0138
3328.00,0.0138
3327.00,0.0139
3326.00,0.0140
3325.00,0.0141
3324.00,0.0143
3323.00,0.0143
3322.00,0.0144
3321.00,0.0144
3320.00,0.0145
3319.00,0.0146
3318.00,0.0148
3317.00,0.0150
3316.00,0.0152
3315.00,0.0153
3314.00,0.0154
3313.00,0.0154
3312.00,0.0155
3311.00,0.0155
3310.00,0.0154
3309.00,0.0153
3308.00,0.0153
3307.00,0.0153
3306.00,0.0154
3305.00,0.0156
3304.00,0.0158
3303.00,0.0160
3302.00,0.0161
3301.00,0.0163
3300.00,0.0164
3299.00,0.0164
3298.00,0.0164
3297.00,0.0163
3296.00,0.0164
3295.00,0.0165
3294.00,0.0166
3293.00,0.0168
3292.00,0.0169
3291.00,0.0170
3290.00,0.0171
3289.00,0.0171
3288.00,0.0172
3287.00,0.0174
3286.00,0.0175
3285.00,0.0176
3284.00,0.0176
3283.00,0.0176
3282.00,0.0176
3281.00,0.0176
3280.00,0.0177
3279.00,0.0177
3278.00,0.0178
3277.00,0.0179
3276.00,0.0180
3275.00,0.0180
3274.00,0.0179
3273.00,0.0179
3272.00,0.0179
3271.00,0.0180
3270.00,0.0182
3269.00,0.0184
3268.00,0.0186
3267.00,0.0186
3266.00,0.0185
3265.00,0.0184
3264.00,0.0182
3263.00,0.0181
3262.00,0.0180
3261.00,0.0178
3260.00,0.0177
3259.00,0.0176
3258.00,0.0175
3257.00,0.0175
3256.00,0.0175
3255.00,0.0175
3254.00,0.0175
3253.00,0.0175
3252.00,0.0175
3251.00,0.0176
3250.00,0.0176
3249.00,0.0175
3248.00,0.0173
3247.00,0.0171
3246.00,0.0170
3245.00,0.0170
3244.00,0.0170
3243.00,0.0169
3242.00,0.0169
3241.00,0.0169
3240.00,0.0169
3239.00,0.0169
3238.00,0.0168
3237.00,0.0167
3236.00,0.0166
3235.00,0.0166
3234.00,0.0165
3233.00,0.0164
3232.00,0.0164
3231.00,0.0164
3230.00,0.0164
3229.00,0.0164
3228.00,0.0164
3227.00,0.0164
3226.00,0.0163
3225.00,0.0162
3224.00,0.0161
3223.00,0.0160
3222.00,0.0160
3221.00,0.0160
3220.00,0.0161
3219.00,0.0161
3218.00,0.0161
3217.00,0.0161
3216.00,0.0160
3215.00,0.0159
3214.00,0.0159
3213.00,0.0158
3212.00,0.0159
3211.00,0.0159
3210.00,0.0159
3209.00,0.0158
3208.00,0.0158
3207.00,0.0157
3206.00,0.0157
3205.00,0.0157
3204.00,0.0157
3203.00,0.0156
3202.00,0.0155
3201.00,0.0154
3200.00,0.0154
3199.00,0.0154
3198.00,0.0155
3197.00,0.0155
3196.00,0.0156
3195.00,0.0155
3194.00,0.0154
3193.00,0.0153
3192.00,0.0153
3191.00,0.0153
3190.00,0.0152
3189.00,0.0152
3188.00,0.0152
3187.00,0.0152
3186.00,0.0150
3185.00,0.0149
3184.00,0.0148
3183.00,0.0147
3182.00,0.0147
3181.00,0.0147
3180.00,0.0148
3179.00,0.0148
3178.00,0.0147
3177.00,0.0146
3176.00,0.0145
3175.00,0.0146
3174.00,0.0146
3173.00,0.0147
3172.00,0.0147
3171.00,0.0146
3170.00,0.0145
3169.00,0.0144
3168.00,0.0143
3167.00,0.0142
3166.00,0.0141
3165.00,0.0141
3164.00,0.0140
3163.00,0.0139
3162.00,0.0139
3161.00,0.0138
3160.00,0.0138
3159.00,0.0137
3158.00,0.0137
3157.00,0.0137
3156.00,0.0137
3155.00,0.0136
3154.00,0.0135
3153.00,0.0134
3152.00,0.0134
3151.00,0.0134
3150.00,0.0134
3149.00,0.0133
3148.00,0.0133
3147.00,0.0132
3146.00,0.0132
3145.00,0.0132
3144.00,0.0131
3143.00,0.0130
3142.00,0.0130
3141.00,0.0129
3140.00,0.0129
3139.00,0.0129
3138.00,0.0129
3137.00,0.0129
3136.00,0.0129
3135.00,0.0128
3134.00,0.0127
3133.00,0.0126
3132.00,0.0126
3131.00,0.0126
3130.00,0.0126
3129.00,0.0126
3128.00,0.0126
3127.00,0.0126
3126.00,0.0126
3125.00,0.0125
3124.00,0.0125
3123.00,0.0123
3122.00,0.0122
3121.00,0.0121
3120.00,0.0120
3119.00,0.0120
3118.00,0.0120
3117.00,0.0120
3116.00,0.0121
3115.00,0.0123
3114.00,0.0124
3113.00,0.0125
3112.00,0.0124
3111.00,0.0123
3110.00,0.0123
3109.00,0.0122
3108.00,0.0123
3107.00,0.0124
3106.00,0.0124
3105.00,0.0125
3104.00,0.0124
3103.00,0.0124
3102.00,0.0124
3101.00,0.0124
3100.00,0.0125
3099.00,0.0126
3098.00,0.0127
3097.00,0.0127
3096.00,0.0127
3095.00,0.0126
3094.00,0.0125
3093.00,0.0125
3092.00,0.0125
3091.00,0.0126
3090.00,0.0127
3089.00,0.0127
3088.00,0.0126
3087.00,0.0126
3086.00,0.0125
3085.00,0.0125
3084.00,0.0126
3083.00,0.0126
3082.00,0.0127
3081.00,0.0126
3080.00,0.0126
3079.00,0.0126
3078.00,0.0126
3077.00,0.0126
3076.00,0.0127
3075.00,0.0127
3074.00,0.0128
3073.00,0.0128
3072.00,0.0128
3071.00,0.0128
3070.00,0.0128
3069.00,0.0127
3068.00,0.0127
3067.00,0.0128
3066.00,0.0128
3065.00,0.0128
3064.00,0.0128
3063.00,0.0127
3062.00,0.0127
3061.00,0.0127
3060.00,0.0127
3059.00,0.0127
3058.00,0.0127
3057.00,0.0128
3056.00,0.0128
3055.00,0.0129
3054.00,0.0129
3053.00,0.0128
3052.00,0.0127
3051.00,0.0127
3050.00,0.0127
3049.00,0.0127
3048.00,0.0126
3047.00,0.0126
3046.00,0.0125
3045.00,0.0124
3044.00,0.0124
3043.00,0.0124
3042.00,0.0125
3041.00,0.0126
3040.00,0.0126
3039.00,0.0126
3038.00,0.0124
3037.00,0.0123
3036.00,0.0122
3035.00,0.0122
3034.00,0.0122
3033.00,0.0122
3032.00,0.0123
3031.00,0.0123
3030.00,0.0122
3029.00,0.0122
3028.00,0.0122
3027.00,0.0121
3026.00,0.0121
3025.00,0.0121
3024.00,0.0121
3023.00,0.0121
3022.00,0.0121
3021.00,0.0120
3020.00,0.0118
3019.00,0.0116
3018.00,0.0115
3017.00,0.0114
3016.00,0.0114
3015.00,0.0115
3014.00,0.0116
3013.00,0.0116
3012.00,0.0116
3011.00,0.0116
3010.00,0.0116
3009.00,0.0116
3008.00,0.0116
3007.00,0.0116
3006.00,0.0117
3005.00,0.0117
3004.00,0.0117
3003.00,0.0117
3002.00,0.0117
3001.00,0.0116
3000.00,0.0115
2999.00,0.0114
2998.00,0.0114
2997.00,0.0113
2996.00,0.0113
2995.00,0.0113
2994.00,0.0114
2993.00,0.0114
2992.00,0.0115
2991.00,0.0115
2990.00,0.0116
2989.00,0.0117
2988.00,0.0118
2987.00,0.0118
2986.00,0.0118
2985.00,0.0118
2984.00,0.0118
2983.00,0.0119
2982.00,0.0119
2981.00,0.0120
2980.00,0.0120
2979.00,0.0121
2978.00,0.0121
2977.00,0.0121
2976.00,0.0122
2975.00,0.0123
2974.00,0.0124
2973.00,0.0125
2972.00,0.0126
2971.00,0.0126
2970.00,0.0126
2969.00,0.0127
2968.00,0.0128
2967.00,0.0129
2966.00,0.0129
2965.00,0.0130
2964.00,0.0130
2963.00,0.0130
2962.00,0.0130
2961.00,0.0130
2960.00,0.0130
2959.00,0.0130
2958.00,0.0130
2957.00,0.0130
2956.00,0.0130
2955.00,0.0129
2954.00,0.0129
2953.00,0.0129
2952.00,0.0129
2951.00,0.0128
2950.00,0.0127
2949.00,0.0127
2948.00,0.0126
2947.00,0.0126
2946.00,0.0126
2945.00,0.0127
2944.00,0.0128
2943.00,0.0129
2942.00,0.0130
2941.00,0.0132
2940.00,0.0134
2939.00,0.0134
2938.00,0.0135
2937.00,0.0135
2936.00,0.0136
2935.00,0.0136
2934.00,0.0136
2933.00,0.0135
2932.00,0.0134
2931.00,0.0134
2930.00,0.0135
2929.00,0.0136
2928.00,0.0136
2927.00,0.0136
2926.00,0.0136
2925.00,0.0135
2924.00,0.0135
2923.00,0.0135
2922.00,0.0134
2921.00,0.0134
2920.00,0.0133
2919.00,0.0132
2918.00,0.0130
2917.00,0.0128
2916.00,0.0127
2915.00,0.0126
2914.00,0.0126
2913.00,0.0126
2912.00,0.0125
2911.00,0.0124
2910.00,0.0123
2909.00,0.0122
2908.00,0.0122
2907.00,0.0122
2906.00,0.0122
2905.00,0.0122
2904.00,0.0123
2903.00,0.0123
2902.00,0.0123
2901.00,0.0122
2900.00,0.0120
2899.00,0.0119
2898.00,0.0119
2897.00,0.0119
2896.00,0.0119
2895.00,0.0119
2894.00,0.0119
2893.00,0.0119
2892.00,0.0119
2891.00,0.0119
2890.00,0.0119
2889.00,0.0119
2888.00,0.0119
2887.00,0.0119
2886.00,0.0119
2885.00,0.0119
2884.00,0.0119
2883.00,0.0120
2882.00,0.0120
2881.00,0.0121
2880.00,0.0121
2879.00,0.0121
2878.00,0.0121
2877.00,0.0120
2876.00,0.0120
2875.00,0.0120
2874.00,0.0120
2873.00,0.0120
2872.00,0.0119
2871.00,0.0119
2870.00,0.0119
2869.00,0.0119
2868.00,0.0119
2867.00,0.0118
2866.00,0.0117
2865.00,0.0116
2864.00,0.0117
2863.00,0.0117
2862.00,0.0117
2861.00,0.0117
2860.00,0.0117
2859.00,0.0116
2858.00,0.0116
2857.00,0.0116
2856.00,0.0115
2855.00,0.0115
2854.00,0.0114
2853.00,0.0114
2852.00,0.0113
2851.00,0.0113
2850.00,0.0113
2849.00,0.0113
2848.00,0.0113
2847.00,0.0114
2846.00,0.0113
2845.00,0.0113
2844.00,0.0112
2843.00,0.0111
2842.00,0.0110
2841.00,0.0110
2840.00,0.0109
2839.00,0.0109
2838.00,0.0109
2837.00,0.0109
2836.00,0.0109
2835.00,0.0109
2834.00,0.0109
2833.00,0.0109
2832.00,0.0109
2831.00,0.0108
2830.00,0.0108
2829.00,0.0107
2828.00,0.0107
2827.00,0.0107
2826.00,0.0107
2825.00,0.0107
2824.00,0.0106
2823.00,0.0106
2822.00,0.0106
2821.00,0.0106
2820.00,0.0105
2819.00,0.0105
2818.00,0.0104
2817.00,0.0104
2816.00,0.0104
2815.00,0.0104
2814.00,0.0104
2813.00,0.0105
2812.00,0.0105
2811.00,0.0105
2810.00,0.0105
2809.00,0.0105
2808.00,0.0104
2807.00,0.0104
2806.00,0.0103
2805.00,0.0103
2804.00,0.0103
2803.00,0.0103
2802.00,0.0102
2801.00,0.0102
2800.00,0.0102
2799.00,0.0102
2798.00,0.0102
2797.00,0.0102
2796.00,0.0103
2795.00,0.0103
2794.00,0.0103
2793.00,0.0103
2792.00,0.0102
2791.00,0.0102
2790.00,0.0101
2789.00,0.0100
2788.00,0.0100
2787.00,0.0101
2786.00,0.0101
2785.00,0.0102
2784.00,0.0102
2783.00,0.0102
2782.00,0.0101
2781.00,0.0100
2780.00,0.0100
2779.00,0.0100
2778.00,0.0100
2777.00,0.0100
2776.00,0.0099
2775.00,0.0099
2774.00,0.0099
2773.00,0.0099
2772.00,0.0099
2771.00,0.0099
2770.00,0.0099
2769.00,0.0099
2768.00,0.0099
2767.00,0.0099
2766.00,0.0099
2765.00,0.0099
2764.00,0.0099
2763.00,0.0099
2762.00,0.0099
2761.00,0.0099
2760.00,0.0098
2759.00,0.0098
2758.00,0.0097
2757.00,0.0096
2756.00,0.0096
2755.00,0.0096
2754.00,0.0096
2753.00,0.0096
2752.00,0.0096
2751.00,0.0097
2750.00,0.0097
2749.00,0.0097
2748.00,0.0096
2747.00,0.0096
2746.00,0.0095
2745.00,0.0095
2744.00,0.0095
2743.00,0.0095
2742.00,0.0095
2741.00,0.0096
2740.00,0.0096
2739.00,0.0096
2738.00,0.0096
2737.00,0.0096
2736.00,0.0096
2735.00,0.0096
2734.00,0.0096
2733.00,0.0095
2732.00,0.0095
2731.00,0.0095
2730.00,0.0095
2729.00,0.0095
2728.00,0.0095
2727.00,0.0094
2726.00,0.0094
2725.00,0.0094
2724.00,0.0093
2723.00,0.0093
2722.00,0.0093
2721.00,0.0093
2720.00,0.0094
2719.00,0.0094
2718.00,0.0094
2717.00,0.0094
2716.00,0.0094
2715.00,0.0093
2714.00,0.0093
2713.00,0.0093
2712.00,0.0093
2711.00,0.0093
2710.00,0.0092
2709.00,0.0092
2708.00,0.0092
2707.00,0.0092
2706.00,0.0092
2705.00,0.0093
2704.00,0.0093
2703.00,0.0094
2702.00,0.0094
2701.00,0.0093
2700.00,0.0093
2699.00,0.0092
2698.00,0.0091
2697.00,0.0091
2696.00,0.0091
2695.00,0.0091
2694.00,0.0091
2693.00,0.0091
2692.00,0.0091
2691.00,0.0092
2690.00,0.0092
2689.00,0.0091
2688.00,0.0091
2687.00,0.0091
2686.00,0.0091
2685.00,0.0091
2684.00,0.0090
2683.00,0.0090
2682.00,0.0090
2681.00,0.0090
2680.00,0.0091
2679.00,0.0091
2678.00,0.0090
2677.00,0.0090
2676.00,0.0090
2675.00,0.0090
2674.00,0.0090
2673.00,0.0090
2672.00,0.0091
2671.00,0.0091
2670.00,0.0091
2669.00,0.0090
2668.00,0.0090
2667.00,0.0091
2666.00,0.0091
2665.00,0.0092
2664.00,0.0093
2663.00,0.0093
2662.00,0.0093
2661.00,0.0093
2660.00,0.0093
2659.00,0.0092
2658.00,0.0093
2657.00,0.0093
2656.00,0.0093
2655.00,0.0093
2654.00,0.0092
2653.00,0.0092
2652.00,0.0092
2651.00,0.0092
2650.00,0.0092
2649.00,0.0093
2648.00,0.0093
2647.00,0.0093
2646.00,0.0092
2645.00,0.0092
2644.00,0.0091
2643.00,0.0091
2642.00,0.0090
2641.00,0.0090
2640.00,0.0090
2639.00,0.0090
2638.00,0.0089
2637.00,0.0089
2636.00,0.0089
2635.00,0.0090
2634.00,0.0090
2633.00,0.0091
2632.00,0.0092
2631.00,0.0092
2630.00,0.0092
2629.00,0.0091
2628.00,0.0091
2627.00,0.0091
2626.00,0.0091
2625.00,0.0091
2624.00,0.0091
2623.00,0.0091
2622.00,0.0091
2621.00,0.0091
2620.00,0.0092
2619.00,0.0092
2618.00,0.0091
2617.00,0.0090
2616.00,0.0089
2615.00,0.0089
2614.00,0.0089
2613.00,0.0089
2612.00,0.0090
2611.00,0.0090
2610.00,0.0089
2609.00,0.0089
2608.00,0.0088
2607.00,0.0088
2606.00,0.0089
2605.00,0.0088
2604.00,0.0088
2603.00,0.0086
2602.00,0.0085
2601.00,0.0086
2600.00,0.0086
2599.00,0.0087
2598.00,0.0087
2597.00,0.0087
2596.00,0.0087
2595.00,0.0087
2594.00,0.0088
2593.00,0.0089
2592.00,0.0089
2591.00,0.0088
2590.00,0.0087
2589.00,0.0086
2588.00,0.0086
2587.00,0.0085
2586.00,0.0085
2585.00,0.0086
2584.00,0.0086
2583.00,0.0087
2582.00,0.0088
2581.00,0.0088
2580.00,0.0087
2579.00,0.0087
2578.00,0.0086
2577.00,0.0086
2576.00,0.0086
2575.00,0.0085
2574.00,0.0085
2573.00,0.0085
2572.00,0.0085
2571.00,0.0085
2570.00,0.0085
2569.00,0.0085
2568.00,0.0085
2567.00,0.0084
2566.00,0.0084
2565.00,0.0084
2564.00,0.0084
2563.00,0.0084
2562.00,0.0084
2561.00,0.0083
2560.00,0.0083
2559.00,0.0082
2558.00,0.0082
2557.00,0.0082
2556.00,0.0083
2555.00,0.0084
2554.00,0.0084
2553.00,0.0084
2552.00,0.0084
2551.00,0.0084
2550.00,0.0085
2549.00,0.0085
2548.00,0.0084
2547.00,0.0083
2546.00,0.0081
2545.00,0.0081
2544.00,0.0081
2543.00,0.0081
2542.00,0.0082
2541.00,0.0082
2540.00,0.0082
2539.00,0.0082
2538.00,0.0082
2537.00,0.0082
2536.00,0.0081
2535.00,0.0081
2534.00,0.0080
2533.00,0.0080
2532.00,0.0080
2531.00,0.0080
2530.00,0.0080
2529.00,0.0081
2528.00,0.0081
2527.00,0.0081
2526.00,0.0081
2525.00,0.0081
2524.00,0.0081
2523.00,0.0082
2522.00,0.0082
2521.00,0.0082
2520.00,0.0082
2519.00,0.0082
2518.00,0.0081
2517.00,0.0082
2516.00,0.0082
2515.00,0.0083
2514.00,0.0082
2513.00,0.0080
2512.00,0.0079
2511.00,0.0079
2510.00,0.0079
2509.00,0.0079
2508.00,0.0079
2507.00,0.0077
2506.00,0.0076
2505.00,0.0075
2504.00,0.0076
2503.00,0.0078
2502.00,0.0079
2501.00,0.0079
2500.00,0.0079
2499.00,0.0079
2498.00,0.0079
2497.00,0.0080
2496.00,0.0080
2495.00,0.0080
2494.00,0.0080
2493.00,0.0080
2492.00,0.0079
2491.00,0.0079
2490.00,0.0079
2489.00,0.0078
2488.00,0.0079
2487.00,0.0079
2486.00,0.0080
2485.00,0.0081
2484.00,0.0081
2483.00,0.0081
2482.00,0.0080
2481.00,0.0080
2480.00,0.0080
2479.00,0.0080
2478.00,0.0080
2477.00,0.0079
2476.00,0.0079
2475.00,0.0079
2474.00,0.0079
2473.00,0.0080
2472.00,0.0081
2471.00,0.0081
2470.00,0.0080
2469.00,0.0079
2468.00,0.0078
2467.00,0.0077
2466.00,0.0077
2465.00,0.0077
2464.00,0.0077
2463.00,0.0077
2462.00,0.0077
2461.00,0.0076
2460.00,0.0076
2459.00,0.0077
2458.00,0.0079
2457.00,0.0080
2456.00,0.0081
2455.00,0.0081
2454.00,0.0081
2453.00,0.0080
2452.00,0.0079
2451.00,0.0079
2450.00,0.0079
2449.00,0.0078
2448.00,0.0078
2447.00,0.0077
2446.00,0.0077
2445.00,0.0076
2444.00,0.0076
2443.00,0.0076
2442.00,0.0076
2441.00,0.0076
2440.00,0.0076
2439.00,0.0076
2438.00,0.0076
2437.00,0.0075
2436.00,0.0075
2435.00,0.0076
2434.00,0.0077
2433.00,0.0078
2432.00,0.0078
2431.00,0.0077
2430.00,0.0077
2429.00,0.0076
2428.00,0.0076
2427.00,0.0076
2426.00,0.0076
2425.00,0.0076
2424.00,0.0075
2423.00,0.0075
2422.00,0.0076
2421.00,0.0077
2420.00,0.0078
2419.00,0.0078
2418.00,0.0078
2417.00,0.0076
2416.00,0.0074
2415.00,0.0073
2414.00,0.0073
2413.00,0.0074
2412.00,0.0075
2411.00,0.0076
2410.00,0.0076
2409.00,0.0075
2408.00,0.0074
2407.00,0.0073
2406.00,0.0072
2405.00,0.0072
2404.00,0.0072
2403.00,0.0073
2402.00,0.0073
2401.00,0.0073
2400.00,0.0073
2399.00,0.0073
2398.00,0.0074
2397.00,0.0074
2396.00,0.0073
2395.00,0.0073
2394.00,0.0073
2393.00,0.0072
2392.00,0.0072
2391.00,0.0072
2390.00,0.0072
2389.00,0.0072
2388.00,0.0072
2387.00,0.0072
2386.00,0.0072
2385.00,0.0072
2384.00,0.0072
2383.00,0.0072
2382.00,0.0071
2381.00,0.0069
2380.00,0.0068
2379.00,0.0068
2378.00,0.0068
2377.00,0.0069
2376.00,0.0069
2375.00,0.0069
2374.00,0.0070
2373.00,0.0071
2372.00,0.0072
2371.00,0.0071
2370.00,0.0070
2369.00,0.0069
2368.00,0.0068
2367.00,0.0066
2366.00,0.0065
2365.00,0.0065
2364.00,0.0066
2363.00,0.0067
2362.00,0.0068
2361.00,0.0069
2360.00,0.0070
2359.00,0.0071
2358.00,0.0072
2357.00,0.0072
2356.00,0.0072
2355.00,0.0072
2354.00,0.0070
2353.00,0.0069
2352.00,0.0068
2351.00,0.0068
2350.00,0.0069
2349.00,0.0070
2348.00,0.0070
2347.00,0.0070
2346.00,0.0070
2345.00,0.0070
2344.00,0.0071
2343.00,0.0072
2342.00,0.0072
2341.00,0.0071
2340.00,0.0071
2339.00,0.0071
2338.00,0.0072
2337.00,0.0072
2336.00,0.0071
2335.00,0.0070
2334.00,0.0069
2333.00,0.0068
2332.00,0.0068
2331.00,0.0068
2330.00,0.0069
2329.00,0.0070
2328.00,0.0072
2327.00,0.0075
2326.00,0.0078
2325.00,0.0080
2324.00,0.0080
2323.00,0.0080
2322.00,0.0079
2321.00,0.0079
2320.00,0.0078
2319.00,0.0077
2318.00,0.0076
2317.00,0.0074
2316.00,0.0074
2315.00,0.0073
2314.00,0.0074
2313.00,0.0074
2312.00,0.0074
2311.00,0.0074
2310.00,0.0075
2309.00,0.0075
2308.00,0.0075
2307.00,0.0075
2306.00,0.0074
2305.00,0.0072
2304.00,0.0071
2303.00,0.0071
2302.00,0.0072
2301.00,0.0074
2300.00,0.0075
2299.00,0.0076
2298.00,0.0077
2297.00,0.0077
2296.00,0.0077
2295.00,0.0076
2294.00,0.0075
2293.00,0.0075
2292.00,0.0075
2291.00,0.0076
2290.00,0.0077
2289.00,0.0079
2288.00,0.0080
2287.00,0.0080
2286.00,0.0080
2285.00,0.0079
2284.00,0.0079
2283.00,0.0078
2282.00,0.0077
2281.00,0.0078
2280.00,0.0079
2279.00,0.0080
2278.00,0.0081
2277.00,0.0080
2276.00,0.0078
2275.00,0.0077
2274.00,0.0076
2273.00,0.0076
2272.00,0.0076
2271.00,0.0076
2270.00,0.0076
2269.00,0.0076
2268.00,0.0076
2267.00,0.0075
2266.00,0.0072
2265.00,0.0069
2264.00,0.0066
2263.00,0.0063
2262.00,0.0062
2261.00,0.0064
2260.00,0.0067
2259.00,0.0069
2258.00,0.0069
2257.00,0.0068
2256.00,0.0068
2255.00,0.0068
2254.00,0.0069
2253.00,0.0069
2252.00,0.0069
2251.00,0.0069
2250.00,0.0067
2249.00,0.0067
2248.00,0.0067
2247.00,0.0068
2246.00,0.0070
2245.00,0.0070
2244.00,0.0071
2243.00,0.0071
2242.00,0.0071
2241.00,0.0071
2240.00,0.0071
2239.00,0.0069
2238.00,0.0068
2237.00,0.0066
2236.00,0.0066
2235.00,0.0067
2234.00,0.0068
2233.00,0.0069
2232.00,0.0070
2231.00,0.0071
2230.00,0.0071
2229.00,0.0071
2228.00,0.0070
2227.00,0.0068
2226.00,0.0068
2225.00,0.0068
2224.00,0.0067
2223.00,0.0066
2222.00,0.0066
2221.00,0.0065
2220.00,0.0066
2219.00,0.0067
2218.00,0.0067
2217.00,0.0067
2216.00,0.0067
2215.00,0.0067
2214.00,0.0067
2213.00,0.0068
2212.00,0.0068
2211.00,0.0069
2210.00,0.0069
2209.00,0.0069
2208.00,0.0070
2207.00,0.0069
2206.00,0.0068
2205.00,0.0067
2204.00,0.0067
2203.00,0.0068
2202.00,0.0070
2201.00,0.0071
2200.00,0.0071
2199.00,0.0070
2198.00,0.0067
2197.00,0.0067
2196.00,0.0068
2195.00,0.0070
2194.00,0.0070
2193.00,0.0069
2192.00,0.0069
2191.00,0.0069
2190.00,0.0069
2189.00,0.0068
2188.00,0.0068
2187.00,0.0068
2186.00,0.0067
2185.00,0.0063
2184.00,0.0058
2183.00,0.0054
2182.00,0.0053
2181.00,0.0055
2180.00,0.0058
2179.00,0.0060
2178.00,0.0060
2177.00,0.0059
2176.00,0.0058
2175.00,0.0060
2174.00,0.0065
2173.00,0.0070
2172.00,0.0074
2171.00,0.0075
2170.00,0.0076
2169.00,0.0077
2168.00,0.0080
2167.00,0.0081
2166.00,0.0079
2165.00,0.0075
2164.00,0.0072
2163.00,0.0070
2162.00,0.0068
2161.00,0.0062
2160.00,0.0051
2159.00,0.0042
2158.00,0.0037
2157.00,0.0037
2156.00,0.0039
2155.00,0.0041
2154.00,0.0044
2153.00,0.0047
2152.00,0.0050
2151.00,0.0053
2150.00,0.0055
2149.00,0.0055
2148.00,0.0055
2147.00,0.0055
2146.00,0.0056
2145.00,0.0059
2144.00,0.0061
2143.00,0.0063
2142.00,0.0062
2141.00,0.0060
2140.00,0.0057
2139.00,0.0055
2138.00,0.0053
2137.00,0.0051
2136.00,0.0050
2135.00,0.0048
2134.00,0.0048
2133.00,0.0049
2132.00,0.0051
2131.00,0.0053
2130.00,0.0054
2129.00,0.0055
2128.00,0.0055
2127.00,0.0054
2126.00,0.0054
2125.00,0.0055
2124.00,0.0056
2123.00,0.0058
2122.00,0.0060
2121.00,0.0061
2120.00,0.0062
2119.00,0.0061
2118.00,0.0061
2117.00,0.0060
2116.00,0.0061
2115.00,0.0063
2114.00,0.0064
2113.00,0.0066
2112.00,0.0067
2111.00,0.0069
2110.00,0.0069
2109.00,0.0068
2108.00,0.0068
2107.00,0.0067
2106.00,0.0067
2105.00,0.0065
2104.00,0.0064
2103.00,0.0064
2102.00,0.0065
2101.00,0.0067
2100.00,0.0068
2099.00,0.0069
2098.00,0.0068
2097.00,0.0065
2096.00,0.0062
2095.00,0.0060
2094.00,0.0061
2093.00,0.0063
2092.00,0.0065
2091.00,0.0066
2090.00,0.0065
2089.00,0.0064
2088.00,0.0063
2087.00,0.0063
2086.00,0.0063
2085.00,0.0064
2084.00,0.0064
2083.00,0.0063
2082.00,0.0062
2081.00,0.0062
2080.00,0.0064
2079.00,0.0065
2078.00,0.0065
2077.00,0.0065
2076.00,0.0064
2075.00,0.0064
2074.00,0.0065
2073.00,0.0065
2072.00,0.0065
2071.00,0.0064
2070.00,0.0062
2069.00,0.0061
2068.00,0.0062
2067.00,0.0062
2066.00,0.0063
2065.00,0.0064
2064.00,0.0065
2063.00,0.0065
2062.00,0.0066
2061.00,0.0065
2060.00,0.0063
2059.00,0.0060
2058.00,0.0058
2057.00,0.0058
2056.00,0.0058
2055.00,0.0060
2054.00,0.0063
2053.00,0.0068
2052.00,0.0072
2051.00,0.0074
2050.00,0.0073
2049.00,0.0069
2048.00,0.0066
2047.00,0.0064
2046.00,0.0065
2045.00,0.0067
2044.00,0.0066
2043.00,0.0064
2042.00,0.0059
2041.00,0.0057
2040.00,0.0056
2039.00,0.0059
2038.00,0.0061
2037.00,0.0061
2036.00,0.0057
2035.00,0.0051
2034.00,0.0046
2033.00,0.0045
2032.00,0.0046
2031.00,0.0049
2030.00,0.0052
2029.00,0.0053
2028.00,0.0052
2027.00,0.0050
2026.00,0.0049
2025.00,0.0050
2024.00,0.0052
2023.00,0.0052
2022.00,0.0050
2021.00,0.0046
2020.00,0.0044
2019.00,0.0044
2018.00,0.0046
2017.00,0.0047
2016.00,0.0047
2015.00,0.0047
2014.00,0.0048
2013.00,0.0049
2012.00,0.0052
2011.00,0.0056
2010.00,0.0061
2009.00,0.0066
2008.00,0.0066
2007.00,0.0062
2006.00,0.0056
2005.00,0.0052
2004.00,0.0051
2003.00,0.0051
2002.00,0.0052
2001.00,0.0054
2000.00,0.0057
1999.00,0.0059
1998.00,0.0061
1997.00,0.0063
1996.00,0.0064
1995.00,0.0065
1994.00,0.0064
1993.00,0.0065
1992.00,0.0067
1991.00,0.0069
1990.00,0.0071
1989.00,0.0069
1988.00,0.0066
1987.00,0.0061
1986.00,0.0058
1985.00,0.0059
1984.00,0.0063
1983.00,0.0067
1982.00,0.0068
1981.00,0.0067
1980.00,0.0063
1979.00,0.0058
1978.00,0.0051
1977.00,0.0045
1976.00,0.0040
1975.00,0.0039
1974.00,0.0041
1973.00,0.0045
1972.00,0.0049
1971.00,0.0051
1970.00,0.0053
1969.00,0.0055
1968.00,0.0057
1967.00,0.0057
1966.00,0.0055
1965.00,0.0054
1964.00,0.0054
1963.00,0.0054
1962.00,0.0053
1961.00,0.0050
1960.00,0.0048
1959.00,0.0046
1958.00,0.0046
1957.00,0.0047
1956.00,0.0049
1955.00,0.0050
1954.00,0.0049
1953.00,0.0049
1952.00,0.0049
1951.00,0.0050
1950.00,0.0052
1949.00,0.0054
1948.00,0.0054
1947.00,0.0053
1946.00,0.0050
1945.00,0.0049
1944.00,0.0048
1943.00,0.0047
1942.00,0.0046
1941.00,0.0046
1940.00,0.0047
1939.00,0.0049
1938.00,0.0050
1937.00,0.0050
1936.00,0.0051
1935.00,0.0051
1934.00,0.0052
1933.00,0.0051
1932.00,0.0051
1931.00,0.0050
1930.00,0.0050
1929.00,0.0050
1928.00,0.0051
1927.00,0.0052
1926.00,0.0053
1925.00,0.0054
1924.00,0.0054
1923.00,0.0054
1922.00,0.0055
1921.00,0.0055
1920.00,0.0056
1919.00,0.0056
1918.00,0.0055
1917.00,0.0053
1916.00,0.0053
1915.00,0.0053
1914.00,0.0052
1913.00,0.0050
1912.00,0.0049
1911.00,0.0048
1910.00,0.0049
1909.00,0.0051
1908.00,0.0051
1907.00,0.0051
1906.00,0.0050
1905.00,0.0050
1904.00,0.0050
1903.00,0.0051
1902.00,0.0052
1901.00,0.0053
1900.00,0.0054
1899.00,0.0054
1898.00,0.0054
1897.00,0.0053
1896.00,0.0053
1895.00,0.0053
1894.00,0.0053
1893.00,0.0052
1892.00,0.0052
1891.00,0.0052
1890.00,0.0052
1889.00,0.0052
1888.00,0.0053
1887.00,0.0053
1886.00,0.0053
1885.00,0.0053
1884.00,0.0053
1883.00,0.0052
1882.00,0.0052
1881.00,0.0052
1880.00,0.0052
1879.00,0.0051
1878.00,0.0050
1877.00,0.0049
1876.00,0.0049
1875.00,0.0049
1874.00,0.0049
1873.00,0.0050
1872.00,0.0051
1871.00,0.0052
1870.00,0.0052
1869.00,0.0053
1868.00,0.0053
1867.00,0.0053
1866.00,0.0053
1865.00,0.0053
1864.00,0.0052
1863.00,0.0051
1862.00,0.0051
1861.00,0.0051
1860.00,0.0052
1859.00,0.0053
1858.00,0.0054
1857.00,0.0054
1856.00,0.0053
1855.00,0.0052
1854.00,0.0051
1853.00,0.0051
1852.00,0.0050
1851.00,0.0051
1850.00,0.0051
1849.00,0.0052
1848.00,0.0052
1847.00,0.0052
1846.00,0.0050
1845.00,0.0048
1844.00,0.0046
1843.00,0.0046
1842.00,0.0047
1841.00,0.0049
1840.00,0.0049
1839.00,0.0050
1838.00,0.0050
1837.00,0.0050
1836.00,0.0050
1835.00,0.0050
1834.00,0.0050
1833.00,0.0050
1832.00,0.0051
1831.00,0.0051
1830.00,0.0052
1829.00,0.0051
1828.00,0.0050
1827.00,0.0050
1826.00,0.0050
1825.00,0.0049
1824.00,0.0048
1823.00,0.0048
1822.00,0.0048
1821.00,0.0048
1820.00,0.0049
1819.00,0.0048
1818.00,0.0047
1817.00,0.0046
1816.00,0.0046
1815.00,0.0047
1814.00,0.0047
1813.00,0.0048
1812.00,0.0048
1811.00,0.0049
1810.00,0.0049
1809.00,0.0049
1808.00,0.0049
1807.00,0.0048
1806.00,0.0048
1805.00,0.0047
1804.00,0.0047
1803.00,0.0047
1802.00,0.0047
1801.00,0.0046
1800.00,0.0046
1799.00,0.0046
1798.00,0.0047
1797.00,0.0048
1796.00,0.0049
1795.00,0.0050
1794.00,0.0049
1793.00,0.0048
1792.00,0.0046
1791.00,0.0045
1790.00,0.0045
1789.00,0.0045
1788.00,0.0045
1787.00,0.0045
1786.00,0.0045
1785.00,0.0045
1784.00,0.0045
1783.00,0.0046
1782.00,0.0047
1781.00,0.0047
1780.00,0.0047
1779.00,0.0046
1778.00,0.0045
1777.00,0.0045
1776.00,0.0046
1775.00,0.0046
1774.00,0.0046
1773.00,0.0045
1772.00,0.0044
1771.00,0.0042
1770.00,0.0041
1769.00,0.0042
1768.00,0.0042
1767.00,0.0042
1766.00,0.0042
1765.00,0.0043
1764.00,0.0043
1763.00,0.0043
1762.00,0.0042
1761.00,0.0042
1760.00,0.0042
1759.00,0.0043
1758.00,0.0043
1757.00,0.0044
1756.00,0.0043
1755.00,0.0043
1754.00,0.0044
1753.00,0.0044
1752.00,0.0044
1751.00,0.0044
1750.00,0.0044
1749.00,0.0045
1748.00,0.0046
1747.00,0.0047
1746.00,0.0048
1745.00,0.0049
1744.00,0.0049
1743.00,0.0048
1742.00,0.0047
1741.00,0.0046
1740.00,0.0046
1739.00,0.0046
1738.00,0.0048
1737.00,0.0050
1736.00,0.0051
1735.00,0.0049
1734.00,0.0046
1733.00,0.0044
1732.00,0.0045
1731.00,0.0048
1730.00,0.0049
1729.00,0.0050
1728.00,0.0050
1727.00,0.0050
1726.00,0.0050
1725.00,0.0050
1724.00,0.0051
1723.00,0.0051
1722.00,0.0052
1721.00,0.0052
1720.00,0.0053
1719.00,0.0053
1718.00,0.0052
1717.00,0.0052
1716.00,0.0051
1715.00,0.0052
1714.00,0.0054
1713.00,0.0056
1712.00,0.0059
1711.00,0.0062
1710.00,0.0064
1709.00,0.0066
1708.00,0.0069
1707.00,0.0073
1706.00,0.0076
1705.00,0.0080
1704.00,0.0084
1703.00,0.0087
1702.00,0.0091
1701.00,0.0097
1700.00,0.0106
1699.00,0.0116
1698.00,0.0125
1697.00,0.0133
1696.00,0.0139
1695.00,0.0143
1694.00,0.0146
1693.00,0.0151
1692.00,0.0158
1691.00,0.0164
1690.00,0.0171
1689.00,0.0178
1688.00,0.0183
1687.00,0.0187
1686.00,0.0192
1685.00,0.0200
1684.00,0.0209
1683.00,0.0214
1682.00,0.0220
1681.00,0.0227
1680.00,0.0234
1679.00,0.0240
1678.00,0.0244
1677.00,0.0248
1676.00,0.0254
1675.00,0.0262
1674.00,0.0270
1673.00,0.0277
1672.00,0.0283
1671.00,0.0291
1670.00,0.0299
1669.00,0.0308
1668.00,0.0315
1667.00,0.0322
1666.00,0.0327
1665.00,0.0334
1664.00,0.0341
1663.00,0.0351
1662.00,0.0360
1661.00,0.0367
1660.00,0.0374
1659.00,0.0379
1658.00,0.0384
1657.00,0.0387
1656.00,0.0387
1655.00,0.0388
1654.00,0.0397
1653.00,0.0412
1652.00,0.0421
1651.00,0.0425
1650.00,0.0425
1649.00,0.0425
1648.00,0.0428
1647.00,0.0434
1646.00,0.0438
1645.00,0.0439
1644.00,0.0440
1643.00,0.0439
1642.00,0.0439
1641.00,0.0438
1640.00,0.0436
1639.00,0.0434
1638.00,0.0431
1637.00,0.0431
1636.00,0.0435
1635.00,0.0438
1634.00,0.0438
1633.00,0.0437
1632.00,0.0436
1631.00,0.0434
1630.00,0.0434
1629.00,0.0435
1628.00,0.0437
1627.00,0.0438
1626.00,0.0439
1625.00,0.0441
1624.00,0.0446
1623.00,0.0452
1622.00,0.0456
1621.00,0.0458
1620.00,0.0456
1619.00,0.0455
1618.00,0.0454
1617.00,0.0457
1616.00,0.0458
1615.00,0.0455
1614.00,0.0450
1613.00,0.0442
1612.00,0.0435
1611.00,0.0427
1610.00,0.0418
1609.00,0.0410
1608.00,0.0400
1607.00,0.0391
1606.00,0.0382
1605.00,0.0372
1604.00,0.0362
1603.00,0.0353
1602.00,0.0344
1601.00,0.0335
1600.00,0.0327
1599.00,0.0319
1598.00,0.0312
1597.00,0.0306
1596.00,0.0300
1595.00,0.0294
1594.00,0.0287
1593.00,0.0281
1592.00,0.0275
1591.00,0.0270
1590.00,0.0265
1589.00,0.0261
1588.00,0.0256
1587.00,0.0253
1586.00,0.0250
1585.00,0.0247
1584.00,0.0245
1583.00,0.0242
1582.00,0.0240
1581.00,0.0238
1580.00,0.0236
1579.00,0.0235
1578.00,0.0235
1577.00,0.0235
1576.00,0.0236
1575.00,0.0235
1574.00,0.0235
1573.00,0.0236
1572.00,0.0236
1571.00,0.0237
1570.00,0.0240
1569.00,0.0243
1568.00,0.0245
1567.00,0.0248
1566.00,0.0252
1565.00,0.0256
1564.00,0.0259
1563.00,0.0261
1562.00,0.0261
1561.00,0.0262
1560.00,0.0268
1559.00,0.0282
1558.00,0.0291
1557.00,0.0296
1556.00,0.0302
1555.00,0.0309
1554.00,0.0317
1553.00,0.0324
1552.00,0.0331
1551.00,0.0339
1550.00,0.0347
1549.00,0.0353
1548.00,0.0357
1547.00,0.0360
1546.00,0.0364
1545.00,0.0369
1544.00,0.0375
1543.00,0.0378
1542.00,0.0381
1541.00,0.0388
1540.00,0.0398
1539.00,0.0405
1538.00,0.0408
1537.00,0.0409
1536.00,0.0408
1535.00,0.0409
1534.00,0.0413
1533.00,0.0418
1532.00,0.0422
1531.00,0.0423
1530.00,0.0424
1529.00,0.0425
1528.00,0.0427
1527.00,0.0429
1526.00,0.0431
1525.00,0.0432
1524.00,0.0432
1523.00,0.0433
1522.00,0.0437
1521.00,0.0443
1520.00,0.0447
1519.00,0.0448
1518.00,0.0451
1517.00,0.0455
1516.00,0.0458
1515.00,0.0458
1514.00,0.0456
1513.00,0.0454
1512.00,0.0452
1511.00,0.0449
1510.00,0.0445
1509.00,0.0440
1508.00,0.0437
1507.00,0.0436
1506.00,0.0432
1505.00,0.0427
1504.00,0.0422
1503.00,0.0416
1502.00,0.0409
1501.00,0.0402
1500.00,0.0395
1499.00,0.0388
1498.00,0.0382
1497.00,0.0377
1496.00,0.0371
1495.00,0.0364
1494.00,0.0357
1493.00,0.0349
1492.00,0.0342
1491.00,0.0336
1490.00,0.0331
1489.00,0.0325
1488.00,0.0318
1487.00,0.0311
1486.00,0.0303
1485.00,0.0296
1484.00,0.0291
1483.00,0.0286
1482.00,0.0282
1481.00,0.0278
1480.00,0.0274
1479.00,0.0270
1478.00,0.0267
1477.00,0.0264
1476.00,0.0263
1475.00,0.0262
1474.00,0.0262
1473.00,0.0262
1472.00,0.0263
1471.00,0.0263
1470.00,0.0264
1469.00,0.0265
1468.00,0.0265
1467.00,0.0264
1466.00,0.0264
1465.00,0.0265
1464.00,0.0266
1463.00,0.0267
1462.00,0.0267
1461.00,0.0268
1460.00,0.0268
1459.00,0.0269
1458.00,0.0272
1457.00,0.0277
1456.00,0.0281
1455.00,0.0284
1454.00,0.0287
1453.00,0.0288
1452.00,0.0288
1451.00,0.0288
1450.00,0.0288
1449.00,0.0287
1448.00,0.0286
1447.00,0.0286
1446.00,0.0284
1445.00,0.0282
1444.00,0.0281
1443.00,0.0279
1442.00,0.0277
1441.00,0.0274
1440.00,0.0270
1439.00,0.0266
1438.00,0.0262
1437.00,0.0259
1436.00,0.0258
1435.00,0.0259
1434.00,0.0258
1433.00,0.0256
1432.00,0.0254
1431.00,0.0252
1430.00,0.0251
1429.00,0.0251
1428.00,0.0250
1427.00,0.0250
1426.00,0.0249
1425.00,0.0250
1424.00,0.0251
1423.00,0.0251
1422.00,0.0251
1421.00,0.0251
1420.00,0.0253
1419.00,0.0256
1418.00,0.0258
1417.00,0.0260
1416.00,0.0262
1415.00,0.0263
1414.00,0.0264
1413.00,0.0265
1412.00,0.0266
1411.00,0.0267
1410.00,0.0268
1409.00,0.0268
1408.00,0.0269
1407.00,0.0270
1406.00,0.0271
1405.00,0.0271
1404.00,0.0272
1403.00,0.0272
1402.00,0.0271
1401.00,0.0271
1400.00,0.0271
1399.00,0.0271
1398.00,0.0271
1397.00,0.0271
1396.00,0.0270
1395.00,0.0270
1394.00,0.0270
1393.00,0.0270
1392.00,0.0271
1391.00,0.0271
1390.00,0.0271
1389.00,0.0271
1388.00,0.0271
1387.00,0.0271
1386.00,0.0271
1385.00,0.0271
1384.00,0.0271
1383.00,0.0271
1382.00,0.0271
1381.00,0.0271
1380.00,0.0270
1379.00,0.0269
1378.00,0.0267
1377.00,0.0266
1376.00,0.0264
1375.00,0.0263
1374.00,0.0262
1373.00,0.0261
1372.00,0.0260
1371.00,0.0259
1370.00,0.0258
1369.00,0.0257
1368.00,0.0256
1367.00,0.0254
1366.00,0.0252
1365.00,0.0250
1364.00,0.0249
1363.00,0.0247
1362.00,0.0245
1361.00,0.0244
1360.00,0.0242
1359.00,0.0242
1358.00,0.0241
1357.00,0.0241
1356.00,0.0241
1355.00,0.0240
1354.00,0.0239
1353.00,0.0239
1352.00,0.0239
1351.00,0.0239
1350.00,0.0240
1349.00,0.0241
1348.00,0.0241
1347.00,0.0242
1346.00,0.0242
1345.00,0.0242
1344.00,0.0242
1343.00,0.0242
1342.00,0.0243
1341.00,0.0244
1340.00,0.0245
1339.00,0.0246
1338.00,0.0246
1337.00,0.0245
1336.00,0.0244
1335.00,0.0244
1334.00,0.0243
1333.00,0.0242
1332.00,0.0242
1331.00,0.0241
1330.00,0.0241
1329.00,0.0240
1328.00,0.0240
1327.00,0.0240
1326.00,0.0240
1325.00,0.0241
1324.00,0.0241
1323.00,0.0240
1322.00,0.0240
1321.00,0.0240
1320.00,0.0241
1319.00,0.0241
1318.00,0.0241
1317.00,0.0241
1316.00,0.0241
1315.00,0.0241
1314.00,0.0242
1313.00,0.0243
1312.00,0.0243
1311.00,0.0243
1310.00,0.0244
1309.00,0.0244
1308.00,0.0244
1307.00,0.0244
1306.00,0.0244
1305.00,0.0244
1304.00,0.0244
1303.00,0.0244
1302.00,0.0244
1301.00,0.0244
1300.00,0.0244
1299.00,0.0244
1298.00,0.0244
1297.00,0.0243
1296.00,0.0243
1295.00,0.0243
1294.00,0.0243
1293.00,0.0243
1292.00,0.0243
1291.00,0.0243
1290.00,0.0243
1289.00,0.0243
1288.00,0.0242
1287.00,0.0242
1286.00,0.0241
1285.00,0.0241
1284.00,0.0241
1283.00,0.0241
1282.00,0.0241
1281.00,0.0241
1280.00,0.0240
1279.00,0.0239
1278.00,0.0239
1277.00,0.0240
1276.00,0.0240
1275.00,0.0240
1274.00,0.0240
1273.00,0.0241
1272.00,0.0241
1271.00,0.0242
1270.00,0.0242
1269.00,0.0243
1268.00,0.0243
1267.00,0.0244
1266.00,0.0245
1265.00,0.0246
1264.00,0.0246
1263.00,0.0247
1262.00,0.0247
1261.00,0.0249
1260.00,0.0250
1259.00,0.0250
1258.00,0.0250
1257.00,0.0251
1256.00,0.0252
1255.00,0.0255
1254.00,0.0258
1253.00,0.0261
1252.00,0.0264
1251.00,0.0265
1250.00,0.0267
1249.00,0.0269
1248.00,0.0270
1247.00,0.0270
1246.00,0.0271
1245.00,0.0273
1244.00,0.0274
1243.00,0.0275
1242.00,0.0276
1241.00,0.0276
1240.00,0.0277
1239.00,0.0277
1238.00,0.0277
1237.00,0.0278
1236.00,0.0278
1235.00,0.0279
1234.00,0.0278
1233.00,0.0278
1232.00,0.0277
1231.00,0.0276
1230.00,0.0276
1229.00,0.0276
1228.00,0.0276
1227.00,0.0275
1226.00,0.0274
1225.00,0.0272
1224.00,0.0271
1223.00,0.0269
1222.00,0.0268
1221.00,0.0267
1220.00,0.0265
1219.00,0.0264
1218.00,0.0262
1217.00,0.0261
1216.00,0.0259
1215.00,0.0258
1214.00,0.0256
1213.00,0.0255
1212.00,0.0253
1211.00,0.0251
1210.00,0.0249
1209.00,0.0246
1208.00,0.0245
1207.00,0.0243
1206.00,0.0241
1205.00,0.0239
1204.00,0.0238
1203.00,0.0237
1202.00,0.0235
1201.00,0.0233
1200.00,0.0231
1199.00,0.0229
1198.00,0.0228
1197.00,0.0226
1196.00,0.0224
1195.00,0.0223
1194.00,0.0222
1193.00,0.0220
1192.00,0.0219
1191.00,0.0217
1190.00,0.0216
1189.00,0.0215
1188.00,0.0214
1187.00,0.0213
1186.00,0.0213
1185.00,0.0213
1184.00,0.0213
1183.00,0.0213
1182.00,0.0213
1181.00,0.0213
1180.00,0.0212
1179.00,0.0212
1178.00,0.0213
1177.00,0.0213
1176.00,0.0214
1175.00,0.0215
1174.00,0.0216
1173.00,0.0216
1172.00,0.0217
1171.00,0.0218
1170.00,0.0219
1169.00,0.0220
1168.00,0.0220
1167.00,0.0220
1166.00,0.0220
1165.00,0.0220
1164.00,0.0220
1163.00,0.0220
1162.00,0.0220
1161.00,0.0219
1160.00,0.0217
1159.00,0.0216
1158.00,0.0215
1157.00,0.0215
1156.00,0.0215
1155.00,0.0214
1154.00,0.0213
1153.00,0.0213
1152.00,0.0212
1151.00,0.0211
1150.00,0.0210
1149.00,0.0208
1148.00,0.0207
1147.00,0.0205
1146.00,0.0204
1145.00,0.0203
1144.00,0.0203
1143.00,0.0203
1142.00,0.0203
1141.00,0.0202
1140.00,0.0202
1139.00,0.0201
1138.00,0.0201
1137.00,0.0201
1136.00,0.0201
1135.00,0.0201
1134.00,0.0201
1133.00,0.0201
1132.00,0.0200
1131.00,0.0200
1130.00,0.0199
1129.00,0.0199
1128.00,0.0198
1127.00,0.0198
1126.00,0.0197
1125.00,0.0197
1124.00,0.0197
1123.00,0.0196
1122.00,0.0196
1121.00,0.0195
1120.00,0.0194
1119.00,0.0194
1118.00,0.0193
1117.00,0.0193
1116.00,0.0192
1115.00,0.0192
1114.00,0.0192
1113.00,0.0191
1112.00,0.0190
1111.00,0.0189
1110.00,0.0189
1109.00,0.0190
1108.00,0.0190
1107.00,0.0190
1106.00,0.0190
1105.00,0.0189
1104.00,0.0189
1103.00,0.0190
1102.00,0.0190
1101.00,0.0191
1100.00,0.0192
1099.00,0.0193
1098.00,0.0194
1097.00,0.0195
1096.00,0.0197
1095.00,0.0198
1094.00,0.0199
1093.00,0.0201
1092.00,0.0202
1091.00,0.0203
1090.00,0.0205
1089.00,0.0207
1088.00,0.0210
1087.00,0.0212
1086.00,0.0214
1085.00,0.0216
1084.00,0.0219
1083.00,0.0223
1082.00,0.0226
1081.00,0.0228
1080.00,0.0230
1079.00,0.0231
1078.00,0.0232
1077.00,0.0234
1076.00,0.0237
1075.00,0.0240
1074.00,0.0241
1073.00,0.0242
1072.00,0.0243
1071.00,0.0244
1070.00,0.0245
1069.00,0.0246
1068.00,0.0246
1067.00,0.0247
1066.00,0.0247
1065.00,0.0246
1064.00,0.0246
1063.00,0.0244
1062.00,0.0242
1061.00,0.0241
1060.00,0.0240
1059.00,0.0239
1058.00,0.0237
1057.00,0.0235
1056.00,0.0234
1055.00,0.0234
1054.00,0.0235
1053.00,0.0235
1052.00,0.0236
1051.00,0.0236
1050.00,0.0236
1049.00,0.0236
1048.00,0.0235
1047.00,0.0234
1046.00,0.0232
1045.00,0.0230
1044.00,0.0229
1043.00,0.0229
1042.00,0.0227
1041.00,0.0225
1040.00,0.0223
1039.00,0.0219
1038.00,0.0217
1037.00,0.0214
1036.00,0.0212
1035.00,0.0210
1034.00,0.0209
1033.00,0.0208
1032.00,0.0207
1031.00,0.0207
1030.00,0.0206
1029.00,0.0204
1028.00,0.0201
1027.00,0.0199
1026.00,0.0196
1025.00,0.0195
1024.00,0.0194
1023.00,0.0192
1022.00,0.0190
1021.00,0.0188
1020.00,0.0187
1019.00,0.0186
1018.00,0.0184
1017.00,0.0182
1016.00,0.0180
1015.00,0.0178
1014.00,0.0176
1013.00,0.0174
1012.00,0.0172
1011.00,0.0169
1010.00,0.0166
1009.00,0.0163
1008.00,0.0161
1007.00,0.0160
1006.00,0.0159
1005.00,0.0160
1004.00,0.0160
1003.00,0.0160
1002.00,0.0159
1001.00,0.0158
1000.00,0.0157
999.00,0.0156
998.00,0.0155
997.00,0.0155
996.00,0.0154
995.00,0.0154
994.00,0.0154
993.00,0.0155
992.00,0.0155
991.00,0.0155
990.00,0.0154
989.00,0.0153
988.00,0.0152
987.00,0.0152
986.00,0.0151
985.00,0.0151
984.00,0.0150
983.00,0.0150
982.00,0.0150
981.00,0.0150
980.00,0.0151
979.00,0.0152
978.00,0.0153
977.00,0.0154
976.00,0.0155
975.00,0.0155
974.00,0.0156
973.00,0.0158
972.00,0.0159
971.00,0.0160
970.00,0.0160
969.00,0.0160
968.00,0.0160
967.00,0.0161
966.00,0.0162
965.00,0.0163
964.00,0.0164
963.00,0.0165
962.00,0.0166
961.00,0.0166
960.00,0.0167
959.00,0.0166
958.00,0.0166
957.00,0.0165
956.00,0.0164
955.00,0.0163
954.00,0.0163
953.00,0.0164
952.00,0.0164
951.00,0.0165
950.00,0.0164
949.00,0.0164
948.00,0.0163
947.00,0.0162
946.00,0.0163
945.00,0.0163
944.00,0.0164
943.00,0.0164
942.00,0.0164
941.00,0.0165
940.00,0.0165
939.00,0.0164
938.00,0.0164
937.00,0.0162
936.00,0.0161
935.00,0.0161
934.00,0.0161
933.00,0.0162
932.00,0.0164
931.00,0.0165
930.00,0.0166
929.00,0.0166
928.00,0.0165
927.00,0.0164
926.00,0.0164
925.00,0.0164
924.00,0.0165
923.00,0.0165
922.00,0.0164
921.00,0.0163
920.00,0.0163
919.00,0.0164
918.00,0.0164
917.00,0.0164
916.00,0.0164
915.00,0.0163
914.00,0.0162
913.00,0.0162
912.00,0.0163
911.00,0.0163
910.00,0.0163
909.00,0.0163
908.00,0.0164
907.00,0.0164
906.00,0.0165
905.00,0.0165
904.00,0.0166
903.00,0.0166
902.00,0.0167
901.00,0.0167
900.00,0.0167
899.00,0.0166
898.00,0.0165
897.00,0.0164
896.00,0.0163
895.00,0.0163
894.00,0.0162
893.00,0.0162
892.00,0.0161
891.00,0.0160
890.00,0.0159
889.00,0.0159
888.00,0.0158
887.00,0.0158
886.00,0.0157
885.00,0.0156
884.00,0.0156
883.00,0.0156
882.00,0.0157
881.00,0.0157
880.00,0.0158
879.00,0.0158
878.00,0.0158
877.00,0.0157
876.00,0.0157
875.00,0.0157
874.00,0.0158
873.00,0.0158
872.00,0.0159
871.00,0.0158
870.00,0.0157
869.00,0.0156
868.00,0.0155
867.00,0.0155
866.00,0.0155
865.00,0.0155
864.00,0.0155
863.00,0.0154
862.00,0.0153
861.00,0.0153
860.00,0.0152
859.00,0.0151
858.00,0.0151
857.00,0.0150
856.00,0.0150
855.00,0.0151
854.00,0.0152
853.00,0.0152
852.00,0.0153
851.00,0.0152
850.00,0.0151
849.00,0.0151
848.00,0.0150
847.00,0.0149
846.00,0.0149
845.00,0.0149
844.00,0.0150
843.00,0.0151
842.00,0.0152
841.00,0.0152
840.00,0.0152
839.00,0.0152
838.00,0.0151
837.00,0.0151
836.00,0.0152
835.00,0.0154
834.00,0.0155
833.00,0.0156
832.00,0.0157
831.00,0.0158
830.00,0.0159
829.00,0.0159
828.00,0.0160
827.00,0.0160
826.00,0.0161
825.00,0.0162
824.00,0.0163
823.00,0.0163
822.00,0.0164
821.00,0.0164
820.00,0.0165
819.00,0.0166
818.00,0.0166
817.00,0.0167
816.00,0.0167
815.00,0.0168
814.00,0.0168
813.00,0.0168
812.00,0.0169
811.00,0.0170
810.00,0.0170
809.00,0.0171
808.00,0.0171
807.00,0.0172
806.00,0.0172
805.00,0.0173
804.00,0.0173
803.00,0.0174
802.00,0.0174
801.00,0.0175
800.00,0.0176
799.00,0.0177
798.00,0.0177
797.00,0.0178
796.00,0.0178
795.00,0.0178
794.00,0.0178
793.00,0.0179
792.00,0.0180
791.00,0.0181
790.00,0.0182
789.00,0.0183
788.00,0.0184
787.00,0.0185
786.00,0.0185
785.00,0.0186
784.00,0.0187
783.00,0.0190
782.00,0.0192
781.00,0.0194
780.00,0.0195
779.00,0.0196
778.00,0.0197
777.00,0.0198
776.00,0.0199
775.00,0.0201
774.00,0.0203
773.00,0.0204
772.00,0.0206
771.00,0.0206
770.00,0.0207
769.00,0.0207
768.00,0.0209
767.00,0.0211
766.00,0.0212
765.00,0.0213
764.00,0.0215
763.00,0.0217
762.00,0.0219
761.00,0.0221
760.00,0.0222
759.00,0.0222
758.00,0.0224
757.00,0.0229
756.00,0.0241
755.00,0.0253
754.00,0.0258
753.00,0.0252
752.00,0.0240
751.00,0.0231
750.00,0.0227
749.00,0.0227
748.00,0.0228
747.00,0.0229
746.00,0.0231
745.00,0.0232
744.00,0.0233
743.00,0.0233
742.00,0.0233
741.00,0.0233
740.00,0.0232
739.00,0.0231
738.00,0.0230
737.00,0.0231
736.00,0.0232
735.00,0.0233
734.00,0.0235
733.00,0.0236
732.00,0.0236
731.00,0.0237
730.00,0.0238
729.00,0.0239
728.00,0.0240
727.00,0.0242
726.00,0.0245
725.00,0.0247
724.00,0.0250
723.00,0.0253
722.00,0.0256
721.00,0.0259
720.00,0.0262
719.00,0.0266
718.00,0.0269
717.00,0.0272
716.00,0.0275
715.00,0.0277
714.00,0.0280
713.00,0.0283
712.00,0.0285
711.00,0.0289
710.00,0.0293
709.00,0.0298
708.00,0.0303
707.00,0.0308
706.00,0.0311
705.00,0.0315
704.00,0.0319
703.00,0.0324
702.00,0.0328
701.00,0.0332
700.00,0.0335
699.00,0.0336
698.00,0.0338
697.00,0.0338
696.00,0.0338
695.00,0.0337
694.00,0.0336
693.00,0.0335
692.00,0.0334
691.00,0.0334
690.00,0.0334
689.00,0.0334
688.00,0.0335
687.00,0.0336
686.00,0.0337
685.00,0.0338
684.00,0.0339
683.00,0.0340
682.00,0.0341
681.00,0.0342
680.00,0.0343
679.00,0.0344
678.00,0.0346
677.00,0.0347
676.00,0.0349
675.00,0.0351
674.00,0.0352
673.00,0.0354
672.00,0.0355
671.00,0.0355
670.00,0.0355
669.00,0.0356
668.00,0.0361
667.00,0.0367
666.00,0.0368
665.00,0.0366
664.00,0.0365
663.00,0.0364
662.00,0.0364
661.00,0.0364
660.00,0.0365
659.00,0.0366
658.00,0.0368
657.00,0.0368
656.00,0.0370
655.00,0.0371
654.00,0.0372
653.00,0.0373
652.00,0.0373
651.00,0.0373
650.00,0.0373
649.00,0.0374
648.00,0.0376
647.00,0.0379
646.00,0.0382
645.00,0.0384
644.00,0.0386
643.00,0.0388
642.00,0.0389
641.00,0.0390
640.00,0.0390
639.00,0.0392
638.00,0.0394
637.00,0.0397
636.00,0.0399
635.00,0.0399
634.00,0.0399
633.00,0.0399
632.00,0.0400
631.00,0.0403
630.00,0.0405
629.00,0.0407
628.00,0.0407
627.00,0.0407
626.00,0.0407
625.00,0.0408
624.00,0.0410
623.00,0.0411
622.00,0.0412
621.00,0.0411
620.00,0.0411
619.00,0.0410
618.00,0.0408
617.00,0.0407
616.00,0.0406
615.00,0.0406
614.00,0.0406
613.00,0.0407
612.00,0.0407
611.00,0.0406
610.00,0.0405
609.00,0.0405
608.00,0.0406
607.00,0.0408
606.00,0.0411
605.00,0.0413
604.00,0.0414
603.00,0.0414
602.00,0.0413
601.00,0.0413
600.00,0.0414
599.00,0.0414
598.00,0.0414
597.00,0.0414
596.00,0.0414
595.00,0.0415
594.00,0.0415
593.00,0.0416
592.00,0.0417
591.00,0.0417
590.00,0.0418
589.00,0.0418
588.00,0.0419
587.00,0.0419
586.00,0.0420
585.00,0.0421
584.00,0.0421
583.00,0.0421
582.00,0.0420
581.00,0.0420
580.00,0.0421
579.00,0.0423
578.00,0.0425
577.00,0.0426
576.00,0.0426
575.00,0.0425
574.00,0.0425
573.00,0.0425
572.00,0.0427
571.00,0.0430
570.00,0.0433
569.00,0.0435
568.00,0.0436
567.00,0.0436
566.00,0.0436
565.00,0.0436
564.00,0.0437
563.00,0.0436
562.00,0.0434
561.00,0.0432
560.00,0.0430
559.00,0.0430
558.00,0.0430
557.00,0.0431
556.00,0.0434
555.00,0.0437
554.00,0.0439
553.00,0.0441
552.00,0.0441
551.00,0.0441
550.00,0.0439
549.00,0.0438
548.00,0.0439
547.00,0.0440
546.00,0.0441
545.00,0.0441
544.00,0.0442
543.00,0.0442
542.00,0.0442
541.00,0.0442
540.00,0.0442
539.00,0.0442
538.00,0.0440
537.00,0.0439
536.00,0.0438
535.00,0.0438
534.00,0.0438
533.00,0.0439
532.00,0.0441
531.00,0.0443
530.00,0.0446
529.00,0.0448
528.00,0.0449
527.00,0.0448
526.00,0.0447
525.00,0.0447
524.00,0.0450
523.00,0.0451
522.00,0.0450
521.00,0.0446
520.00,0.0443
519.00,0.0441
518.00,0.0440
517.00,0.0439
516.00,0.0439
515.00,0.0439
514.00,0.0438
513.00,0.0437
512.00,0.0436
511.00,0.0436
510.00,0.0436
509.00,0.0436
508.00,0.0436
507.00,0.0434
506.00,0.0428
505.00,0.0418
504.00,0.0408
503.00,0.0404
502.00,0.0410
501.00,0.0420
500.00,0.0426
499.00,0.0426
498.00,0.0422
497.00,0.0418
496.00,0.0416
495.00,0.0415
494.00,0.0416
493.00,0.0418
492.00,0.0421
491.00,0.0423
490.00,0.0423
489.00,0.0424
488.00,0.0424
487.00,0.0425
486.00,0.0424
485.00,0.0421
484.00,0.0418
483.00,0.0416
482.00,0.0414
481.00,0.0412
480.00,0.0412
479.00,0.0412
478.00,0.0412
477.00,0.0412
476.00,0.0413
475.00,0.0412
474.00,0.0409
473.00,0.0406
472.00,0.0406
471.00,0.0408
470.00,0.0409
469.00,0.0409
468.00,0.0409
467.00,0.0409
466.00,0.0411
465.00,0.0412
464.00,0.0413
463.00,0.0410
462.00,0.0406
461.00,0.0402
460.00,0.0399
459.00,0.0396
458.00,0.0394
457.00,0.0394
456.00,0.0397
455.00,0.0401
454.00,0.0405
453.00,0.0408
452.00,0.0409
451.00,0.0408
450.00,0.0404
449.00,0.0400
448.00,0.0397
447.00,0.0394
446.00,0.0392
445.00,0.0392
444.00,0.0394
443.00,0.0397
442.00,0.0399
441.00,0.0400
440.00,0.0401
439.00,0.0401
438.00,0.0399
437.00,0.0392
436.00,0.0385
435.00,0.0379
434.00,0.0378
433.00,0.0382
432.00,0.0388
431.00,0.0393
430.00,0.0394
429.00,0.0393
428.00,0.0390
427.00,0.0388
426.00,0.0386
425.00,0.0386
424.00,0.0385
423.00,0.0380
422.00,0.0370
421.00,0.0358
420.00,0.0349
419.00,0.0347
418.00,0.0352
417.00,0.0362
416.00,0.0372
415.00,0.0376
414.00,0.0376
413.00,0.0373
412.00,0.0370
411.00,0.0368
410.00,0.0366
409.00,0.0369
408.00,0.0376
407.00,0.0379
406.00,0.0374
405.00,0.0363
404.00,0.0352
403.00,0.0342
402.00,0.0330
401.00,0.0315
400.00,0.0301
