Created as New Dataset,Sample 368 By YargerLab Date Friday, November 14 2025
cm-1,A
4000.00,0.0001
3999.00,0.0001
3998.00,0.0001
3997.00,0.0001
3996.00,0.0001
3995.00,0.0001
3994.00,0.0001
3993.00,0.0001
3992.00,0.0001
3991.00,0.0001
3990.00,0.0001
3989.00,0.0001
3988.00,0.0001
3987.00,0.0001
3986.00,0.0001
3985.00,0.0001
3984.00,0.0000
3983.00,0.0000
3982.00,0.0000
3981.00,0.0000
3980.00,0.0000
3979.00,0.0000
3978.00,0.0000
3977.00,0.0000
3976.00,0.0000
3975.00,0.0000
3974.00,0.0000
3973.00,0.0000
3972.00,0.0000
3971.00,0.0000
3970.00,0.0001
3969.00,0.0001
3968.00,0.0001
3967.00,0.0000
3966.00,0.0000
3965.00,0.0000
3964.00,0.0001
3963.00,0.0001
3962.00,0.0000
3961.00,-0.0000
3960.00,-0.0000
3959.00,-0.0000
3958.00,-0.0000
3957.00,-0.0000
3956.00,-0.0000
3955.00,0.0000
3954.00,0.0000
3953.00,0.0000
3952.00,0.0000
3951.00,0.0000
3950.00,0.0000
3949.00,0.0000
3948.00,0.0000
3947.00,0.0000
3946.00,0.0000
3945.00,0.0000
3944.00,-0.0000
3943.00,-0.0000
3942.00,-0.0000
3941.00,0.0000
3940.00,0.0000
3939.00,-0.0000
3938.00,-0.0000
3937.00,-0.0000
3936.00,0.0000
3935.00,0.0000
3934.00,0.0000
3933.00,0.0000
3932.00,0.0000
3931.00,0.0000
3930.00,0.0000
3929.00,0.0000
3928.00,0.0000
3927.00,0.0000
3926.00,0.0000
3925.00,0.0000
3924.00,0.0000
3923.00,0.0000
3922.00,0.0000
3921.00,0.0000
3920.00,0.0000
3919.00,-0.0000
3918.00,-0.0000
3917.00,-0.0000
3916.00,-0.0000
3915.00,0.0000
3914.00,0.0000
3913.00,0.0000
3912.00,0.0000
3911.00,0.0000
3910.00,0.0000
3909.00,0.0000
3908.00,0.0000
3907.00,0.0000
3906.00,0.0000
3905.00,0.0000
3904.00,0.0000
3903.00,0.0000
3902.00,0.0000
3901.00,0.0000
3900.00,0.0000
3899.00,0.0000
3898.00,0.0000
3897.00,0.0000
3896.00,0.0000
3895.00,-0.0000
3894.00,-0.0000
3893.00,-0.0000
3892.00,-0.0000
3891.00,-0.0000
3890.00,-0.0000
3889.00,-0.0000
3888.00,0.0000
3887.00,0.0000
3886.00,0.0000
3885.00,0.0000
3884.00,0.0000
3883.00,0.0000
3882.00,0.0000
3881.00,-0.0000
3880.00,0.0000
3879.00,0.0000
3878.00,0.0000
3877.00,0.0000
3876.00,0.0000
3875.00,0.0000
3874.00,0.0000
3873.00,0.0000
3872.00,0.0000
3871.00,0.0000
3870.00,0.0000
3869.00,0.0000
3868.00,0.0000
3867.00,-0.0000
3866.00,-0.0000
3865.00,-0.0000
3864.00,-0.0000
3863.00,0.0000
3862.00,0.0000
3861.00,0.0000
3860.00,0.0000
3859.00,0.0000
3858.00,0.0000
3857.00,0.0000
3856.00,0.0000
3855.00,0.0000
3854.00,-0.0000
3853.00,-0.0000
3852.00,-0.0000
3851.00,-0.0000
3850.00,-0.0000
3849.00,-0.0000
3848.00,-0.0000
3847.00,-0.0000
3846.00,-0.0000
3845.00,-0.0000
3844.00,0.0000
3843.00,0.0001
3842.00,0.0001
3841.00,0.0001
3840.00,0.0001
3839.00,0.0001
3838.00,0.0001
3837.00,0.0001
3836.00,0.0001
3835.00,0.0001
3834.00,0.0001
3833.00,0.0000
3832.00,0.0000
3831.00,0.0001
3830.00,0.0001
3829.00,0.0001
3828.00,0.0001
3827.00,0.0001
3826.00,0.0001
3825.00,0.0001
3824.00,0.0001
3823.00,0.0001
3822.00,0.0001
3821.00,0.0001
3820.00,0.0000
3819.00,0.0000
3818.00,0.0000
3817.00,0.0000
3816.00,0.0000
3815.00,0.0001
3814.00,0.0001
3813.00,0.0001
3812.00,0.0001
3811.00,0.0001
3810.00,0.0001
3809.00,0.0001
3808.00,0.0001
3807.00,0.0000
3806.00,0.0000
3805.00,0.0001
3804.00,0.0001
3803.00,0.0001
3802.00,0.0001
3801.00,0.0001
3800.00,0.0001
3799.00,0.0001
3798.00,0.0001
3797.00,0.0000
3796.00,0.0000
3795.00,0.0000
3794.00,0.0000
3793.00,0.0000
3792.00,0.0000
3791.00,0.0000
3790.00,0.0000
3789.00,0.0000
3788.00,0.0000
3787.00,0.0000
3786.00,0.0000
3785.00,0.0000
3784.00,0.0000
3783.00,0.0001
3782.00,0.0001
3781.00,0.0000
3780.00,0.0000
3779.00,-0.0000
3778.00,-0.0001
3777.00,-0.0001
3776.00,-0.0001
3775.00,-0.0001
3774.00,-0.0001
3773.00,-0.0000
3772.00,-0.0000
3771.00,0.0000
3770.00,0.0000
3769.00,-0.0000
3768.00,-0.0000
3767.00,-0.0000
3766.00,0.0000
3765.00,0.0000
3764.00,0.0001
3763.00,0.0001
3762.00,0.0001
3761.00,0.0001
3760.00,0.0001
3759.00,0.0001
3758.00,0.0001
3757.00,0.0001
3756.00,0.0001
3755.00,0.0001
3754.00,0.0001
3753.00,0.0001
3752.00,0.0001
3751.00,0.0001
3750.00,0.0001
3749.00,0.0001
3748.00,0.0001
3747.00,0.0001
3746.00,0.0000
3745.00,0.0000
3744.00,0.0000
3743.00,0.0000
3742.00,0.0000
3741.00,0.0000
3740.00,0.0001
3739.00,0.0001
3738.00,0.0001
3737.00,0.0001
3736.00,0.0001
3735.00,0.0001
3734.00,0.0001
3733.00,0.0001
3732.00,0.0001
3731.00,0.0000
3730.00,0.0000
3729.00,0.0000
3728.00,0.0001
3727.00,0.0001
3726.00,0.0001
3725.00,0.0001
3724.00,0.0001
3723.00,0.0000
3722.00,0.0000
3721.00,0.0000
3720.00,0.0000
3719.00,0.0000
3718.00,-0.0000
3717.00,-0.0000
3716.00,-0.0000
3715.00,-0.0000
3714.00,-0.0000
3713.00,0.0000
3712.00,0.0001
3711.00,0.0001
3710.00,0.0000
3709.00,0.0000
3708.00,0.0000
3707.00,0.0000
3706.00,0.0001
3705.00,0.0001
3704.00,0.0001
3703.00,0.0001
3702.00,0.0001
3701.00,0.0001
3700.00,0.0001
3699.00,0.0000
3698.00,-0.0000
3697.00,-0.0000
3696.00,0.0000
3695.00,0.0000
3694.00,0.0000
3693.00,0.0000
3692.00,0.0000
3691.00,0.0000
3690.00,0.0000
3689.00,-0.0000
3688.00,-0.0000
3687.00,-0.0000
3686.00,-0.0000
3685.00,-0.0000
3684.00,-0.0000
3683.00,-0.0000
3682.00,0.0000
3681.00,0.0000
3680.00,0.0001
3679.00,0.0001
3678.00,0.0001
3677.00,0.0001
3676.00,0.0001
3675.00,0.0001
3674.00,0.0001
3673.00,0.0001
3672.00,0.0001
3671.00,0.0001
3670.00,0.0001
3669.00,0.0001
3668.00,0.0000
3667.00,0.0000
3666.00,0.0000
3665.00,0.0001
3664.00,0.0001
3663.00,0.0001
3662.00,0.0001
3661.00,0.0001
3660.00,0.0002
3659.00,0.0002
3658.00,0.0002
3657.00,0.0002
3656.00,0.0002
3655.00,0.0003
3654.00,0.0003
3653.00,0.0003
3652.00,0.0003
3651.00,0.0004
3650.00,0.0004
3649.00,0.0004
3648.00,0.0004
3647.00,0.0004
3646.00,0.0004
3645.00,0.0004
3644.00,0.0003
3643.00,0.0003
3642.00,0.0003
3641.00,0.0003
3640.00,0.0003
3639.00,0.0003
3638.00,0.0003
3637.00,0.0003
3636.00,0.0003
3635.00,0.0003
3634.00,0.0003
3633.00,0.0003
3632.00,0.0003
3631.00,0.0003
3630.00,0.0003
3629.00,0.0003
3628.00,0.0003
3627.00,0.0003
3626.00,0.0003
3625.00,0.0003
3624.00,0.0004
3623.00,0.0004
3622.00,0.0004
3621.00,0.0004
3620.00,0.0004
3619.00,0.0004
3618.00,0.0004
3617.00,0.0004
3616.00,0.0004
3615.00,0.0004
3614.00,0.0003
3613.00,0.0003
3612.00,0.0003
3611.00,0.0003
3610.00,0.0004
3609.00,0.0004
3608.00,0.0004
3607.00,0.0004
3606.00,0.0004
3605.00,0.0004
3604.00,0.0004
3603.00,0.0004
3602.00,0.0004
3601.00,0.0004
3600.00,0.0005
3599.00,0.0005
3598.00,0.0005
3597.00,0.0005
3596.00,0.0005
3595.00,0.0005
3594.00,0.0005
3593.00,0.0005
3592.00,0.0005
3591.00,0.0005
3590.00,0.0005
3589.00,0.0005
3588.00,0.0005
3587.00,0.0005
3586.00,0.0005
3585.00,0.0005
3584.00,0.0005
3583.00,0.0005
3582.00,0.0005
3581.00,0.0005
3580.00,0.0005
3579.00,0.0006
3578.00,0.0006
3577.00,0.0006
3576.00,0.0006
3575.00,0.0007
3574.00,0.0007
3573.00,0.0007
3572.00,0.0007
3571.00,0.0007
3570.00,0.0007
3569.00,0.0007
3568.00,0.0007
3567.00,0.0007
3566.00,0.0007
3565.00,0.0008
3564.00,0.0008
3563.00,0.0008
3562.00,0.0008
3561.00,0.0008
3560.00,0.0008
3559.00,0.0008
3558.00,0.0008
3557.00,0.0009
3556.00,0.0009
3555.00,0.0009
3554.00,0.0009
3553.00,0.0009
3552.00,0.0009
3551.00,0.0009
3550.00,0.0009
3549.00,0.0010
3548.00,0.0010
3547.00,0.0010
3546.00,0.0010
3545.00,0.0010
3544.00,0.0010
3543.00,0.0010
3542.00,0.0010
3541.00,0.0010
3540.00,0.0010
3539.00,0.0010
3538.00,0.0010
3537.00,0.0010
3536.00,0.0010
3535.00,0.0011
3534.00,0.0011
3533.00,0.0011
3532.00,0.0011
3531.00,0.0011
3530.00,0.0012
3529.00,0.0012
3528.00,0.0012
3527.00,0.0012
3526.00,0.0012
3525.00,0.0012
3524.00,0.0012
3523.00,0.0012
3522.00,0.0012
3521.00,0.0013
3520.00,0.0013
3519.00,0.0013
3518.00,0.0013
3517.00,0.0013
3516.00,0.0013
3515.00,0.0013
3514.00,0.0013
3513.00,0.0013
3512.00,0.0013
3511.00,0.0013
3510.00,0.0013
3509.00,0.0013
3508.00,0.0013
3507.00,0.0014
3506.00,0.0014
3505.00,0.0014
3504.00,0.0014
3503.00,0.0014
3502.00,0.0014
3501.00,0.0015
3500.00,0.0015
3499.00,0.0015
3498.00,0.0015
3497.00,0.0015
3496.00,0.0015
3495.00,0.0015
3494.00,0.0015
3493.00,0.0015
3492.00,0.0016
3491.00,0.0016
3490.00,0.0016
3489.00,0.0016
3488.00,0.0016
3487.00,0.0016
3486.00,0.0016
3485.00,0.0017
3484.00,0.0017
3483.00,0.0017
3482.00,0.0017
3481.00,0.0017
3480.00,0.0018
3479.00,0.0018
3478.00,0.0018
3477.00,0.0018
3476.00,0.0018
3475.00,0.0018
3474.00,0.0018
3473.00,0.0018
3472.00,0.0018
3471.00,0.0018
3470.00,0.0018
3469.00,0.0018
3468.00,0.0018
3467.00,0.0018
3466.00,0.0018
3465.00,0.0019
3464.00,0.0019
3463.00,0.0019
3462.00,0.0019
3461.00,0.0019
3460.00,0.0019
3459.00,0.0019
3458.00,0.0019
3457.00,0.0019
3456.00,0.0019
3455.00,0.0019
3454.00,0.0019
3453.00,0.0019
3452.00,0.0019
3451.00,0.0019
3450.00,0.0019
3449.00,0.0019
3448.00,0.0019
3447.00,0.0020
3446.00,0.0020
3445.00,0.0020
3444.00,0.0020
3443.00,0.0020
3442.00,0.0020
3441.00,0.0019
3440.00,0.0019
3439.00,0.0019
3438.00,0.0019
3437.00,0.0020
3436.00,0.0020
3435.00,0.0020
3434.00,0.0020
3433.00,0.0020
3432.00,0.0020
3431.00,0.0021
3430.00,0.0021
3429.00,0.0021
3428.00,0.0021
3427.00,0.0021
3426.00,0.0021
3425.00,0.0021
3424.00,0.0021
3423.00,0.0021
3422.00,0.0021
3421.00,0.0021
3420.00,0.0021
3419.00,0.0021
3418.00,0.0021
3417.00,0.0021
3416.00,0.0021
3415.00,0.0021
3414.00,0.0021
3413.00,0.0021
3412.00,0.0021
3411.00,0.0021
3410.00,0.0021
3409.00,0.0021
3408.00,0.0021
3407.00,0.0022
3406.00,0.0022
3405.00,0.0022
3404.00,0.0022
3403.00,0.0022
3402.00,0.0022
3401.00,0.0022
3400.00,0.0022
3399.00,0.0022
3398.00,0.0022
3397.00,0.0022
3396.00,0.0022
3395.00,0.0023
3394.00,0.0023
3393.00,0.0023
3392.00,0.0023
3391.00,0.0023
3390.00,0.0023
3389.00,0.0023
3388.00,0.0023
3387.00,0.0023
3386.00,0.0023
3385.00,0.0024
3384.00,0.0024
3383.00,0.0024
3382.00,0.0024
3381.00,0.0024
3380.00,0.0024
3379.00,0.0024
3378.00,0.0024
3377.00,0.0024
3376.00,0.0024
3375.00,0.0024
3374.00,0.0024
3373.00,0.0024
3372.00,0.0024
3371.00,0.0024
3370.00,0.0024
3369.00,0.0025
3368.00,0.0025
3367.00,0.0025
3366.00,0.0025
3365.00,0.0025
3364.00,0.0025
3363.00,0.0025
3362.00,0.0025
3361.00,0.0025
3360.00,0.0025
3359.00,0.0025
3358.00,0.0025
3357.00,0.0025
3356.00,0.0026
3355.00,0.0026
3354.00,0.0026
3353.00,0.0026
3352.00,0.0026
3351.00,0.0026
3350.00,0.0026
3349.00,0.0026
3348.00,0.0026
3347.00,0.0026
3346.00,0.0026
3345.00,0.0026
3344.00,0.0026
3343.00,0.0026
3342.00,0.0026
3341.00,0.0027
3340.00,0.0027
3339.00,0.0027
3338.00,0.0027
3337.00,0.0026
3336.00,0.0026
3335.00,0.0026
3334.00,0.0026
3333.00,0.0026
3332.00,0.0026
3331.00,0.0027
3330.00,0.0027
3329.00,0.0027
3328.00,0.0027
3327.00,0.0027
3326.00,0.0027
3325.00,0.0027
3324.00,0.0028
3323.00,0.0028
3322.00,0.0028
3321.00,0.0028
3320.00,0.0028
3319.00,0.0028
3318.00,0.0028
3317.00,0.0028
3316.00,0.0028
3315.00,0.0028
3314.00,0.0028
3313.00,0.0028
3312.00,0.0028
3311.00,0.0028
3310.00,0.0028
3309.00,0.0028
3308.00,0.0028
3307.00,0.0028
3306.00,0.0028
3305.00,0.0028
3304.00,0.0028
3303.00,0.0028
3302.00,0.0028
3301.00,0.0028
3300.00,0.0028
3299.00,0.0028
3298.00,0.0028
3297.00,0.0029
3296.00,0.0029
3295.00,0.0028
3294.00,0.0028
3293.00,0.0028
3292.00,0.0028
3291.00,0.0028
3290.00,0.0028
3289.00,0.0028
3288.00,0.0028
3287.00,0.0028
3286.00,0.0028
3285.00,0.0028
3284.00,0.0028
3283.00,0.0028
3282.00,0.0028
3281.00,0.0028
3280.00,0.0028
3279.00,0.0028
3278.00,0.0027
3277.00,0.0027
3276.00,0.0027
3275.00,0.0027
3274.00,0.0027
3273.00,0.0027
3272.00,0.0026
3271.00,0.0026
3270.00,0.0026
3269.00,0.0026
3268.00,0.0026
3267.00,0.0026
3266.00,0.0026
3265.00,0.0026
3264.00,0.0026
3263.00,0.0026
3262.00,0.0025
3261.00,0.0025
3260.00,0.0025
3259.00,0.0025
3258.00,0.0025
3257.00,0.0025
3256.00,0.0025
3255.00,0.0025
3254.00,0.0025
3253.00,0.0025
3252.00,0.0025
3251.00,0.0024
3250.00,0.0024
3249.00,0.0024
3248.00,0.0024
3247.00,0.0023
3246.00,0.0023
3245.00,0.0023
3244.00,0.0023
3243.00,0.0023
3242.00,0.0022
3241.00,0.0022
3240.00,0.0022
3239.00,0.0022
3238.00,0.0022
3237.00,0.0022
3236.00,0.0022
3235.00,0.0023
3234.00,0.0023
3233.00,0.0023
3232.00,0.0023
3231.00,0.0023
3230.00,0.0022
3229.00,0.0022
3228.00,0.0021
3227.00,0.0021
3226.00,0.0021
3225.00,0.0021
3224.00,0.0021
3223.00,0.0021
3222.00,0.0021
3221.00,0.0021
3220.00,0.0021
3219.00,0.0021
3218.00,0.0021
3217.00,0.0021
3216.00,0.0021
3215.00,0.0022
3214.00,0.0022
3213.00,0.0022
3212.00,0.0022
3211.00,0.0022
3210.00,0.0022
3209.00,0.0022
3208.00,0.0022
3207.00,0.0022
3206.00,0.0022
3205.00,0.0022
3204.00,0.0022
3203.00,0.0022
3202.00,0.0022
3201.00,0.0022
3200.00,0.0022
3199.00,0.0021
3198.00,0.0021
3197.00,0.0021
3196.00,0.0020
3195.00,0.0020
3194.00,0.0020
3193.00,0.0020
3192.00,0.0019
3191.00,0.0019
3190.00,0.0019
3189.00,0.0019
3188.00,0.0019
3187.00,0.0019
3186.00,0.0019
3185.00,0.0019
3184.00,0.0018
3183.00,0.0018
3182.00,0.0018
3181.00,0.0018
3180.00,0.0018
3179.00,0.0018
3178.00,0.0018
3177.00,0.0018
3176.00,0.0018
3175.00,0.0017
3174.00,0.0017
3173.00,0.0017
3172.00,0.0017
3171.00,0.0018
3170.00,0.0018
3169.00,0.0018
3168.00,0.0018
3167.00,0.0018
3166.00,0.0019
3165.00,0.0019
3164.00,0.0019
3163.00,0.0019
3162.00,0.0019
3161.00,0.0019
3160.00,0.0019
3159.00,0.0018
3158.00,0.0018
3157.00,0.0017
3156.00,0.0017
3155.00,0.0016
3154.00,0.0016
3153.00,0.0016
3152.00,0.0016
3151.00,0.0016
3150.00,0.0016
3149.00,0.0016
3148.00,0.0016
3147.00,0.0016
3146.00,0.0016
3145.00,0.0015
3144.00,0.0015
3143.00,0.0015
3142.00,0.0015
3141.00,0.0015
3140.00,0.0015
3139.00,0.0015
3138.00,0.0015
3137.00,0.0015
3136.00,0.0015
3135.00,0.0015
3134.00,0.0015
3133.00,0.0015
3132.00,0.0015
3131.00,0.0015
3130.00,0.0015
3129.00,0.0015
3128.00,0.0015
3127.00,0.0015
3126.00,0.0015
3125.00,0.0016
3124.00,0.0016
3123.00,0.0016
3122.00,0.0016
3121.00,0.0017
3120.00,0.0017
3119.00,0.0018
3118.00,0.0018
3117.00,0.0019
3116.00,0.0020
3115.00,0.0021
3114.00,0.0023
3113.00,0.0025
3112.00,0.0027
3111.00,0.0029
3110.00,0.0032
3109.00,0.0035
3108.00,0.0038
3107.00,0.0041
3106.00,0.0043
3105.00,0.0045
3104.00,0.0047
3103.00,0.0047
3102.00,0.0047
3101.00,0.0047
3100.00,0.0046
3099.00,0.0045
3098.00,0.0044
3097.00,0.0044
3096.00,0.0044
3095.00,0.0044
3094.00,0.0046
3093.00,0.0049
3092.00,0.0053
3091.00,0.0059
3090.00,0.0065
3089.00,0.0073
3088.00,0.0083
3087.00,0.0093
3086.00,0.0103
3085.00,0.0112
3084.00,0.0120
3083.00,0.0125
3082.00,0.0126
3081.00,0.0124
3080.00,0.0119
3079.00,0.0113
3078.00,0.0106
3077.00,0.0100
3076.00,0.0095
3075.00,0.0091
3074.00,0.0089
3073.00,0.0089
3072.00,0.0090
3071.00,0.0092
3070.00,0.0096
3069.00,0.0102
3068.00,0.0109
3067.00,0.0117
3066.00,0.0127
3065.00,0.0138
3064.00,0.0149
3063.00,0.0160
3062.00,0.0169
3061.00,0.0175
3060.00,0.0178
3059.00,0.0177
3058.00,0.0172
3057.00,0.0165
3056.00,0.0155
3055.00,0.0144
3054.00,0.0133
3053.00,0.0123
3052.00,0.0114
3051.00,0.0106
3050.00,0.0099
3049.00,0.0094
3048.00,0.0089
3047.00,0.0086
3046.00,0.0084
3045.00,0.0084
3044.00,0.0084
3043.00,0.0086
3042.00,0.0089
3041.00,0.0093
3040.00,0.0098
3039.00,0.0105
3038.00,0.0114
3037.00,0.0124
3036.00,0.0136
3035.00,0.0151
3034.00,0.0169
3033.00,0.0190
3032.00,0.0213
3031.00,0.0239
3030.00,0.0265
3029.00,0.0292
3028.00,0.0315
3027.00,0.0333
3026.00,0.0344
3025.00,0.0346
3024.00,0.0337
3023.00,0.0319
3022.00,0.0294
3021.00,0.0264
3020.00,0.0232
3019.00,0.0201
3018.00,0.0173
3017.00,0.0149
3016.00,0.0129
3015.00,0.0113
3014.00,0.0099
3013.00,0.0089
3012.00,0.0080
3011.00,0.0075
3010.00,0.0071
3009.00,0.0069
3008.00,0.0069
3007.00,0.0071
3006.00,0.0074
3005.00,0.0077
3004.00,0.0081
3003.00,0.0085
3002.00,0.0087
3001.00,0.0087
3000.00,0.0086
2999.00,0.0082
2998.00,0.0077
2997.00,0.0071
2996.00,0.0065
2995.00,0.0060
2994.00,0.0055
2993.00,0.0051
2992.00,0.0049
2991.00,0.0047
2990.00,0.0045
2989.00,0.0044
2988.00,0.0044
2987.00,0.0043
2986.00,0.0043
2985.00,0.0043
2984.00,0.0043
2983.00,0.0043
2982.00,0.0043
2981.00,0.0043
2980.00,0.0044
2979.00,0.0044
2978.00,0.0045
2977.00,0.0046
2976.00,0.0047
2975.00,0.0048
2974.00,0.0049
2973.00,0.0050
2972.00,0.0051
2971.00,0.0052
2970.00,0.0054
2969.00,0.0056
2968.00,0.0058
2967.00,0.0060
2966.00,0.0062
2965.00,0.0065
2964.00,0.0067
2963.00,0.0070
2962.00,0.0073
2961.00,0.0076
2960.00,0.0080
2959.00,0.0083
2958.00,0.0087
2957.00,0.0091
2956.00,0.0095
2955.00,0.0099
2954.00,0.0104
2953.00,0.0109
2952.00,0.0114
2951.00,0.0120
2950.00,0.0126
2949.00,0.0133
2948.00,0.0140
2947.00,0.0148
2946.00,0.0156
2945.00,0.0165
2944.00,0.0174
2943.00,0.0184
2942.00,0.0195
2941.00,0.0207
2940.00,0.0220
2939.00,0.0234
2938.00,0.0248
2937.00,0.0263
2936.00,0.0279
2935.00,0.0296
2934.00,0.0313
2933.00,0.0330
2932.00,0.0347
2931.00,0.0364
2930.00,0.0381
2929.00,0.0397
2928.00,0.0411
2927.00,0.0424
2926.00,0.0436
2925.00,0.0445
2924.00,0.0453
2923.00,0.0458
2922.00,0.0461
2921.00,0.0461
2920.00,0.0458
2919.00,0.0453
2918.00,0.0446
2917.00,0.0436
2916.00,0.0424
2915.00,0.0411
2914.00,0.0399
2913.00,0.0386
2912.00,0.0374
2911.00,0.0361
2910.00,0.0349
2909.00,0.0337
2908.00,0.0325
2907.00,0.0313
2906.00,0.0301
2905.00,0.0289
2904.00,0.0277
2903.00,0.0265
2902.00,0.0254
2901.00,0.0243
2900.00,0.0231
2899.00,0.0220
2898.00,0.0210
2897.00,0.0200
2896.00,0.0191
2895.00,0.0184
2894.00,0.0176
2893.00,0.0170
2892.00,0.0164
2891.00,0.0159
2890.00,0.0154
2889.00,0.0149
2888.00,0.0145
2887.00,0.0141
2886.00,0.0137
2885.00,0.0133
2884.00,0.0130
2883.00,0.0126
2882.00,0.0123
2881.00,0.0120
2880.00,0.0117
2879.00,0.0114
2878.00,0.0112
2877.00,0.0109
2876.00,0.0106
2875.00,0.0104
2874.00,0.0102
2873.00,0.0100
2872.00,0.0099
2871.00,0.0098
2870.00,0.0097
2869.00,0.0097
2868.00,0.0097
2867.00,0.0099
2866.00,0.0101
2865.00,0.0104
2864.00,0.0108
2863.00,0.0113
2862.00,0.0118
2861.00,0.0124
2860.00,0.0131
2859.00,0.0139
2858.00,0.0146
2857.00,0.0154
2856.00,0.0161
2855.00,0.0168
2854.00,0.0175
2853.00,0.0180
2852.00,0.0184
2851.00,0.0185
2850.00,0.0184
2849.00,0.0182
2848.00,0.0178
2847.00,0.0173
2846.00,0.0166
2845.00,0.0158
2844.00,0.0148
2843.00,0.0137
2842.00,0.0126
2841.00,0.0113
2840.00,0.0101
2839.00,0.0090
2838.00,0.0079
2837.00,0.0070
2836.00,0.0062
2835.00,0.0056
2834.00,0.0050
2833.00,0.0045
2832.00,0.0042
2831.00,0.0038
2830.00,0.0036
2829.00,0.0034
2828.00,0.0032
2827.00,0.0031
2826.00,0.0030
2825.00,0.0029
2824.00,0.0028
2823.00,0.0027
2822.00,0.0027
2821.00,0.0026
2820.00,0.0026
2819.00,0.0026
2818.00,0.0026
2817.00,0.0026
2816.00,0.0025
2815.00,0.0025
2814.00,0.0025
2813.00,0.0024
2812.00,0.0024
2811.00,0.0024
2810.00,0.0024
2809.00,0.0024
2808.00,0.0023
2807.00,0.0023
2806.00,0.0023
2805.00,0.0022
2804.00,0.0022
2803.00,0.0022
2802.00,0.0021
2801.00,0.0021
2800.00,0.0021
2799.00,0.0020
2798.00,0.0020
2797.00,0.0020
2796.00,0.0019
2795.00,0.0019
2794.00,0.0019
2793.00,0.0018
2792.00,0.0018
2791.00,0.0018
2790.00,0.0018
2789.00,0.0018
2788.00,0.0018
2787.00,0.0018
2786.00,0.0018
2785.00,0.0018
2784.00,0.0018
2783.00,0.0018
2782.00,0.0017
2781.00,0.0017
2780.00,0.0017
2779.00,0.0017
2778.00,0.0017
2777.00,0.0017
2776.00,0.0017
2775.00,0.0016
2774.00,0.0016
2773.00,0.0016
2772.00,0.0016
2771.00,0.0015
2770.00,0.0015
2769.00,0.0015
2768.00,0.0015
2767.00,0.0015
2766.00,0.0014
2765.00,0.0014
2764.00,0.0014
2763.00,0.0013
2762.00,0.0013
2761.00,0.0013
2760.00,0.0014
2759.00,0.0014
2758.00,0.0014
2757.00,0.0013
2756.00,0.0013
2755.00,0.0013
2754.00,0.0013
2753.00,0.0013
2752.00,0.0013
2751.00,0.0013
2750.00,0.0013
2749.00,0.0013
2748.00,0.0012
2747.00,0.0012
2746.00,0.0012
2745.00,0.0012
2744.00,0.0012
2743.00,0.0012
2742.00,0.0012
2741.00,0.0012
2740.00,0.0013
2739.00,0.0013
2738.00,0.0013
2737.00,0.0013
2736.00,0.0013
2735.00,0.0013
2734.00,0.0013
2733.00,0.0013
2732.00,0.0013
2731.00,0.0013
2730.00,0.0013
2729.00,0.0013
2728.00,0.0013
2727.00,0.0013
2726.00,0.0013
2725.00,0.0013
2724.00,0.0013
2723.00,0.0013
2722.00,0.0013
2721.00,0.0013
2720.00,0.0013
2719.00,0.0013
2718.00,0.0013
2717.00,0.0013
2716.00,0.0013
2715.00,0.0012
2714.00,0.0012
2713.00,0.0013
2712.00,0.0012
2711.00,0.0012
2710.00,0.0012
2709.00,0.0012
2708.00,0.0012
2707.00,0.0012
2706.00,0.0012
2705.00,0.0012
2704.00,0.0012
2703.00,0.0012
2702.00,0.0012
2701.00,0.0011
2700.00,0.0011
2699.00,0.0012
2698.00,0.0012
2697.00,0.0012
2696.00,0.0012
2695.00,0.0012
2694.00,0.0012
2693.00,0.0011
2692.00,0.0012
2691.00,0.0012
2690.00,0.0012
2689.00,0.0012
2688.00,0.0012
2687.00,0.0012
2686.00,0.0012
2685.00,0.0012
2684.00,0.0012
2683.00,0.0012
2682.00,0.0012
2681.00,0.0012
2680.00,0.0012
2679.00,0.0012
2678.00,0.0012
2677.00,0.0012
2676.00,0.0012
2675.00,0.0012
2674.00,0.0012
2673.00,0.0012
2672.00,0.0012
2671.00,0.0012
2670.00,0.0012
2669.00,0.0012
2668.00,0.0012
2667.00,0.0012
2666.00,0.0013
2665.00,0.0013
2664.00,0.0014
2663.00,0.0014
2662.00,0.0015
2661.00,0.0015
2660.00,0.0015
2659.00,0.0015
2658.00,0.0015
2657.00,0.0015
2656.00,0.0015
2655.00,0.0015
2654.00,0.0015
2653.00,0.0015
2652.00,0.0015
2651.00,0.0015
2650.00,0.0016
2649.00,0.0016
2648.00,0.0016
2647.00,0.0016
2646.00,0.0016
2645.00,0.0015
2644.00,0.0015
2643.00,0.0015
2642.00,0.0016
2641.00,0.0016
2640.00,0.0016
2639.00,0.0016
2638.00,0.0016
2637.00,0.0016
2636.00,0.0016
2635.00,0.0016
2634.00,0.0016
2633.00,0.0016
2632.00,0.0016
2631.00,0.0016
2630.00,0.0016
2629.00,0.0016
2628.00,0.0015
2627.00,0.0015
2626.00,0.0015
2625.00,0.0014
2624.00,0.0014
2623.00,0.0013
2622.00,0.0013
2621.00,0.0013
2620.00,0.0013
2619.00,0.0012
2618.00,0.0012
2617.00,0.0012
2616.00,0.0012
2615.00,0.0012
2614.00,0.0012
2613.00,0.0012
2612.00,0.0012
2611.00,0.0012
2610.00,0.0013
2609.00,0.0013
2608.00,0.0013
2607.00,0.0013
2606.00,0.0013
2605.00,0.0013
2604.00,0.0013
2603.00,0.0013
2602.00,0.0012
2601.00,0.0012
2600.00,0.0012
2599.00,0.0012
2598.00,0.0012
2597.00,0.0012
2596.00,0.0011
2595.00,0.0011
2594.00,0.0010
2593.00,0.0010
2592.00,0.0009
2591.00,0.0009
2590.00,0.0009
2589.00,0.0009
2588.00,0.0009
2587.00,0.0010
2586.00,0.0010
2585.00,0.0010
2584.00,0.0010
2583.00,0.0010
2582.00,0.0010
2581.00,0.0010
2580.00,0.0010
2579.00,0.0010
2578.00,0.0010
2577.00,0.0009
2576.00,0.0009
2575.00,0.0008
2574.00,0.0008
2573.00,0.0008
2572.00,0.0008
2571.00,0.0007
2570.00,0.0007
2569.00,0.0007
2568.00,0.0007
2567.00,0.0007
2566.00,0.0007
2565.00,0.0007
2564.00,0.0007
2563.00,0.0006
2562.00,0.0006
2561.00,0.0006
2560.00,0.0006
2559.00,0.0007
2558.00,0.0007
2557.00,0.0007
2556.00,0.0006
2555.00,0.0006
2554.00,0.0006
2553.00,0.0006
2552.00,0.0006
2551.00,0.0007
2550.00,0.0007
2549.00,0.0007
2548.00,0.0007
2547.00,0.0007
2546.00,0.0007
2545.00,0.0007
2544.00,0.0007
2543.00,0.0007
2542.00,0.0006
2541.00,0.0006
2540.00,0.0006
2539.00,0.0006
2538.00,0.0006
2537.00,0.0005
2536.00,0.0005
2535.00,0.0005
2534.00,0.0005
2533.00,0.0006
2532.00,0.0006
2531.00,0.0006
2530.00,0.0006
2529.00,0.0006
2528.00,0.0005
2527.00,0.0005
2526.00,0.0005
2525.00,0.0005
2524.00,0.0005
2523.00,0.0006
2522.00,0.0006
2521.00,0.0006
2520.00,0.0006
2519.00,0.0006
2518.00,0.0006
2517.00,0.0005
2516.00,0.0005
2515.00,0.0005
2514.00,0.0005
2513.00,0.0005
2512.00,0.0006
2511.00,0.0006
2510.00,0.0006
2509.00,0.0006
2508.00,0.0005
2507.00,0.0005
2506.00,0.0005
2505.00,0.0005
2504.00,0.0005
2503.00,0.0005
2502.00,0.0005
2501.00,0.0005
2500.00,0.0005
2499.00,0.0005
2498.00,0.0004
2497.00,0.0004
2496.00,0.0005
2495.00,0.0005
2494.00,0.0004
2493.00,0.0004
2492.00,0.0004
2491.00,0.0004
2490.00,0.0004
2489.00,0.0003
2488.00,0.0003
2487.00,0.0003
2486.00,0.0003
2485.00,0.0003
2484.00,0.0003
2483.00,0.0003
2482.00,0.0003
2481.00,0.0003
2480.00,0.0003
2479.00,0.0003
2478.00,0.0003
2477.00,0.0003
2476.00,0.0004
2475.00,0.0003
2474.00,0.0003
2473.00,0.0003
2472.00,0.0003
2471.00,0.0003
2470.00,0.0003
2469.00,0.0003
2468.00,0.0003
2467.00,0.0003
2466.00,0.0002
2465.00,0.0002
2464.00,0.0002
2463.00,0.0002
2462.00,0.0002
2461.00,0.0002
2460.00,0.0002
2459.00,0.0003
2458.00,0.0003
2457.00,0.0003
2456.00,0.0003
2455.00,0.0003
2454.00,0.0003
2453.00,0.0003
2452.00,0.0003
2451.00,0.0003
2450.00,0.0003
2449.00,0.0002
2448.00,0.0002
2447.00,0.0002
2446.00,0.0002
2445.00,0.0002
2444.00,0.0002
2443.00,0.0002
2442.00,0.0001
2441.00,0.0001
2440.00,0.0001
2439.00,0.0001
2438.00,0.0001
2437.00,0.0000
2436.00,0.0000
2435.00,-0.0000
2434.00,-0.0000
2433.00,-0.0000
2432.00,-0.0000
2431.00,-0.0000
2430.00,-0.0000
2429.00,-0.0000
2428.00,-0.0000
2427.00,-0.0001
2426.00,-0.0001
2425.00,-0.0001
2424.00,-0.0001
2423.00,-0.0001
2422.00,-0.0001
2421.00,-0.0001
2420.00,-0.0001
2419.00,-0.0001
2418.00,-0.0001
2417.00,-0.0001
2416.00,-0.0001
2415.00,-0.0001
2414.00,-0.0001
2413.00,-0.0001
2412.00,-0.0001
2411.00,-0.0001
2410.00,-0.0001
2409.00,-0.0002
2408.00,-0.0002
2407.00,-0.0003
2406.00,-0.0003
2405.00,-0.0003
2404.00,-0.0003
2403.00,-0.0003
2402.00,-0.0003
2401.00,-0.0003
2400.00,-0.0003
2399.00,-0.0003
2398.00,-0.0003
2397.00,-0.0003
2396.00,-0.0002
2395.00,-0.0002
2394.00,-0.0002
2393.00,-0.0002
2392.00,-0.0002
2391.00,-0.0002
2390.00,-0.0002
2389.00,-0.0002
2388.00,-0.0002
2387.00,-0.0002
2386.00,-0.0002
2385.00,-0.0002
2384.00,-0.0002
2383.00,-0.0001
2382.00,-0.0001
2381.00,-0.0002
2380.00,-0.0002
2379.00,-0.0001
2378.00,-0.0001
2377.00,-0.0001
2376.00,-0.0001
2375.00,-0.0001
2374.00,-0.0001
2373.00,-0.0002
2372.00,-0.0002
2371.00,-0.0002
2370.00,-0.0002
2369.00,-0.0001
2368.00,-0.0001
2367.00,-0.0001
2366.00,-0.0000
2365.00,0.0001
2364.00,0.0001
2363.00,0.0002
2362.00,0.0002
2361.00,0.0002
2360.00,0.0002
2359.00,0.0003
2358.00,0.0003
2357.00,0.0003
2356.00,0.0003
2355.00,0.0003
2354.00,0.0003
2353.00,0.0003
2352.00,0.0003
2351.00,0.0004
2350.00,0.0004
2349.00,0.0005
2348.00,0.0005
2347.00,0.0006
2346.00,0.0006
2345.00,0.0006
2344.00,0.0007
2343.00,0.0007
2342.00,0.0007
2341.00,0.0007
2340.00,0.0008
2339.00,0.0008
2338.00,0.0008
2337.00,0.0009
2336.00,0.0009
2335.00,0.0008
2334.00,0.0008
2333.00,0.0007
2332.00,0.0007
2331.00,0.0007
2330.00,0.0007
2329.00,0.0009
2328.00,0.0012
2327.00,0.0016
2326.00,0.0018
2325.00,0.0018
2324.00,0.0017
2323.00,0.0015
2322.00,0.0013
2321.00,0.0012
2320.00,0.0011
2319.00,0.0011
2318.00,0.0011
2317.00,0.0011
2316.00,0.0011
2315.00,0.0011
2314.00,0.0012
2313.00,0.0012
2312.00,0.0012
2311.00,0.0013
2310.00,0.0012
2309.00,0.0012
2308.00,0.0011
2307.00,0.0011
2306.00,0.0010
2305.00,0.0010
2304.00,0.0009
2303.00,0.0009
2302.00,0.0008
2301.00,0.0008
2300.00,0.0008
2299.00,0.0008
2298.00,0.0008
2297.00,0.0009
2296.00,0.0010
2295.00,0.0010
2294.00,0.0010
2293.00,0.0010
2292.00,0.0011
2291.00,0.0011
2290.00,0.0012
2289.00,0.0012
2288.00,0.0012
2287.00,0.0012
2286.00,0.0011
2285.00,0.0011
2284.00,0.0010
2283.00,0.0009
2282.00,0.0008
2281.00,0.0007
2280.00,0.0006
2279.00,0.0005
2278.00,0.0005
2277.00,0.0005
2276.00,0.0005
2275.00,0.0005
2274.00,0.0005
2273.00,0.0005
2272.00,0.0005
2271.00,0.0005
2270.00,0.0004
2269.00,0.0004
2268.00,0.0004
2267.00,0.0003
2266.00,0.0002
2265.00,0.0001
2264.00,0.0001
2263.00,0.0002
2262.00,0.0002
2261.00,0.0004
2260.00,0.0005
2259.00,0.0006
2258.00,0.0005
2257.00,0.0004
2256.00,0.0002
2255.00,0.0001
2254.00,0.0000
2253.00,0.0001
2252.00,0.0002
2251.00,0.0002
2250.00,0.0003
2249.00,0.0002
2248.00,0.0002
2247.00,0.0001
2246.00,0.0001
2245.00,0.0002
2244.00,0.0002
2243.00,0.0002
2242.00,0.0001
2241.00,0.0001
2240.00,0.0001
2239.00,0.0002
2238.00,0.0002
2237.00,0.0002
2236.00,0.0002
2235.00,0.0002
2234.00,0.0002
2233.00,0.0001
2232.00,0.0001
2231.00,0.0000
2230.00,-0.0000
2229.00,-0.0000
2228.00,-0.0000
2227.00,-0.0000
2226.00,-0.0000
2225.00,-0.0000
2224.00,-0.0000
2223.00,-0.0001
2222.00,-0.0002
2221.00,-0.0004
2220.00,-0.0005
2219.00,-0.0005
2218.00,-0.0004
2217.00,-0.0002
2216.00,-0.0001
2215.00,-0.0001
2214.00,-0.0002
2213.00,-0.0003
2212.00,-0.0003
2211.00,-0.0002
2210.00,-0.0002
2209.00,-0.0001
2208.00,-0.0001
2207.00,-0.0002
2206.00,-0.0003
2205.00,-0.0004
2204.00,-0.0004
2203.00,-0.0003
2202.00,-0.0002
2201.00,-0.0001
2200.00,-0.0001
2199.00,-0.0001
2198.00,-0.0001
2197.00,-0.0001
2196.00,-0.0000
2195.00,0.0000
2194.00,0.0001
2193.00,0.0001
2192.00,0.0001
2191.00,0.0001
2190.00,0.0001
2189.00,0.0000
2188.00,-0.0001
2187.00,-0.0001
2186.00,-0.0002
2185.00,-0.0002
2184.00,-0.0003
2183.00,-0.0004
2182.00,-0.0004
2181.00,-0.0004
2180.00,-0.0003
2179.00,-0.0003
2178.00,-0.0004
2177.00,-0.0006
2176.00,-0.0007
2175.00,-0.0006
2174.00,-0.0004
2173.00,-0.0002
2172.00,-0.0001
2171.00,0.0000
2170.00,0.0001
2169.00,0.0001
2168.00,0.0001
2167.00,0.0001
2166.00,0.0003
2165.00,0.0006
2164.00,0.0010
2163.00,0.0012
2162.00,0.0007
2161.00,-0.0005
2160.00,-0.0020
2159.00,-0.0031
2158.00,-0.0035
2157.00,-0.0035
2156.00,-0.0032
2155.00,-0.0029
2154.00,-0.0026
2153.00,-0.0024
2152.00,-0.0022
2151.00,-0.0020
2150.00,-0.0020
2149.00,-0.0021
2148.00,-0.0021
2147.00,-0.0021
2146.00,-0.0021
2145.00,-0.0021
2144.00,-0.0020
2143.00,-0.0019
2142.00,-0.0018
2141.00,-0.0018
2140.00,-0.0018
2139.00,-0.0018
2138.00,-0.0020
2137.00,-0.0022
2136.00,-0.0023
2135.00,-0.0024
2134.00,-0.0023
2133.00,-0.0022
2132.00,-0.0021
2131.00,-0.0020
2130.00,-0.0019
2129.00,-0.0017
2128.00,-0.0015
2127.00,-0.0014
2126.00,-0.0013
2125.00,-0.0012
2124.00,-0.0012
2123.00,-0.0011
2122.00,-0.0010
2121.00,-0.0010
2120.00,-0.0009
2119.00,-0.0008
2118.00,-0.0007
2117.00,-0.0006
2116.00,-0.0004
2115.00,-0.0004
2114.00,-0.0003
2113.00,-0.0004
2112.00,-0.0004
2111.00,-0.0004
2110.00,-0.0004
2109.00,-0.0004
2108.00,-0.0003
2107.00,-0.0003
2106.00,-0.0004
2105.00,-0.0004
2104.00,-0.0005
2103.00,-0.0004
2102.00,-0.0004
2101.00,-0.0005
2100.00,-0.0005
2099.00,-0.0006
2098.00,-0.0007
2097.00,-0.0008
2096.00,-0.0009
2095.00,-0.0009
2094.00,-0.0009
2093.00,-0.0009
2092.00,-0.0008
2091.00,-0.0007
2090.00,-0.0006
2089.00,-0.0004
2088.00,-0.0004
2087.00,-0.0003
2086.00,-0.0002
2085.00,-0.0002
2084.00,-0.0002
2083.00,-0.0003
2082.00,-0.0003
2081.00,-0.0002
2080.00,-0.0002
2079.00,-0.0002
2078.00,-0.0002
2077.00,-0.0002
2076.00,-0.0003
2075.00,-0.0003
2074.00,-0.0004
2073.00,-0.0004
2072.00,-0.0004
2071.00,-0.0004
2070.00,-0.0005
2069.00,-0.0005
2068.00,-0.0006
2067.00,-0.0007
2066.00,-0.0008
2065.00,-0.0008
2064.00,-0.0008
2063.00,-0.0008
2062.00,-0.0007
2061.00,-0.0006
2060.00,-0.0005
2059.00,-0.0004
2058.00,-0.0004
2057.00,-0.0005
2056.00,-0.0006
2055.00,-0.0006
2054.00,-0.0004
2053.00,-0.0001
2052.00,0.0001
2051.00,0.0001
2050.00,-0.0001
2049.00,-0.0002
2048.00,-0.0003
2047.00,-0.0004
2046.00,-0.0004
2045.00,-0.0005
2044.00,-0.0005
2043.00,-0.0006
2042.00,-0.0005
2041.00,-0.0004
2040.00,-0.0003
2039.00,-0.0002
2038.00,-0.0002
2037.00,-0.0003
2036.00,-0.0005
2035.00,-0.0006
2034.00,-0.0008
2033.00,-0.0010
2032.00,-0.0011
2031.00,-0.0012
2030.00,-0.0012
2029.00,-0.0011
2028.00,-0.0010
2027.00,-0.0008
2026.00,-0.0007
2025.00,-0.0007
2024.00,-0.0007
2023.00,-0.0009
2022.00,-0.0011
2021.00,-0.0012
2020.00,-0.0014
2019.00,-0.0014
2018.00,-0.0014
2017.00,-0.0013
2016.00,-0.0012
2015.00,-0.0011
2014.00,-0.0010
2013.00,-0.0009
2012.00,-0.0009
2011.00,-0.0010
2010.00,-0.0011
2009.00,-0.0012
2008.00,-0.0013
2007.00,-0.0014
2006.00,-0.0014
2005.00,-0.0013
2004.00,-0.0013
2003.00,-0.0013
2002.00,-0.0012
2001.00,-0.0011
2000.00,-0.0008
1999.00,-0.0006
1998.00,-0.0004
1997.00,-0.0002
1996.00,-0.0002
1995.00,-0.0002
1994.00,-0.0002
1993.00,-0.0002
1992.00,-0.0000
1991.00,0.0002
1990.00,0.0003
1989.00,0.0004
1988.00,0.0003
1987.00,0.0003
1986.00,0.0003
1985.00,0.0005
1984.00,0.0008
1983.00,0.0011
1982.00,0.0013
1981.00,0.0013
1980.00,0.0010
1979.00,0.0004
1978.00,-0.0002
1977.00,-0.0005
1976.00,-0.0005
1975.00,-0.0004
1974.00,-0.0004
1973.00,-0.0004
1972.00,-0.0004
1971.00,-0.0003
1970.00,-0.0003
1969.00,-0.0002
1968.00,-0.0001
1967.00,0.0001
1966.00,0.0004
1965.00,0.0008
1964.00,0.0011
1963.00,0.0013
1962.00,0.0014
1961.00,0.0013
1960.00,0.0012
1959.00,0.0012
1958.00,0.0014
1957.00,0.0016
1956.00,0.0019
1955.00,0.0021
1954.00,0.0023
1953.00,0.0024
1952.00,0.0025
1951.00,0.0026
1950.00,0.0028
1949.00,0.0031
1948.00,0.0034
1947.00,0.0036
1946.00,0.0039
1945.00,0.0040
1944.00,0.0041
1943.00,0.0041
1942.00,0.0041
1941.00,0.0041
1940.00,0.0040
1939.00,0.0038
1938.00,0.0035
1937.00,0.0031
1936.00,0.0028
1935.00,0.0025
1934.00,0.0022
1933.00,0.0020
1932.00,0.0017
1931.00,0.0015
1930.00,0.0012
1929.00,0.0010
1928.00,0.0008
1927.00,0.0007
1926.00,0.0005
1925.00,0.0004
1924.00,0.0004
1923.00,0.0003
1922.00,0.0004
1921.00,0.0004
1920.00,0.0004
1919.00,0.0004
1918.00,0.0003
1917.00,0.0002
1916.00,0.0001
1915.00,0.0001
1914.00,0.0001
1913.00,0.0001
1912.00,0.0002
1911.00,0.0002
1910.00,0.0002
1909.00,0.0002
1908.00,0.0002
1907.00,0.0002
1906.00,0.0002
1905.00,0.0002
1904.00,0.0003
1903.00,0.0004
1902.00,0.0005
1901.00,0.0005
1900.00,0.0006
1899.00,0.0007
1898.00,0.0008
1897.00,0.0009
1896.00,0.0010
1895.00,0.0012
1894.00,0.0014
1893.00,0.0016
1892.00,0.0018
1891.00,0.0020
1890.00,0.0021
1889.00,0.0022
1888.00,0.0023
1887.00,0.0024
1886.00,0.0026
1885.00,0.0027
1884.00,0.0028
1883.00,0.0029
1882.00,0.0030
1881.00,0.0031
1880.00,0.0032
1879.00,0.0033
1878.00,0.0034
1877.00,0.0034
1876.00,0.0035
1875.00,0.0036
1874.00,0.0036
1873.00,0.0037
1872.00,0.0038
1871.00,0.0039
1870.00,0.0038
1869.00,0.0037
1868.00,0.0037
1867.00,0.0036
1866.00,0.0035
1865.00,0.0034
1864.00,0.0032
1863.00,0.0030
1862.00,0.0027
1861.00,0.0025
1860.00,0.0022
1859.00,0.0019
1858.00,0.0017
1857.00,0.0016
1856.00,0.0015
1855.00,0.0014
1854.00,0.0013
1853.00,0.0012
1852.00,0.0011
1851.00,0.0009
1850.00,0.0009
1849.00,0.0008
1848.00,0.0008
1847.00,0.0008
1846.00,0.0008
1845.00,0.0008
1844.00,0.0006
1843.00,0.0006
1842.00,0.0005
1841.00,0.0006
1840.00,0.0006
1839.00,0.0006
1838.00,0.0006
1837.00,0.0006
1836.00,0.0006
1835.00,0.0007
1834.00,0.0008
1833.00,0.0009
1832.00,0.0010
1831.00,0.0011
1830.00,0.0012
1829.00,0.0013
1828.00,0.0014
1827.00,0.0016
1826.00,0.0017
1825.00,0.0018
1824.00,0.0019
1823.00,0.0021
1822.00,0.0022
1821.00,0.0023
1820.00,0.0024
1819.00,0.0024
1818.00,0.0025
1817.00,0.0026
1816.00,0.0028
1815.00,0.0030
1814.00,0.0032
1813.00,0.0034
1812.00,0.0036
1811.00,0.0038
1810.00,0.0040
1809.00,0.0041
1808.00,0.0043
1807.00,0.0045
1806.00,0.0047
1805.00,0.0049
1804.00,0.0050
1803.00,0.0051
1802.00,0.0052
1801.00,0.0052
1800.00,0.0051
1799.00,0.0050
1798.00,0.0048
1797.00,0.0046
1796.00,0.0045
1795.00,0.0043
1794.00,0.0041
1793.00,0.0039
1792.00,0.0036
1791.00,0.0034
1790.00,0.0032
1789.00,0.0031
1788.00,0.0030
1787.00,0.0030
1786.00,0.0029
1785.00,0.0029
1784.00,0.0029
1783.00,0.0030
1782.00,0.0030
1781.00,0.0031
1780.00,0.0032
1779.00,0.0033
1778.00,0.0034
1777.00,0.0035
1776.00,0.0036
1775.00,0.0037
1774.00,0.0037
1773.00,0.0037
1772.00,0.0038
1771.00,0.0038
1770.00,0.0039
1769.00,0.0040
1768.00,0.0041
1767.00,0.0042
1766.00,0.0043
1765.00,0.0045
1764.00,0.0046
1763.00,0.0048
1762.00,0.0051
1761.00,0.0054
1760.00,0.0058
1759.00,0.0061
1758.00,0.0065
1757.00,0.0070
1756.00,0.0075
1755.00,0.0081
1754.00,0.0087
1753.00,0.0093
1752.00,0.0099
1751.00,0.0106
1750.00,0.0112
1749.00,0.0117
1748.00,0.0122
1747.00,0.0126
1746.00,0.0130
1745.00,0.0133
1744.00,0.0135
1743.00,0.0137
1742.00,0.0136
1741.00,0.0135
1740.00,0.0131
1739.00,0.0126
1738.00,0.0122
1737.00,0.0119
1736.00,0.0116
1735.00,0.0111
1734.00,0.0104
1733.00,0.0098
1732.00,0.0094
1731.00,0.0091
1730.00,0.0088
1729.00,0.0085
1728.00,0.0083
1727.00,0.0081
1726.00,0.0079
1725.00,0.0076
1724.00,0.0074
1723.00,0.0071
1722.00,0.0069
1721.00,0.0068
1720.00,0.0066
1719.00,0.0064
1718.00,0.0062
1717.00,0.0059
1716.00,0.0057
1715.00,0.0056
1714.00,0.0055
1713.00,0.0054
1712.00,0.0053
1711.00,0.0053
1710.00,0.0053
1709.00,0.0053
1708.00,0.0053
1707.00,0.0054
1706.00,0.0054
1705.00,0.0054
1704.00,0.0055
1703.00,0.0055
1702.00,0.0056
1701.00,0.0056
1700.00,0.0056
1699.00,0.0056
1698.00,0.0056
1697.00,0.0057
1696.00,0.0057
1695.00,0.0057
1694.00,0.0058
1693.00,0.0058
1692.00,0.0059
1691.00,0.0060
1690.00,0.0062
1689.00,0.0063
1688.00,0.0064
1687.00,0.0066
1686.00,0.0067
1685.00,0.0068
1684.00,0.0070
1683.00,0.0072
1682.00,0.0072
1681.00,0.0073
1680.00,0.0074
1679.00,0.0075
1678.00,0.0076
1677.00,0.0076
1676.00,0.0078
1675.00,0.0079
1674.00,0.0080
1673.00,0.0080
1672.00,0.0081
1671.00,0.0081
1670.00,0.0081
1669.00,0.0081
1668.00,0.0082
1667.00,0.0081
1666.00,0.0081
1665.00,0.0080
1664.00,0.0080
1663.00,0.0080
1662.00,0.0079
1661.00,0.0078
1660.00,0.0077
1659.00,0.0075
1658.00,0.0073
1657.00,0.0072
1656.00,0.0070
1655.00,0.0069
1654.00,0.0068
1653.00,0.0069
1652.00,0.0068
1651.00,0.0066
1650.00,0.0064
1649.00,0.0062
1648.00,0.0061
1647.00,0.0061
1646.00,0.0060
1645.00,0.0059
1644.00,0.0058
1643.00,0.0056
1642.00,0.0055
1641.00,0.0054
1640.00,0.0054
1639.00,0.0053
1638.00,0.0052
1637.00,0.0051
1636.00,0.0051
1635.00,0.0051
1634.00,0.0050
1633.00,0.0049
1632.00,0.0048
1631.00,0.0048
1630.00,0.0048
1629.00,0.0048
1628.00,0.0049
1627.00,0.0049
1626.00,0.0049
1625.00,0.0049
1624.00,0.0049
1623.00,0.0050
1622.00,0.0051
1621.00,0.0051
1620.00,0.0052
1619.00,0.0052
1618.00,0.0054
1617.00,0.0056
1616.00,0.0058
1615.00,0.0061
1614.00,0.0065
1613.00,0.0069
1612.00,0.0076
1611.00,0.0085
1610.00,0.0099
1609.00,0.0118
1608.00,0.0143
1607.00,0.0174
1606.00,0.0212
1605.00,0.0254
1604.00,0.0297
1603.00,0.0336
1602.00,0.0363
1601.00,0.0372
1600.00,0.0362
1599.00,0.0335
1598.00,0.0299
1597.00,0.0260
1596.00,0.0224
1595.00,0.0194
1594.00,0.0171
1593.00,0.0152
1592.00,0.0138
1591.00,0.0128
1590.00,0.0120
1589.00,0.0117
1588.00,0.0119
1587.00,0.0126
1586.00,0.0137
1585.00,0.0151
1584.00,0.0161
1583.00,0.0165
1582.00,0.0159
1581.00,0.0145
1580.00,0.0129
1579.00,0.0114
1578.00,0.0101
1577.00,0.0091
1576.00,0.0083
1575.00,0.0077
1574.00,0.0073
1573.00,0.0071
1572.00,0.0068
1571.00,0.0066
1570.00,0.0064
1569.00,0.0063
1568.00,0.0062
1567.00,0.0062
1566.00,0.0062
1565.00,0.0061
1564.00,0.0061
1563.00,0.0061
1562.00,0.0061
1561.00,0.0061
1560.00,0.0062
1559.00,0.0064
1558.00,0.0066
1557.00,0.0066
1556.00,0.0067
1555.00,0.0067
1554.00,0.0069
1553.00,0.0070
1552.00,0.0071
1551.00,0.0072
1550.00,0.0074
1549.00,0.0075
1548.00,0.0076
1547.00,0.0077
1546.00,0.0078
1545.00,0.0079
1544.00,0.0079
1543.00,0.0080
1542.00,0.0079
1541.00,0.0078
1540.00,0.0077
1539.00,0.0076
1538.00,0.0074
1537.00,0.0072
1536.00,0.0070
1535.00,0.0067
1534.00,0.0065
1533.00,0.0063
1532.00,0.0060
1531.00,0.0058
1530.00,0.0057
1529.00,0.0055
1528.00,0.0054
1527.00,0.0053
1526.00,0.0052
1525.00,0.0051
1524.00,0.0050
1523.00,0.0050
1522.00,0.0049
1521.00,0.0049
1520.00,0.0049
1519.00,0.0049
1518.00,0.0049
1517.00,0.0049
1516.00,0.0049
1515.00,0.0050
1514.00,0.0050
1513.00,0.0050
1512.00,0.0051
1511.00,0.0053
1510.00,0.0054
1509.00,0.0056
1508.00,0.0058
1507.00,0.0061
1506.00,0.0065
1505.00,0.0070
1504.00,0.0077
1503.00,0.0086
1502.00,0.0098
1501.00,0.0116
1500.00,0.0144
1499.00,0.0188
1498.00,0.0260
1497.00,0.0373
1496.00,0.0524
1495.00,0.0685
1494.00,0.0816
1493.00,0.0890
1492.00,0.0888
1491.00,0.0807
1490.00,0.0672
1489.00,0.0532
1488.00,0.0419
1487.00,0.0336
1486.00,0.0275
1485.00,0.0230
1484.00,0.0194
1483.00,0.0166
1482.00,0.0144
1481.00,0.0127
1480.00,0.0115
1479.00,0.0107
1478.00,0.0101
1477.00,0.0097
1476.00,0.0094
1475.00,0.0091
1474.00,0.0089
1473.00,0.0088
1472.00,0.0089
1471.00,0.0090
1470.00,0.0091
1469.00,0.0094
1468.00,0.0097
1467.00,0.0099
1466.00,0.0102
1465.00,0.0105
1464.00,0.0110
1463.00,0.0116
1462.00,0.0124
1461.00,0.0135
1460.00,0.0153
1459.00,0.0182
1458.00,0.0243
1457.00,0.0353
1456.00,0.0500
1455.00,0.0646
1454.00,0.0772
1453.00,0.0868
1452.00,0.0916
1451.00,0.0907
1450.00,0.0855
1449.00,0.0783
1448.00,0.0710
1447.00,0.0646
1446.00,0.0594
1445.00,0.0549
1444.00,0.0505
1443.00,0.0463
1442.00,0.0424
1441.00,0.0390
1440.00,0.0360
1439.00,0.0332
1438.00,0.0304
1437.00,0.0274
1436.00,0.0244
1435.00,0.0218
1434.00,0.0198
1433.00,0.0180
1432.00,0.0164
1431.00,0.0150
1430.00,0.0137
1429.00,0.0128
1428.00,0.0120
1427.00,0.0114
1426.00,0.0110
1425.00,0.0106
1424.00,0.0103
1423.00,0.0101
1422.00,0.0099
1421.00,0.0098
1420.00,0.0096
1419.00,0.0095
1418.00,0.0094
1417.00,0.0093
1416.00,0.0092
1415.00,0.0091
1414.00,0.0090
1413.00,0.0089
1412.00,0.0088
1411.00,0.0088
1410.00,0.0087
1409.00,0.0086
1408.00,0.0086
1407.00,0.0085
1406.00,0.0085
1405.00,0.0085
1404.00,0.0085
1403.00,0.0085
1402.00,0.0085
1401.00,0.0085
1400.00,0.0086
1399.00,0.0087
1398.00,0.0088
1397.00,0.0090
1396.00,0.0091
1395.00,0.0094
1394.00,0.0097
1393.00,0.0101
1392.00,0.0105
1391.00,0.0110
1390.00,0.0115
1389.00,0.0121
1388.00,0.0128
1387.00,0.0135
1386.00,0.0142
1385.00,0.0148
1384.00,0.0154
1383.00,0.0159
1382.00,0.0164
1381.00,0.0170
1380.00,0.0174
1379.00,0.0179
1378.00,0.0184
1377.00,0.0189
1376.00,0.0194
1375.00,0.0198
1374.00,0.0201
1373.00,0.0203
1372.00,0.0204
1371.00,0.0204
1370.00,0.0203
1369.00,0.0202
1368.00,0.0201
1367.00,0.0199
1366.00,0.0198
1365.00,0.0196
1364.00,0.0195
1363.00,0.0193
1362.00,0.0190
1361.00,0.0188
1360.00,0.0185
1359.00,0.0182
1358.00,0.0179
1357.00,0.0177
1356.00,0.0174
1355.00,0.0173
1354.00,0.0172
1353.00,0.0171
1352.00,0.0171
1351.00,0.0171
1350.00,0.0170
1349.00,0.0169
1348.00,0.0168
1347.00,0.0166
1346.00,0.0164
1345.00,0.0162
1344.00,0.0159
1343.00,0.0156
1342.00,0.0153
1341.00,0.0150
1340.00,0.0147
1339.00,0.0146
1338.00,0.0146
1337.00,0.0147
1336.00,0.0148
1335.00,0.0151
1334.00,0.0155
1333.00,0.0158
1332.00,0.0162
1331.00,0.0166
1330.00,0.0170
1329.00,0.0172
1328.00,0.0173
1327.00,0.0172
1326.00,0.0171
1325.00,0.0168
1324.00,0.0166
1323.00,0.0163
1322.00,0.0162
1321.00,0.0161
1320.00,0.0161
1319.00,0.0162
1318.00,0.0163
1317.00,0.0164
1316.00,0.0166
1315.00,0.0168
1314.00,0.0170
1313.00,0.0171
1312.00,0.0172
1311.00,0.0171
1310.00,0.0169
1309.00,0.0168
1308.00,0.0165
1307.00,0.0163
1306.00,0.0160
1305.00,0.0157
1304.00,0.0155
1303.00,0.0152
1302.00,0.0149
1301.00,0.0147
1300.00,0.0145
1299.00,0.0143
1298.00,0.0142
1297.00,0.0142
1296.00,0.0141
1295.00,0.0141
1294.00,0.0140
1293.00,0.0140
1292.00,0.0139
1291.00,0.0138
1290.00,0.0136
1289.00,0.0135
1288.00,0.0134
1287.00,0.0133
1286.00,0.0133
1285.00,0.0132
1284.00,0.0132
1283.00,0.0132
1282.00,0.0131
1281.00,0.0131
1280.00,0.0131
1279.00,0.0130
1278.00,0.0128
1277.00,0.0127
1276.00,0.0125
1275.00,0.0122
1274.00,0.0120
1273.00,0.0118
1272.00,0.0117
1271.00,0.0115
1270.00,0.0114
1269.00,0.0112
1268.00,0.0111
1267.00,0.0110
1266.00,0.0109
1265.00,0.0109
1264.00,0.0108
1263.00,0.0107
1262.00,0.0106
1261.00,0.0106
1260.00,0.0105
1259.00,0.0105
1258.00,0.0105
1257.00,0.0105
1256.00,0.0105
1255.00,0.0106
1254.00,0.0107
1253.00,0.0107
1252.00,0.0108
1251.00,0.0108
1250.00,0.0109
1249.00,0.0109
1248.00,0.0110
1247.00,0.0110
1246.00,0.0110
1245.00,0.0110
1244.00,0.0110
1243.00,0.0110
1242.00,0.0110
1241.00,0.0109
1240.00,0.0108
1239.00,0.0108
1238.00,0.0107
1237.00,0.0106
1236.00,0.0105
1235.00,0.0105
1234.00,0.0104
1233.00,0.0104
1232.00,0.0104
1231.00,0.0104
1230.00,0.0104
1229.00,0.0104
1228.00,0.0104
1227.00,0.0104
1226.00,0.0103
1225.00,0.0103
1224.00,0.0103
1223.00,0.0102
1222.00,0.0102
1221.00,0.0101
1220.00,0.0101
1219.00,0.0100
1218.00,0.0100
1217.00,0.0100
1216.00,0.0101
1215.00,0.0101
1214.00,0.0102
1213.00,0.0103
1212.00,0.0104
1211.00,0.0106
1210.00,0.0108
1209.00,0.0110
1208.00,0.0113
1207.00,0.0115
1206.00,0.0119
1205.00,0.0122
1204.00,0.0126
1203.00,0.0130
1202.00,0.0133
1201.00,0.0137
1200.00,0.0140
1199.00,0.0143
1198.00,0.0146
1197.00,0.0148
1196.00,0.0149
1195.00,0.0150
1194.00,0.0151
1193.00,0.0151
1192.00,0.0152
1191.00,0.0153
1190.00,0.0154
1189.00,0.0157
1188.00,0.0161
1187.00,0.0167
1186.00,0.0174
1185.00,0.0183
1184.00,0.0193
1183.00,0.0202
1182.00,0.0209
1181.00,0.0212
1180.00,0.0210
1179.00,0.0203
1178.00,0.0192
1177.00,0.0180
1176.00,0.0168
1175.00,0.0158
1174.00,0.0151
1173.00,0.0146
1172.00,0.0142
1171.00,0.0139
1170.00,0.0137
1169.00,0.0135
1168.00,0.0134
1167.00,0.0133
1166.00,0.0133
1165.00,0.0133
1164.00,0.0135
1163.00,0.0137
1162.00,0.0142
1161.00,0.0148
1160.00,0.0157
1159.00,0.0168
1158.00,0.0181
1157.00,0.0195
1156.00,0.0206
1155.00,0.0213
1154.00,0.0213
1153.00,0.0207
1152.00,0.0195
1151.00,0.0180
1150.00,0.0165
1149.00,0.0151
1148.00,0.0140
1147.00,0.0131
1146.00,0.0124
1145.00,0.0119
1144.00,0.0114
1143.00,0.0110
1142.00,0.0106
1141.00,0.0103
1140.00,0.0100
1139.00,0.0098
1138.00,0.0096
1137.00,0.0095
1136.00,0.0093
1135.00,0.0093
1134.00,0.0093
1133.00,0.0093
1132.00,0.0093
1131.00,0.0094
1130.00,0.0094
1129.00,0.0095
1128.00,0.0096
1127.00,0.0097
1126.00,0.0098
1125.00,0.0100
1124.00,0.0102
1123.00,0.0104
1122.00,0.0106
1121.00,0.0108
1120.00,0.0112
1119.00,0.0115
1118.00,0.0119
1117.00,0.0123
1116.00,0.0127
1115.00,0.0130
1114.00,0.0133
1113.00,0.0135
1112.00,0.0136
1111.00,0.0137
1110.00,0.0137
1109.00,0.0137
1108.00,0.0136
1107.00,0.0136
1106.00,0.0135
1105.00,0.0134
1104.00,0.0134
1103.00,0.0133
1102.00,0.0133
1101.00,0.0133
1100.00,0.0133
1099.00,0.0133
1098.00,0.0134
1097.00,0.0135
1096.00,0.0136
1095.00,0.0137
1094.00,0.0137
1093.00,0.0138
1092.00,0.0139
1091.00,0.0140
1090.00,0.0141
1089.00,0.0143
1088.00,0.0145
1087.00,0.0148
1086.00,0.0151
1085.00,0.0155
1084.00,0.0160
1083.00,0.0165
1082.00,0.0171
1081.00,0.0177
1080.00,0.0183
1079.00,0.0188
1078.00,0.0194
1077.00,0.0201
1076.00,0.0210
1075.00,0.0219
1074.00,0.0230
1073.00,0.0242
1072.00,0.0252
1071.00,0.0260
1070.00,0.0265
1069.00,0.0267
1068.00,0.0266
1067.00,0.0262
1066.00,0.0256
1065.00,0.0246
1064.00,0.0236
1063.00,0.0225
1062.00,0.0214
1061.00,0.0204
1060.00,0.0195
1059.00,0.0186
1058.00,0.0179
1057.00,0.0172
1056.00,0.0166
1055.00,0.0161
1054.00,0.0156
1053.00,0.0151
1052.00,0.0146
1051.00,0.0142
1050.00,0.0138
1049.00,0.0135
1048.00,0.0132
1047.00,0.0130
1046.00,0.0127
1045.00,0.0125
1044.00,0.0124
1043.00,0.0123
1042.00,0.0124
1041.00,0.0125
1040.00,0.0129
1039.00,0.0135
1038.00,0.0146
1037.00,0.0162
1036.00,0.0186
1035.00,0.0217
1034.00,0.0256
1033.00,0.0301
1032.00,0.0348
1031.00,0.0392
1030.00,0.0428
1029.00,0.0453
1028.00,0.0463
1027.00,0.0457
1026.00,0.0436
1025.00,0.0405
1024.00,0.0372
1023.00,0.0340
1022.00,0.0313
1021.00,0.0290
1020.00,0.0270
1019.00,0.0253
1018.00,0.0239
1017.00,0.0226
1016.00,0.0215
1015.00,0.0205
1014.00,0.0197
1013.00,0.0190
1012.00,0.0184
1011.00,0.0178
1010.00,0.0174
1009.00,0.0171
1008.00,0.0170
1007.00,0.0172
1006.00,0.0176
1005.00,0.0181
1004.00,0.0186
1003.00,0.0186
1002.00,0.0181
1001.00,0.0172
1000.00,0.0160
999.00,0.0148
998.00,0.0139
997.00,0.0133
996.00,0.0129
995.00,0.0127
994.00,0.0125
993.00,0.0125
992.00,0.0125
991.00,0.0126
990.00,0.0128
989.00,0.0130
988.00,0.0133
987.00,0.0137
986.00,0.0141
985.00,0.0146
984.00,0.0150
983.00,0.0154
982.00,0.0156
981.00,0.0158
980.00,0.0158
979.00,0.0158
978.00,0.0155
977.00,0.0152
976.00,0.0147
975.00,0.0144
974.00,0.0141
973.00,0.0140
972.00,0.0141
971.00,0.0144
970.00,0.0148
969.00,0.0154
968.00,0.0161
967.00,0.0167
966.00,0.0172
965.00,0.0175
964.00,0.0176
963.00,0.0174
962.00,0.0169
961.00,0.0162
960.00,0.0154
959.00,0.0146
958.00,0.0139
957.00,0.0133
956.00,0.0128
955.00,0.0125
954.00,0.0122
953.00,0.0121
952.00,0.0121
951.00,0.0122
950.00,0.0123
949.00,0.0125
948.00,0.0127
947.00,0.0130
946.00,0.0133
945.00,0.0136
944.00,0.0138
943.00,0.0139
942.00,0.0139
941.00,0.0137
940.00,0.0135
939.00,0.0131
938.00,0.0126
937.00,0.0121
936.00,0.0116
935.00,0.0111
934.00,0.0106
933.00,0.0101
932.00,0.0097
931.00,0.0094
930.00,0.0092
929.00,0.0091
928.00,0.0091
927.00,0.0091
926.00,0.0092
925.00,0.0094
924.00,0.0095
923.00,0.0098
922.00,0.0101
921.00,0.0105
920.00,0.0110
919.00,0.0115
918.00,0.0122
917.00,0.0131
916.00,0.0143
915.00,0.0158
914.00,0.0175
913.00,0.0194
912.00,0.0215
911.00,0.0237
910.00,0.0258
909.00,0.0276
908.00,0.0291
907.00,0.0299
906.00,0.0300
905.00,0.0293
904.00,0.0281
903.00,0.0262
902.00,0.0240
901.00,0.0215
900.00,0.0191
899.00,0.0168
898.00,0.0149
897.00,0.0133
896.00,0.0121
895.00,0.0111
894.00,0.0104
893.00,0.0098
892.00,0.0094
891.00,0.0090
890.00,0.0086
889.00,0.0083
888.00,0.0081
887.00,0.0078
886.00,0.0076
885.00,0.0074
884.00,0.0072
883.00,0.0071
882.00,0.0070
881.00,0.0069
880.00,0.0068
879.00,0.0068
878.00,0.0067
877.00,0.0067
876.00,0.0066
875.00,0.0066
874.00,0.0065
873.00,0.0064
872.00,0.0064
871.00,0.0063
870.00,0.0062
869.00,0.0062
868.00,0.0062
867.00,0.0062
866.00,0.0062
865.00,0.0061
864.00,0.0060
863.00,0.0060
862.00,0.0060
861.00,0.0059
860.00,0.0060
859.00,0.0060
858.00,0.0061
857.00,0.0062
856.00,0.0064
855.00,0.0066
854.00,0.0068
853.00,0.0072
852.00,0.0076
851.00,0.0081
850.00,0.0088
849.00,0.0096
848.00,0.0105
847.00,0.0115
846.00,0.0123
845.00,0.0131
844.00,0.0138
843.00,0.0143
842.00,0.0145
841.00,0.0145
840.00,0.0142
839.00,0.0136
838.00,0.0128
837.00,0.0119
836.00,0.0109
835.00,0.0098
834.00,0.0089
833.00,0.0080
832.00,0.0074
831.00,0.0069
830.00,0.0066
829.00,0.0064
828.00,0.0062
827.00,0.0061
826.00,0.0060
825.00,0.0060
824.00,0.0060
823.00,0.0061
822.00,0.0061
821.00,0.0060
820.00,0.0060
819.00,0.0060
818.00,0.0060
817.00,0.0061
816.00,0.0062
815.00,0.0063
814.00,0.0063
813.00,0.0063
812.00,0.0063
811.00,0.0063
810.00,0.0064
809.00,0.0064
808.00,0.0065
807.00,0.0065
806.00,0.0066
805.00,0.0067
804.00,0.0068
803.00,0.0070
802.00,0.0072
801.00,0.0074
800.00,0.0076
799.00,0.0079
798.00,0.0082
797.00,0.0086
796.00,0.0091
795.00,0.0096
794.00,0.0102
793.00,0.0108
792.00,0.0115
791.00,0.0123
790.00,0.0132
789.00,0.0141
788.00,0.0150
787.00,0.0161
786.00,0.0171
785.00,0.0183
784.00,0.0196
783.00,0.0209
782.00,0.0224
781.00,0.0241
780.00,0.0261
779.00,0.0285
778.00,0.0312
777.00,0.0343
776.00,0.0378
775.00,0.0416
774.00,0.0457
773.00,0.0501
772.00,0.0550
771.00,0.0602
770.00,0.0656
769.00,0.0712
768.00,0.0769
767.00,0.0824
766.00,0.0879
765.00,0.0933
764.00,0.0987
763.00,0.1042
762.00,0.1098
761.00,0.1155
760.00,0.1212
759.00,0.1264
758.00,0.1310
757.00,0.1345
756.00,0.1369
755.00,0.1380
754.00,0.1382
753.00,0.1377
752.00,0.1372
751.00,0.1368
750.00,0.1367
749.00,0.1366
748.00,0.1359
747.00,0.1339
746.00,0.1300
745.00,0.1239
744.00,0.1158
743.00,0.1064
742.00,0.0966
741.00,0.0870
740.00,0.0781
739.00,0.0699
738.00,0.0625
737.00,0.0555
736.00,0.0491
735.00,0.0430
734.00,0.0373
733.00,0.0321
732.00,0.0276
731.00,0.0239
730.00,0.0209
729.00,0.0185
728.00,0.0168
727.00,0.0156
726.00,0.0147
725.00,0.0140
724.00,0.0134
723.00,0.0130
722.00,0.0126
721.00,0.0124
720.00,0.0123
719.00,0.0124
718.00,0.0127
717.00,0.0131
716.00,0.0140
715.00,0.0153
714.00,0.0173
713.00,0.0202
712.00,0.0243
711.00,0.0300
710.00,0.0378
709.00,0.0481
708.00,0.0613
707.00,0.0777
706.00,0.0974
705.00,0.1206
704.00,0.1474
703.00,0.1778
702.00,0.2119
701.00,0.2498
700.00,0.2913
699.00,0.3359
698.00,0.3828
697.00,0.4284
696.00,0.4652
695.00,0.4825
694.00,0.4720
693.00,0.4344
692.00,0.3802
691.00,0.3227
690.00,0.2710
689.00,0.2283
688.00,0.1945
687.00,0.1682
686.00,0.1478
685.00,0.1318
684.00,0.1190
683.00,0.1085
682.00,0.0998
681.00,0.0924
680.00,0.0862
679.00,0.0808
678.00,0.0762
677.00,0.0722
676.00,0.0688
675.00,0.0658
674.00,0.0631
673.00,0.0607
672.00,0.0586
671.00,0.0566
670.00,0.0547
669.00,0.0527
668.00,0.0505
667.00,0.0485
666.00,0.0469
665.00,0.0454
664.00,0.0439
663.00,0.0422
662.00,0.0404
661.00,0.0387
660.00,0.0370
659.00,0.0354
658.00,0.0340
657.00,0.0326
656.00,0.0314
655.00,0.0303
654.00,0.0293
653.00,0.0283
652.00,0.0274
651.00,0.0266
650.00,0.0259
649.00,0.0252
648.00,0.0245
647.00,0.0240
646.00,0.0235
645.00,0.0231
644.00,0.0227
643.00,0.0224
642.00,0.0222
641.00,0.0221
640.00,0.0221
639.00,0.0223
638.00,0.0226
637.00,0.0232
636.00,0.0237
635.00,0.0242
634.00,0.0248
633.00,0.0253
632.00,0.0257
631.00,0.0263
630.00,0.0268
629.00,0.0272
628.00,0.0276
627.00,0.0278
626.00,0.0280
625.00,0.0283
624.00,0.0287
623.00,0.0292
622.00,0.0298
621.00,0.0300
620.00,0.0298
619.00,0.0291
618.00,0.0282
617.00,0.0273
616.00,0.0265
615.00,0.0260
614.00,0.0255
613.00,0.0251
612.00,0.0248
611.00,0.0245
610.00,0.0241
609.00,0.0238
608.00,0.0235
607.00,0.0232
606.00,0.0231
605.00,0.0230
604.00,0.0230
603.00,0.0231
602.00,0.0233
601.00,0.0235
600.00,0.0237
599.00,0.0239
598.00,0.0241
597.00,0.0244
596.00,0.0246
595.00,0.0249
594.00,0.0252
593.00,0.0256
592.00,0.0259
591.00,0.0262
590.00,0.0265
589.00,0.0268
588.00,0.0272
587.00,0.0278
586.00,0.0283
585.00,0.0289
584.00,0.0295
583.00,0.0302
582.00,0.0311
581.00,0.0321
580.00,0.0332
579.00,0.0345
578.00,0.0359
577.00,0.0375
576.00,0.0391
575.00,0.0408
574.00,0.0426
573.00,0.0444
572.00,0.0463
571.00,0.0483
570.00,0.0502
569.00,0.0521
568.00,0.0539
567.00,0.0557
566.00,0.0574
565.00,0.0592
564.00,0.0610
563.00,0.0628
562.00,0.0644
561.00,0.0661
560.00,0.0679
559.00,0.0697
558.00,0.0716
557.00,0.0735
556.00,0.0755
555.00,0.0776
554.00,0.0796
553.00,0.0818
552.00,0.0842
551.00,0.0869
550.00,0.0898
549.00,0.0931
548.00,0.0967
547.00,0.1007
546.00,0.1049
545.00,0.1095
544.00,0.1143
543.00,0.1192
542.00,0.1237
541.00,0.1279
540.00,0.1313
539.00,0.1336
538.00,0.1345
537.00,0.1337
536.00,0.1313
535.00,0.1272
534.00,0.1216
533.00,0.1152
532.00,0.1084
531.00,0.1016
530.00,0.0948
529.00,0.0885
528.00,0.0825
527.00,0.0767
526.00,0.0712
525.00,0.0664
524.00,0.0624
523.00,0.0590
522.00,0.0561
521.00,0.0535
520.00,0.0512
519.00,0.0491
518.00,0.0473
517.00,0.0456
516.00,0.0441
515.00,0.0427
514.00,0.0414
513.00,0.0402
512.00,0.0391
511.00,0.0378
510.00,0.0364
509.00,0.0351
508.00,0.0339
507.00,0.0329
506.00,0.0320
505.00,0.0311
504.00,0.0303
503.00,0.0296
502.00,0.0289
501.00,0.0282
500.00,0.0275
499.00,0.0268
498.00,0.0260
497.00,0.0255
496.00,0.0251
495.00,0.0247
494.00,0.0242
493.00,0.0235
492.00,0.0230
491.00,0.0226
490.00,0.0222
489.00,0.0218
488.00,0.0215
487.00,0.0213
486.00,0.0211
485.00,0.0211
484.00,0.0210
483.00,0.0209
482.00,0.0208
481.00,0.0206
480.00,0.0204
479.00,0.0202
478.00,0.0200
477.00,0.0197
476.00,0.0195
475.00,0.0195
474.00,0.0196
473.00,0.0196
472.00,0.0196
471.00,0.0194
470.00,0.0190
469.00,0.0186
468.00,0.0184
467.00,0.0183
466.00,0.0183
465.00,0.0182
464.00,0.0181
463.00,0.0179
462.00,0.0176
461.00,0.0173
460.00,0.0172
459.00,0.0174
458.00,0.0175
457.00,0.0175
456.00,0.0172
455.00,0.0168
454.00,0.0166
453.00,0.0166
452.00,0.0167
451.00,0.0168
450.00,0.0166
449.00,0.0164
448.00,0.0162
447.00,0.0159
446.00,0.0158
445.00,0.0158
444.00,0.0158
443.00,0.0158
442.00,0.0156
441.00,0.0155
440.00,0.0155
439.00,0.0156
438.00,0.0158
437.00,0.0159
436.00,0.0159
435.00,0.0158
434.00,0.0156
433.00,0.0154
432.00,0.0153
431.00,0.0150
430.00,0.0147
429.00,0.0143
428.00,0.0142
427.00,0.0143
426.00,0.0145
425.00,0.0146
424.00,0.0147
423.00,0.0145
422.00,0.0141
421.00,0.0136
420.00,0.0133
419.00,0.0132
418.00,0.0133
417.00,0.0134
416.00,0.0134
415.00,0.0135
414.00,0.0138
413.00,0.0142
412.00,0.0146
411.00,0.0147
410.00,0.0146
409.00,0.0148
408.00,0.0152
407.00,0.0156
406.00,0.0161
405.00,0.0165
404.00,0.0168
403.00,0.0166
402.00,0.0157
401.00,0.0146
400.00,0.0136
