Created as New Dataset,Sample 594 By YargerLab Date Thursday, June 05 2025
cm-1,A
4000.00,0.0096
3999.00,0.0096
3998.00,0.0096
3997.00,0.0096
3996.00,0.0095
3995.00,0.0096
3994.00,0.0095
3993.00,0.0095
3992.00,0.0095
3991.00,0.0095
3990.00,0.0095
3989.00,0.0096
3988.00,0.0096
3987.00,0.0096
3986.00,0.0096
3985.00,0.0096
3984.00,0.0096
3983.00,0.0096
3982.00,0.0095
3981.00,0.0095
3980.00,0.0095
3979.00,0.0095
3978.00,0.0095
3977.00,0.0095
3976.00,0.0095
3975.00,0.0095
3974.00,0.0096
3973.00,0.0096
3972.00,0.0096
3971.00,0.0096
3970.00,0.0096
3969.00,0.0096
3968.00,0.0096
3967.00,0.0096
3966.00,0.0095
3965.00,0.0095
3964.00,0.0095
3963.00,0.0095
3962.00,0.0095
3961.00,0.0095
3960.00,0.0095
3959.00,0.0095
3958.00,0.0095
3957.00,0.0095
3956.00,0.0095
3955.00,0.0095
3954.00,0.0095
3953.00,0.0095
3952.00,0.0095
3951.00,0.0095
3950.00,0.0095
3949.00,0.0095
3948.00,0.0095
3947.00,0.0095
3946.00,0.0095
3945.00,0.0095
3944.00,0.0095
3943.00,0.0095
3942.00,0.0095
3941.00,0.0095
3940.00,0.0095
3939.00,0.0095
3938.00,0.0095
3937.00,0.0095
3936.00,0.0095
3935.00,0.0095
3934.00,0.0095
3933.00,0.0095
3932.00,0.0095
3931.00,0.0095
3930.00,0.0094
3929.00,0.0094
3928.00,0.0094
3927.00,0.0094
3926.00,0.0094
3925.00,0.0094
3924.00,0.0094
3923.00,0.0094
3922.00,0.0094
3921.00,0.0094
3920.00,0.0094
3919.00,0.0094
3918.00,0.0094
3917.00,0.0094
3916.00,0.0094
3915.00,0.0094
3914.00,0.0094
3913.00,0.0094
3912.00,0.0094
3911.00,0.0094
3910.00,0.0094
3909.00,0.0094
3908.00,0.0094
3907.00,0.0094
3906.00,0.0094
3905.00,0.0094
3904.00,0.0094
3903.00,0.0094
3902.00,0.0093
3901.00,0.0093
3900.00,0.0094
3899.00,0.0094
3898.00,0.0094
3897.00,0.0094
3896.00,0.0094
3895.00,0.0093
3894.00,0.0093
3893.00,0.0093
3892.00,0.0093
3891.00,0.0092
3890.00,0.0092
3889.00,0.0092
3888.00,0.0092
3887.00,0.0093
3886.00,0.0093
3885.00,0.0093
3884.00,0.0093
3883.00,0.0092
3882.00,0.0092
3881.00,0.0092
3880.00,0.0092
3879.00,0.0092
3878.00,0.0092
3877.00,0.0092
3876.00,0.0092
3875.00,0.0092
3874.00,0.0091
3873.00,0.0091
3872.00,0.0091
3871.00,0.0091
3870.00,0.0091
3869.00,0.0091
3868.00,0.0091
3867.00,0.0091
3866.00,0.0091
3865.00,0.0091
3864.00,0.0092
3863.00,0.0092
3862.00,0.0092
3861.00,0.0092
3860.00,0.0091
3859.00,0.0091
3858.00,0.0091
3857.00,0.0091
3856.00,0.0090
3855.00,0.0090
3854.00,0.0089
3853.00,0.0089
3852.00,0.0089
3851.00,0.0089
3850.00,0.0090
3849.00,0.0090
3848.00,0.0090
3847.00,0.0090
3846.00,0.0090
3845.00,0.0090
3844.00,0.0090
3843.00,0.0090
3842.00,0.0090
3841.00,0.0090
3840.00,0.0089
3839.00,0.0089
3838.00,0.0089
3837.00,0.0089
3836.00,0.0089
3835.00,0.0089
3834.00,0.0089
3833.00,0.0090
3832.00,0.0090
3831.00,0.0090
3830.00,0.0090
3829.00,0.0090
3828.00,0.0090
3827.00,0.0090
3826.00,0.0090
3825.00,0.0089
3824.00,0.0089
3823.00,0.0089
3822.00,0.0089
3821.00,0.0089
3820.00,0.0089
3819.00,0.0088
3818.00,0.0088
3817.00,0.0088
3816.00,0.0088
3815.00,0.0089
3814.00,0.0089
3813.00,0.0089
3812.00,0.0089
3811.00,0.0089
3810.00,0.0089
3809.00,0.0089
3808.00,0.0089
3807.00,0.0088
3806.00,0.0088
3805.00,0.0088
3804.00,0.0088
3803.00,0.0088
3802.00,0.0088
3801.00,0.0088
3800.00,0.0088
3799.00,0.0088
3798.00,0.0088
3797.00,0.0088
3796.00,0.0089
3795.00,0.0089
3794.00,0.0089
3793.00,0.0089
3792.00,0.0089
3791.00,0.0089
3790.00,0.0089
3789.00,0.0089
3788.00,0.0089
3787.00,0.0089
3786.00,0.0089
3785.00,0.0089
3784.00,0.0089
3783.00,0.0088
3782.00,0.0088
3781.00,0.0088
3780.00,0.0088
3779.00,0.0088
3778.00,0.0088
3777.00,0.0088
3776.00,0.0088
3775.00,0.0088
3774.00,0.0088
3773.00,0.0089
3772.00,0.0089
3771.00,0.0089
3770.00,0.0089
3769.00,0.0088
3768.00,0.0088
3767.00,0.0088
3766.00,0.0088
3765.00,0.0088
3764.00,0.0088
3763.00,0.0088
3762.00,0.0088
3761.00,0.0088
3760.00,0.0088
3759.00,0.0088
3758.00,0.0088
3757.00,0.0088
3756.00,0.0088
3755.00,0.0088
3754.00,0.0088
3753.00,0.0087
3752.00,0.0087
3751.00,0.0087
3750.00,0.0086
3749.00,0.0086
3748.00,0.0085
3747.00,0.0085
3746.00,0.0085
3745.00,0.0086
3744.00,0.0086
3743.00,0.0086
3742.00,0.0086
3741.00,0.0086
3740.00,0.0085
3739.00,0.0085
3738.00,0.0085
3737.00,0.0085
3736.00,0.0085
3735.00,0.0085
3734.00,0.0085
3733.00,0.0085
3732.00,0.0085
3731.00,0.0085
3730.00,0.0085
3729.00,0.0086
3728.00,0.0086
3727.00,0.0086
3726.00,0.0086
3725.00,0.0086
3724.00,0.0086
3723.00,0.0086
3722.00,0.0086
3721.00,0.0086
3720.00,0.0086
3719.00,0.0086
3718.00,0.0086
3717.00,0.0086
3716.00,0.0086
3715.00,0.0085
3714.00,0.0085
3713.00,0.0085
3712.00,0.0085
3711.00,0.0085
3710.00,0.0085
3709.00,0.0085
3708.00,0.0085
3707.00,0.0085
3706.00,0.0085
3705.00,0.0085
3704.00,0.0085
3703.00,0.0086
3702.00,0.0086
3701.00,0.0086
3700.00,0.0086
3699.00,0.0086
3698.00,0.0086
3697.00,0.0086
3696.00,0.0085
3695.00,0.0085
3694.00,0.0085
3693.00,0.0085
3692.00,0.0085
3691.00,0.0084
3690.00,0.0084
3689.00,0.0085
3688.00,0.0085
3687.00,0.0086
3686.00,0.0086
3685.00,0.0086
3684.00,0.0086
3683.00,0.0086
3682.00,0.0086
3681.00,0.0087
3680.00,0.0087
3679.00,0.0086
3678.00,0.0086
3677.00,0.0086
3676.00,0.0087
3675.00,0.0087
3674.00,0.0087
3673.00,0.0087
3672.00,0.0087
3671.00,0.0088
3670.00,0.0089
3669.00,0.0090
3668.00,0.0090
3667.00,0.0090
3666.00,0.0091
3665.00,0.0091
3664.00,0.0091
3663.00,0.0091
3662.00,0.0092
3661.00,0.0092
3660.00,0.0092
3659.00,0.0093
3658.00,0.0093
3657.00,0.0093
3656.00,0.0094
3655.00,0.0094
3654.00,0.0094
3653.00,0.0094
3652.00,0.0094
3651.00,0.0094
3650.00,0.0094
3649.00,0.0095
3648.00,0.0096
3647.00,0.0097
3646.00,0.0097
3645.00,0.0098
3644.00,0.0098
3643.00,0.0099
3642.00,0.0100
3641.00,0.0100
3640.00,0.0101
3639.00,0.0102
3638.00,0.0102
3637.00,0.0103
3636.00,0.0103
3635.00,0.0104
3634.00,0.0105
3633.00,0.0105
3632.00,0.0105
3631.00,0.0106
3630.00,0.0106
3629.00,0.0107
3628.00,0.0108
3627.00,0.0108
3626.00,0.0109
3625.00,0.0110
3624.00,0.0111
3623.00,0.0111
3622.00,0.0112
3621.00,0.0112
3620.00,0.0113
3619.00,0.0114
3618.00,0.0114
3617.00,0.0115
3616.00,0.0115
3615.00,0.0116
3614.00,0.0117
3613.00,0.0117
3612.00,0.0118
3611.00,0.0119
3610.00,0.0120
3609.00,0.0121
3608.00,0.0122
3607.00,0.0123
3606.00,0.0123
3605.00,0.0124
3604.00,0.0124
3603.00,0.0125
3602.00,0.0126
3601.00,0.0126
3600.00,0.0127
3599.00,0.0128
3598.00,0.0129
3597.00,0.0130
3596.00,0.0130
3595.00,0.0131
3594.00,0.0132
3593.00,0.0133
3592.00,0.0134
3591.00,0.0134
3590.00,0.0135
3589.00,0.0136
3588.00,0.0137
3587.00,0.0137
3586.00,0.0138
3585.00,0.0139
3584.00,0.0140
3583.00,0.0141
3582.00,0.0142
3581.00,0.0143
3580.00,0.0144
3579.00,0.0145
3578.00,0.0146
3577.00,0.0147
3576.00,0.0147
3575.00,0.0149
3574.00,0.0150
3573.00,0.0151
3572.00,0.0152
3571.00,0.0152
3570.00,0.0153
3569.00,0.0154
3568.00,0.0155
3567.00,0.0156
3566.00,0.0157
3565.00,0.0159
3564.00,0.0160
3563.00,0.0161
3562.00,0.0162
3561.00,0.0163
3560.00,0.0164
3559.00,0.0165
3558.00,0.0166
3557.00,0.0167
3556.00,0.0168
3555.00,0.0169
3554.00,0.0170
3553.00,0.0171
3552.00,0.0172
3551.00,0.0173
3550.00,0.0174
3549.00,0.0175
3548.00,0.0176
3547.00,0.0177
3546.00,0.0178
3545.00,0.0180
3544.00,0.0181
3543.00,0.0182
3542.00,0.0182
3541.00,0.0183
3540.00,0.0184
3539.00,0.0185
3538.00,0.0186
3537.00,0.0187
3536.00,0.0188
3535.00,0.0189
3534.00,0.0190
3533.00,0.0191
3532.00,0.0192
3531.00,0.0193
3530.00,0.0194
3529.00,0.0195
3528.00,0.0197
3527.00,0.0198
3526.00,0.0199
3525.00,0.0200
3524.00,0.0201
3523.00,0.0202
3522.00,0.0203
3521.00,0.0204
3520.00,0.0205
3519.00,0.0206
3518.00,0.0207
3517.00,0.0208
3516.00,0.0209
3515.00,0.0210
3514.00,0.0211
3513.00,0.0212
3512.00,0.0213
3511.00,0.0214
3510.00,0.0215
3509.00,0.0216
3508.00,0.0218
3507.00,0.0219
3506.00,0.0220
3505.00,0.0221
3504.00,0.0222
3503.00,0.0223
3502.00,0.0225
3501.00,0.0226
3500.00,0.0228
3499.00,0.0229
3498.00,0.0230
3497.00,0.0231
3496.00,0.0232
3495.00,0.0233
3494.00,0.0234
3493.00,0.0236
3492.00,0.0237
3491.00,0.0238
3490.00,0.0239
3489.00,0.0240
3488.00,0.0242
3487.00,0.0243
3486.00,0.0245
3485.00,0.0246
3484.00,0.0247
3483.00,0.0248
3482.00,0.0250
3481.00,0.0251
3480.00,0.0252
3479.00,0.0253
3478.00,0.0255
3477.00,0.0256
3476.00,0.0257
3475.00,0.0258
3474.00,0.0260
3473.00,0.0261
3472.00,0.0263
3471.00,0.0265
3470.00,0.0267
3469.00,0.0268
3468.00,0.0270
3467.00,0.0272
3466.00,0.0274
3465.00,0.0275
3464.00,0.0277
3463.00,0.0279
3462.00,0.0282
3461.00,0.0285
3460.00,0.0288
3459.00,0.0291
3458.00,0.0294
3457.00,0.0298
3456.00,0.0301
3455.00,0.0305
3454.00,0.0309
3453.00,0.0313
3452.00,0.0317
3451.00,0.0319
3450.00,0.0322
3449.00,0.0324
3448.00,0.0325
3447.00,0.0326
3446.00,0.0326
3445.00,0.0325
3444.00,0.0325
3443.00,0.0324
3442.00,0.0323
3441.00,0.0322
3440.00,0.0322
3439.00,0.0321
3438.00,0.0320
3437.00,0.0320
3436.00,0.0319
3435.00,0.0319
3434.00,0.0319
3433.00,0.0319
3432.00,0.0320
3431.00,0.0321
3430.00,0.0322
3429.00,0.0323
3428.00,0.0324
3427.00,0.0325
3426.00,0.0326
3425.00,0.0327
3424.00,0.0328
3423.00,0.0329
3422.00,0.0331
3421.00,0.0332
3420.00,0.0333
3419.00,0.0335
3418.00,0.0336
3417.00,0.0338
3416.00,0.0339
3415.00,0.0341
3414.00,0.0342
3413.00,0.0344
3412.00,0.0345
3411.00,0.0347
3410.00,0.0348
3409.00,0.0350
3408.00,0.0352
3407.00,0.0353
3406.00,0.0355
3405.00,0.0356
3404.00,0.0358
3403.00,0.0360
3402.00,0.0361
3401.00,0.0363
3400.00,0.0365
3399.00,0.0367
3398.00,0.0369
3397.00,0.0370
3396.00,0.0372
3395.00,0.0373
3394.00,0.0374
3393.00,0.0376
3392.00,0.0378
3391.00,0.0380
3390.00,0.0382
3389.00,0.0384
3388.00,0.0386
3387.00,0.0388
3386.00,0.0390
3385.00,0.0392
3384.00,0.0394
3383.00,0.0396
3382.00,0.0398
3381.00,0.0400
3380.00,0.0403
3379.00,0.0405
3378.00,0.0407
3377.00,0.0409
3376.00,0.0411
3375.00,0.0413
3374.00,0.0415
3373.00,0.0418
3372.00,0.0420
3371.00,0.0423
3370.00,0.0425
3369.00,0.0427
3368.00,0.0430
3367.00,0.0433
3366.00,0.0435
3365.00,0.0438
3364.00,0.0441
3363.00,0.0444
3362.00,0.0447
3361.00,0.0450
3360.00,0.0452
3359.00,0.0455
3358.00,0.0458
3357.00,0.0460
3356.00,0.0463
3355.00,0.0465
3354.00,0.0468
3353.00,0.0470
3352.00,0.0473
3351.00,0.0476
3350.00,0.0479
3349.00,0.0482
3348.00,0.0486
3347.00,0.0489
3346.00,0.0491
3345.00,0.0494
3344.00,0.0497
3343.00,0.0499
3342.00,0.0502
3341.00,0.0504
3340.00,0.0507
3339.00,0.0510
3338.00,0.0513
3337.00,0.0516
3336.00,0.0519
3335.00,0.0522
3334.00,0.0525
3333.00,0.0528
3332.00,0.0531
3331.00,0.0534
3330.00,0.0536
3329.00,0.0539
3328.00,0.0542
3327.00,0.0544
3326.00,0.0547
3325.00,0.0551
3324.00,0.0554
3323.00,0.0557
3322.00,0.0560
3321.00,0.0563
3320.00,0.0566
3319.00,0.0568
3318.00,0.0571
3317.00,0.0573
3316.00,0.0576
3315.00,0.0578
3314.00,0.0581
3313.00,0.0583
3312.00,0.0585
3311.00,0.0587
3310.00,0.0588
3309.00,0.0590
3308.00,0.0591
3307.00,0.0593
3306.00,0.0596
3305.00,0.0599
3304.00,0.0602
3303.00,0.0605
3302.00,0.0608
3301.00,0.0610
3300.00,0.0611
3299.00,0.0612
3298.00,0.0613
3297.00,0.0614
3296.00,0.0615
3295.00,0.0616
3294.00,0.0616
3293.00,0.0618
3292.00,0.0619
3291.00,0.0621
3290.00,0.0622
3289.00,0.0623
3288.00,0.0623
3287.00,0.0623
3286.00,0.0624
3285.00,0.0623
3284.00,0.0623
3283.00,0.0623
3282.00,0.0623
3281.00,0.0622
3280.00,0.0621
3279.00,0.0620
3278.00,0.0618
3277.00,0.0616
3276.00,0.0615
3275.00,0.0612
3274.00,0.0610
3273.00,0.0608
3272.00,0.0605
3271.00,0.0603
3270.00,0.0602
3269.00,0.0600
3268.00,0.0599
3267.00,0.0597
3266.00,0.0594
3265.00,0.0591
3264.00,0.0589
3263.00,0.0586
3262.00,0.0583
3261.00,0.0580
3260.00,0.0577
3259.00,0.0573
3258.00,0.0569
3257.00,0.0566
3256.00,0.0563
3255.00,0.0560
3254.00,0.0557
3253.00,0.0554
3252.00,0.0551
3251.00,0.0548
3250.00,0.0545
3249.00,0.0542
3248.00,0.0538
3247.00,0.0535
3246.00,0.0532
3245.00,0.0530
3244.00,0.0527
3243.00,0.0525
3242.00,0.0522
3241.00,0.0519
3240.00,0.0517
3239.00,0.0514
3238.00,0.0512
3237.00,0.0509
3236.00,0.0507
3235.00,0.0505
3234.00,0.0503
3233.00,0.0501
3232.00,0.0500
3231.00,0.0499
3230.00,0.0497
3229.00,0.0496
3228.00,0.0494
3227.00,0.0492
3226.00,0.0490
3225.00,0.0489
3224.00,0.0488
3223.00,0.0486
3222.00,0.0485
3221.00,0.0484
3220.00,0.0483
3219.00,0.0482
3218.00,0.0481
3217.00,0.0480
3216.00,0.0478
3215.00,0.0477
3214.00,0.0477
3213.00,0.0476
3212.00,0.0475
3211.00,0.0474
3210.00,0.0472
3209.00,0.0471
3208.00,0.0470
3207.00,0.0469
3206.00,0.0468
3205.00,0.0467
3204.00,0.0466
3203.00,0.0464
3202.00,0.0463
3201.00,0.0462
3200.00,0.0460
3199.00,0.0459
3198.00,0.0458
3197.00,0.0456
3196.00,0.0454
3195.00,0.0453
3194.00,0.0451
3193.00,0.0450
3192.00,0.0448
3191.00,0.0447
3190.00,0.0445
3189.00,0.0444
3188.00,0.0442
3187.00,0.0441
3186.00,0.0439
3185.00,0.0437
3184.00,0.0436
3183.00,0.0434
3182.00,0.0432
3181.00,0.0430
3180.00,0.0428
3179.00,0.0425
3178.00,0.0423
3177.00,0.0421
3176.00,0.0419
3175.00,0.0417
3174.00,0.0416
3173.00,0.0414
3172.00,0.0412
3171.00,0.0411
3170.00,0.0408
3169.00,0.0406
3168.00,0.0404
3167.00,0.0402
3166.00,0.0401
3165.00,0.0399
3164.00,0.0397
3163.00,0.0396
3162.00,0.0394
3161.00,0.0392
3160.00,0.0390
3159.00,0.0388
3158.00,0.0387
3157.00,0.0385
3156.00,0.0383
3155.00,0.0381
3154.00,0.0379
3153.00,0.0377
3152.00,0.0375
3151.00,0.0374
3150.00,0.0373
3149.00,0.0372
3148.00,0.0371
3147.00,0.0370
3146.00,0.0369
3145.00,0.0368
3144.00,0.0366
3143.00,0.0364
3142.00,0.0363
3141.00,0.0361
3140.00,0.0360
3139.00,0.0359
3138.00,0.0358
3137.00,0.0357
3136.00,0.0356
3135.00,0.0356
3134.00,0.0355
3133.00,0.0353
3132.00,0.0352
3131.00,0.0351
3130.00,0.0350
3129.00,0.0349
3128.00,0.0349
3127.00,0.0348
3126.00,0.0348
3125.00,0.0347
3124.00,0.0346
3123.00,0.0345
3122.00,0.0343
3121.00,0.0342
3120.00,0.0342
3119.00,0.0341
3118.00,0.0341
3117.00,0.0341
3116.00,0.0341
3115.00,0.0341
3114.00,0.0342
3113.00,0.0342
3112.00,0.0342
3111.00,0.0342
3110.00,0.0341
3109.00,0.0341
3108.00,0.0341
3107.00,0.0342
3106.00,0.0343
3105.00,0.0343
3104.00,0.0343
3103.00,0.0343
3102.00,0.0343
3101.00,0.0343
3100.00,0.0343
3099.00,0.0344
3098.00,0.0345
3097.00,0.0346
3096.00,0.0346
3095.00,0.0347
3094.00,0.0347
3093.00,0.0347
3092.00,0.0347
3091.00,0.0347
3090.00,0.0348
3089.00,0.0348
3088.00,0.0349
3087.00,0.0349
3086.00,0.0350
3085.00,0.0350
3084.00,0.0350
3083.00,0.0350
3082.00,0.0351
3081.00,0.0351
3080.00,0.0352
3079.00,0.0352
3078.00,0.0354
3077.00,0.0355
3076.00,0.0356
3075.00,0.0358
3074.00,0.0359
3073.00,0.0359
3072.00,0.0359
3071.00,0.0359
3070.00,0.0358
3069.00,0.0358
3068.00,0.0358
3067.00,0.0358
3066.00,0.0358
3065.00,0.0358
3064.00,0.0358
3063.00,0.0358
3062.00,0.0358
3061.00,0.0357
3060.00,0.0356
3059.00,0.0355
3058.00,0.0353
3057.00,0.0352
3056.00,0.0351
3055.00,0.0350
3054.00,0.0348
3053.00,0.0347
3052.00,0.0346
3051.00,0.0345
3050.00,0.0345
3049.00,0.0344
3048.00,0.0343
3047.00,0.0341
3046.00,0.0339
3045.00,0.0337
3044.00,0.0336
3043.00,0.0335
3042.00,0.0334
3041.00,0.0333
3040.00,0.0333
3039.00,0.0332
3038.00,0.0331
3037.00,0.0329
3036.00,0.0327
3035.00,0.0326
3034.00,0.0325
3033.00,0.0324
3032.00,0.0323
3031.00,0.0322
3030.00,0.0321
3029.00,0.0320
3028.00,0.0319
3027.00,0.0317
3026.00,0.0316
3025.00,0.0314
3024.00,0.0312
3023.00,0.0311
3022.00,0.0310
3021.00,0.0308
3020.00,0.0307
3019.00,0.0305
3018.00,0.0303
3017.00,0.0301
3016.00,0.0300
3015.00,0.0298
3014.00,0.0297
3013.00,0.0296
3012.00,0.0296
3011.00,0.0295
3010.00,0.0295
3009.00,0.0295
3008.00,0.0294
3007.00,0.0293
3006.00,0.0293
3005.00,0.0292
3004.00,0.0291
3003.00,0.0291
3002.00,0.0291
3001.00,0.0291
3000.00,0.0291
2999.00,0.0291
2998.00,0.0291
2997.00,0.0292
2996.00,0.0293
2995.00,0.0294
2994.00,0.0296
2993.00,0.0298
2992.00,0.0300
2991.00,0.0302
2990.00,0.0305
2989.00,0.0308
2988.00,0.0311
2987.00,0.0314
2986.00,0.0316
2985.00,0.0319
2984.00,0.0321
2983.00,0.0323
2982.00,0.0326
2981.00,0.0330
2980.00,0.0335
2979.00,0.0340
2978.00,0.0346
2977.00,0.0351
2976.00,0.0356
2975.00,0.0360
2974.00,0.0365
2973.00,0.0369
2972.00,0.0373
2971.00,0.0378
2970.00,0.0382
2969.00,0.0387
2968.00,0.0391
2967.00,0.0395
2966.00,0.0399
2965.00,0.0402
2964.00,0.0405
2963.00,0.0407
2962.00,0.0408
2961.00,0.0409
2960.00,0.0409
2959.00,0.0409
2958.00,0.0407
2957.00,0.0406
2956.00,0.0404
2955.00,0.0402
2954.00,0.0399
2953.00,0.0396
2952.00,0.0394
2951.00,0.0391
2950.00,0.0389
2949.00,0.0387
2948.00,0.0385
2947.00,0.0384
2946.00,0.0383
2945.00,0.0384
2944.00,0.0385
2943.00,0.0387
2942.00,0.0389
2941.00,0.0392
2940.00,0.0395
2939.00,0.0397
2938.00,0.0400
2937.00,0.0403
2936.00,0.0405
2935.00,0.0407
2934.00,0.0409
2933.00,0.0410
2932.00,0.0412
2931.00,0.0413
2930.00,0.0414
2929.00,0.0415
2928.00,0.0416
2927.00,0.0416
2926.00,0.0415
2925.00,0.0413
2924.00,0.0412
2923.00,0.0409
2922.00,0.0407
2921.00,0.0404
2920.00,0.0401
2919.00,0.0397
2918.00,0.0393
2917.00,0.0389
2916.00,0.0384
2915.00,0.0379
2914.00,0.0373
2913.00,0.0368
2912.00,0.0363
2911.00,0.0358
2910.00,0.0353
2909.00,0.0349
2908.00,0.0344
2907.00,0.0340
2906.00,0.0336
2905.00,0.0332
2904.00,0.0329
2903.00,0.0326
2902.00,0.0323
2901.00,0.0321
2900.00,0.0318
2899.00,0.0315
2898.00,0.0313
2897.00,0.0311
2896.00,0.0308
2895.00,0.0307
2894.00,0.0305
2893.00,0.0304
2892.00,0.0302
2891.00,0.0301
2890.00,0.0300
2889.00,0.0300
2888.00,0.0300
2887.00,0.0300
2886.00,0.0300
2885.00,0.0301
2884.00,0.0302
2883.00,0.0303
2882.00,0.0305
2881.00,0.0306
2880.00,0.0308
2879.00,0.0310
2878.00,0.0311
2877.00,0.0312
2876.00,0.0313
2875.00,0.0314
2874.00,0.0314
2873.00,0.0313
2872.00,0.0313
2871.00,0.0311
2870.00,0.0309
2869.00,0.0307
2868.00,0.0304
2867.00,0.0301
2866.00,0.0297
2865.00,0.0294
2864.00,0.0291
2863.00,0.0289
2862.00,0.0287
2861.00,0.0285
2860.00,0.0284
2859.00,0.0283
2858.00,0.0282
2857.00,0.0280
2856.00,0.0279
2855.00,0.0277
2854.00,0.0276
2853.00,0.0274
2852.00,0.0272
2851.00,0.0270
2850.00,0.0267
2849.00,0.0264
2848.00,0.0261
2847.00,0.0258
2846.00,0.0256
2845.00,0.0253
2844.00,0.0251
2843.00,0.0249
2842.00,0.0247
2841.00,0.0245
2840.00,0.0243
2839.00,0.0242
2838.00,0.0241
2837.00,0.0240
2836.00,0.0239
2835.00,0.0239
2834.00,0.0238
2833.00,0.0237
2832.00,0.0237
2831.00,0.0236
2830.00,0.0234
2829.00,0.0233
2828.00,0.0232
2827.00,0.0230
2826.00,0.0229
2825.00,0.0228
2824.00,0.0227
2823.00,0.0226
2822.00,0.0225
2821.00,0.0224
2820.00,0.0223
2819.00,0.0222
2818.00,0.0222
2817.00,0.0221
2816.00,0.0220
2815.00,0.0220
2814.00,0.0219
2813.00,0.0218
2812.00,0.0217
2811.00,0.0217
2810.00,0.0216
2809.00,0.0216
2808.00,0.0215
2807.00,0.0214
2806.00,0.0214
2805.00,0.0213
2804.00,0.0213
2803.00,0.0212
2802.00,0.0212
2801.00,0.0211
2800.00,0.0210
2799.00,0.0209
2798.00,0.0209
2797.00,0.0208
2796.00,0.0208
2795.00,0.0207
2794.00,0.0206
2793.00,0.0206
2792.00,0.0205
2791.00,0.0204
2790.00,0.0204
2789.00,0.0203
2788.00,0.0203
2787.00,0.0203
2786.00,0.0202
2785.00,0.0202
2784.00,0.0201
2783.00,0.0201
2782.00,0.0200
2781.00,0.0199
2780.00,0.0199
2779.00,0.0198
2778.00,0.0198
2777.00,0.0197
2776.00,0.0196
2775.00,0.0196
2774.00,0.0195
2773.00,0.0195
2772.00,0.0195
2771.00,0.0194
2770.00,0.0194
2769.00,0.0193
2768.00,0.0193
2767.00,0.0192
2766.00,0.0192
2765.00,0.0191
2764.00,0.0191
2763.00,0.0190
2762.00,0.0190
2761.00,0.0189
2760.00,0.0189
2759.00,0.0189
2758.00,0.0188
2757.00,0.0188
2756.00,0.0187
2755.00,0.0187
2754.00,0.0186
2753.00,0.0186
2752.00,0.0185
2751.00,0.0185
2750.00,0.0184
2749.00,0.0184
2748.00,0.0184
2747.00,0.0184
2746.00,0.0183
2745.00,0.0183
2744.00,0.0182
2743.00,0.0182
2742.00,0.0182
2741.00,0.0181
2740.00,0.0181
2739.00,0.0180
2738.00,0.0180
2737.00,0.0180
2736.00,0.0180
2735.00,0.0179
2734.00,0.0179
2733.00,0.0179
2732.00,0.0178
2731.00,0.0178
2730.00,0.0177
2729.00,0.0176
2728.00,0.0176
2727.00,0.0175
2726.00,0.0175
2725.00,0.0174
2724.00,0.0174
2723.00,0.0174
2722.00,0.0173
2721.00,0.0173
2720.00,0.0173
2719.00,0.0172
2718.00,0.0172
2717.00,0.0171
2716.00,0.0171
2715.00,0.0170
2714.00,0.0170
2713.00,0.0169
2712.00,0.0169
2711.00,0.0168
2710.00,0.0168
2709.00,0.0168
2708.00,0.0167
2707.00,0.0167
2706.00,0.0167
2705.00,0.0166
2704.00,0.0166
2703.00,0.0165
2702.00,0.0165
2701.00,0.0165
2700.00,0.0165
2699.00,0.0165
2698.00,0.0165
2697.00,0.0164
2696.00,0.0164
2695.00,0.0164
2694.00,0.0163
2693.00,0.0163
2692.00,0.0163
2691.00,0.0163
2690.00,0.0162
2689.00,0.0162
2688.00,0.0162
2687.00,0.0162
2686.00,0.0161
2685.00,0.0161
2684.00,0.0161
2683.00,0.0161
2682.00,0.0160
2681.00,0.0160
2680.00,0.0160
2679.00,0.0159
2678.00,0.0159
2677.00,0.0159
2676.00,0.0158
2675.00,0.0158
2674.00,0.0158
2673.00,0.0158
2672.00,0.0158
2671.00,0.0158
2670.00,0.0158
2669.00,0.0158
2668.00,0.0158
2667.00,0.0158
2666.00,0.0158
2665.00,0.0158
2664.00,0.0158
2663.00,0.0159
2662.00,0.0159
2661.00,0.0159
2660.00,0.0159
2659.00,0.0159
2658.00,0.0159
2657.00,0.0159
2656.00,0.0159
2655.00,0.0158
2654.00,0.0158
2653.00,0.0158
2652.00,0.0158
2651.00,0.0158
2650.00,0.0157
2649.00,0.0157
2648.00,0.0157
2647.00,0.0156
2646.00,0.0156
2645.00,0.0156
2644.00,0.0156
2643.00,0.0156
2642.00,0.0155
2641.00,0.0155
2640.00,0.0155
2639.00,0.0154
2638.00,0.0154
2637.00,0.0154
2636.00,0.0154
2635.00,0.0153
2634.00,0.0153
2633.00,0.0153
2632.00,0.0153
2631.00,0.0153
2630.00,0.0153
2629.00,0.0153
2628.00,0.0152
2627.00,0.0152
2626.00,0.0151
2625.00,0.0151
2624.00,0.0150
2623.00,0.0150
2622.00,0.0150
2621.00,0.0150
2620.00,0.0150
2619.00,0.0149
2618.00,0.0149
2617.00,0.0149
2616.00,0.0149
2615.00,0.0148
2614.00,0.0148
2613.00,0.0148
2612.00,0.0147
2611.00,0.0147
2610.00,0.0146
2609.00,0.0146
2608.00,0.0146
2607.00,0.0146
2606.00,0.0145
2605.00,0.0145
2604.00,0.0145
2603.00,0.0144
2602.00,0.0144
2601.00,0.0143
2600.00,0.0143
2599.00,0.0143
2598.00,0.0142
2597.00,0.0142
2596.00,0.0142
2595.00,0.0142
2594.00,0.0142
2593.00,0.0142
2592.00,0.0141
2591.00,0.0141
2590.00,0.0140
2589.00,0.0139
2588.00,0.0139
2587.00,0.0139
2586.00,0.0138
2585.00,0.0138
2584.00,0.0138
2583.00,0.0137
2582.00,0.0137
2581.00,0.0137
2580.00,0.0137
2579.00,0.0137
2578.00,0.0136
2577.00,0.0136
2576.00,0.0136
2575.00,0.0136
2574.00,0.0136
2573.00,0.0135
2572.00,0.0135
2571.00,0.0134
2570.00,0.0134
2569.00,0.0134
2568.00,0.0134
2567.00,0.0134
2566.00,0.0133
2565.00,0.0133
2564.00,0.0133
2563.00,0.0133
2562.00,0.0133
2561.00,0.0133
2560.00,0.0132
2559.00,0.0132
2558.00,0.0131
2557.00,0.0131
2556.00,0.0131
2555.00,0.0131
2554.00,0.0131
2553.00,0.0131
2552.00,0.0130
2551.00,0.0130
2550.00,0.0129
2549.00,0.0129
2548.00,0.0130
2547.00,0.0130
2546.00,0.0129
2545.00,0.0129
2544.00,0.0129
2543.00,0.0128
2542.00,0.0128
2541.00,0.0128
2540.00,0.0127
2539.00,0.0127
2538.00,0.0126
2537.00,0.0126
2536.00,0.0126
2535.00,0.0126
2534.00,0.0126
2533.00,0.0126
2532.00,0.0126
2531.00,0.0125
2530.00,0.0125
2529.00,0.0125
2528.00,0.0125
2527.00,0.0124
2526.00,0.0124
2525.00,0.0124
2524.00,0.0124
2523.00,0.0124
2522.00,0.0124
2521.00,0.0124
2520.00,0.0124
2519.00,0.0124
2518.00,0.0123
2517.00,0.0123
2516.00,0.0123
2515.00,0.0123
2514.00,0.0123
2513.00,0.0122
2512.00,0.0122
2511.00,0.0121
2510.00,0.0121
2509.00,0.0121
2508.00,0.0121
2507.00,0.0121
2506.00,0.0120
2505.00,0.0120
2504.00,0.0120
2503.00,0.0120
2502.00,0.0120
2501.00,0.0120
2500.00,0.0120
2499.00,0.0120
2498.00,0.0120
2497.00,0.0119
2496.00,0.0119
2495.00,0.0119
2494.00,0.0118
2493.00,0.0118
2492.00,0.0118
2491.00,0.0118
2490.00,0.0117
2489.00,0.0117
2488.00,0.0117
2487.00,0.0117
2486.00,0.0117
2485.00,0.0116
2484.00,0.0116
2483.00,0.0116
2482.00,0.0116
2481.00,0.0116
2480.00,0.0116
2479.00,0.0116
2478.00,0.0116
2477.00,0.0116
2476.00,0.0115
2475.00,0.0115
2474.00,0.0114
2473.00,0.0114
2472.00,0.0114
2471.00,0.0114
2470.00,0.0114
2469.00,0.0114
2468.00,0.0114
2467.00,0.0113
2466.00,0.0114
2465.00,0.0114
2464.00,0.0114
2463.00,0.0114
2462.00,0.0114
2461.00,0.0113
2460.00,0.0113
2459.00,0.0113
2458.00,0.0114
2457.00,0.0114
2456.00,0.0114
2455.00,0.0114
2454.00,0.0114
2453.00,0.0113
2452.00,0.0113
2451.00,0.0113
2450.00,0.0112
2449.00,0.0112
2448.00,0.0112
2447.00,0.0111
2446.00,0.0111
2445.00,0.0111
2444.00,0.0111
2443.00,0.0110
2442.00,0.0110
2441.00,0.0110
2440.00,0.0110
2439.00,0.0109
2438.00,0.0109
2437.00,0.0109
2436.00,0.0109
2435.00,0.0109
2434.00,0.0109
2433.00,0.0109
2432.00,0.0108
2431.00,0.0108
2430.00,0.0108
2429.00,0.0107
2428.00,0.0107
2427.00,0.0106
2426.00,0.0106
2425.00,0.0106
2424.00,0.0105
2423.00,0.0105
2422.00,0.0105
2421.00,0.0105
2420.00,0.0105
2419.00,0.0105
2418.00,0.0105
2417.00,0.0105
2416.00,0.0105
2415.00,0.0104
2414.00,0.0104
2413.00,0.0104
2412.00,0.0103
2411.00,0.0103
2410.00,0.0103
2409.00,0.0102
2408.00,0.0101
2407.00,0.0101
2406.00,0.0101
2405.00,0.0101
2404.00,0.0101
2403.00,0.0100
2402.00,0.0100
2401.00,0.0100
2400.00,0.0100
2399.00,0.0099
2398.00,0.0099
2397.00,0.0099
2396.00,0.0098
2395.00,0.0098
2394.00,0.0098
2393.00,0.0097
2392.00,0.0098
2391.00,0.0098
2390.00,0.0098
2389.00,0.0097
2388.00,0.0097
2387.00,0.0096
2386.00,0.0095
2385.00,0.0095
2384.00,0.0095
2383.00,0.0094
2382.00,0.0093
2381.00,0.0092
2380.00,0.0092
2379.00,0.0091
2378.00,0.0091
2377.00,0.0091
2376.00,0.0092
2375.00,0.0092
2374.00,0.0092
2373.00,0.0092
2372.00,0.0092
2371.00,0.0091
2370.00,0.0090
2369.00,0.0090
2368.00,0.0090
2367.00,0.0090
2366.00,0.0091
2365.00,0.0091
2364.00,0.0092
2363.00,0.0091
2362.00,0.0091
2361.00,0.0091
2360.00,0.0091
2359.00,0.0091
2358.00,0.0091
2357.00,0.0091
2356.00,0.0092
2355.00,0.0091
2354.00,0.0090
2353.00,0.0090
2352.00,0.0089
2351.00,0.0089
2350.00,0.0090
2349.00,0.0091
2348.00,0.0093
2347.00,0.0094
2346.00,0.0094
2345.00,0.0094
2344.00,0.0093
2343.00,0.0093
2342.00,0.0093
2341.00,0.0093
2340.00,0.0094
2339.00,0.0094
2338.00,0.0094
2337.00,0.0094
2336.00,0.0094
2335.00,0.0093
2334.00,0.0093
2333.00,0.0092
2332.00,0.0092
2331.00,0.0092
2330.00,0.0092
2329.00,0.0095
2328.00,0.0098
2327.00,0.0103
2326.00,0.0106
2325.00,0.0107
2324.00,0.0105
2323.00,0.0103
2322.00,0.0100
2321.00,0.0099
2320.00,0.0098
2319.00,0.0097
2318.00,0.0096
2317.00,0.0095
2316.00,0.0095
2315.00,0.0095
2314.00,0.0094
2313.00,0.0093
2312.00,0.0093
2311.00,0.0092
2310.00,0.0092
2309.00,0.0092
2308.00,0.0093
2307.00,0.0093
2306.00,0.0093
2305.00,0.0094
2304.00,0.0094
2303.00,0.0094
2302.00,0.0094
2301.00,0.0094
2300.00,0.0095
2299.00,0.0095
2298.00,0.0096
2297.00,0.0096
2296.00,0.0097
2295.00,0.0097
2294.00,0.0098
2293.00,0.0099
2292.00,0.0100
2291.00,0.0100
2290.00,0.0101
2289.00,0.0102
2288.00,0.0102
2287.00,0.0103
2286.00,0.0102
2285.00,0.0101
2284.00,0.0101
2283.00,0.0099
2282.00,0.0099
2281.00,0.0098
2280.00,0.0098
2279.00,0.0098
2278.00,0.0097
2277.00,0.0096
2276.00,0.0096
2275.00,0.0095
2274.00,0.0095
2273.00,0.0095
2272.00,0.0095
2271.00,0.0095
2270.00,0.0095
2269.00,0.0094
2268.00,0.0094
2267.00,0.0093
2266.00,0.0092
2265.00,0.0092
2264.00,0.0091
2263.00,0.0091
2262.00,0.0091
2261.00,0.0092
2260.00,0.0093
2259.00,0.0093
2258.00,0.0092
2257.00,0.0091
2256.00,0.0089
2255.00,0.0088
2254.00,0.0088
2253.00,0.0087
2252.00,0.0088
2251.00,0.0088
2250.00,0.0088
2249.00,0.0089
2248.00,0.0090
2247.00,0.0090
2246.00,0.0090
2245.00,0.0090
2244.00,0.0090
2243.00,0.0090
2242.00,0.0090
2241.00,0.0090
2240.00,0.0090
2239.00,0.0089
2238.00,0.0089
2237.00,0.0089
2236.00,0.0090
2235.00,0.0090
2234.00,0.0089
2233.00,0.0090
2232.00,0.0090
2231.00,0.0089
2230.00,0.0089
2229.00,0.0089
2228.00,0.0089
2227.00,0.0089
2226.00,0.0088
2225.00,0.0089
2224.00,0.0089
2223.00,0.0088
2222.00,0.0088
2221.00,0.0087
2220.00,0.0087
2219.00,0.0087
2218.00,0.0086
2217.00,0.0085
2216.00,0.0085
2215.00,0.0086
2214.00,0.0086
2213.00,0.0087
2212.00,0.0087
2211.00,0.0087
2210.00,0.0086
2209.00,0.0086
2208.00,0.0086
2207.00,0.0086
2206.00,0.0086
2205.00,0.0087
2204.00,0.0088
2203.00,0.0088
2202.00,0.0088
2201.00,0.0087
2200.00,0.0087
2199.00,0.0086
2198.00,0.0086
2197.00,0.0086
2196.00,0.0087
2195.00,0.0088
2194.00,0.0089
2193.00,0.0090
2192.00,0.0090
2191.00,0.0090
2190.00,0.0090
2189.00,0.0090
2188.00,0.0091
2187.00,0.0091
2186.00,0.0090
2185.00,0.0087
2184.00,0.0085
2183.00,0.0082
2182.00,0.0081
2181.00,0.0081
2180.00,0.0082
2179.00,0.0083
2178.00,0.0082
2177.00,0.0079
2176.00,0.0078
2175.00,0.0078
2174.00,0.0080
2173.00,0.0082
2172.00,0.0085
2171.00,0.0087
2170.00,0.0089
2169.00,0.0091
2168.00,0.0092
2167.00,0.0091
2166.00,0.0091
2165.00,0.0092
2164.00,0.0094
2163.00,0.0094
2162.00,0.0089
2161.00,0.0077
2160.00,0.0062
2159.00,0.0050
2158.00,0.0045
2157.00,0.0046
2156.00,0.0050
2155.00,0.0053
2154.00,0.0056
2153.00,0.0059
2152.00,0.0060
2151.00,0.0061
2150.00,0.0062
2149.00,0.0063
2148.00,0.0064
2147.00,0.0063
2146.00,0.0062
2145.00,0.0062
2144.00,0.0062
2143.00,0.0062
2142.00,0.0063
2141.00,0.0064
2140.00,0.0065
2139.00,0.0065
2138.00,0.0063
2137.00,0.0061
2136.00,0.0059
2135.00,0.0057
2134.00,0.0058
2133.00,0.0060
2132.00,0.0063
2131.00,0.0065
2130.00,0.0067
2129.00,0.0068
2128.00,0.0070
2127.00,0.0070
2126.00,0.0071
2125.00,0.0071
2124.00,0.0073
2123.00,0.0074
2122.00,0.0074
2121.00,0.0075
2120.00,0.0076
2119.00,0.0077
2118.00,0.0078
2117.00,0.0079
2116.00,0.0080
2115.00,0.0080
2114.00,0.0080
2113.00,0.0081
2112.00,0.0081
2111.00,0.0081
2110.00,0.0081
2109.00,0.0080
2108.00,0.0080
2107.00,0.0080
2106.00,0.0080
2105.00,0.0080
2104.00,0.0081
2103.00,0.0080
2102.00,0.0080
2101.00,0.0080
2100.00,0.0079
2099.00,0.0078
2098.00,0.0077
2097.00,0.0075
2096.00,0.0074
2095.00,0.0073
2094.00,0.0073
2093.00,0.0074
2092.00,0.0075
2091.00,0.0076
2090.00,0.0077
2089.00,0.0077
2088.00,0.0077
2087.00,0.0078
2086.00,0.0078
2085.00,0.0079
2084.00,0.0080
2083.00,0.0081
2082.00,0.0082
2081.00,0.0082
2080.00,0.0082
2079.00,0.0081
2078.00,0.0080
2077.00,0.0079
2076.00,0.0079
2075.00,0.0079
2074.00,0.0079
2073.00,0.0079
2072.00,0.0078
2071.00,0.0078
2070.00,0.0077
2069.00,0.0077
2068.00,0.0078
2067.00,0.0078
2066.00,0.0077
2065.00,0.0076
2064.00,0.0076
2063.00,0.0075
2062.00,0.0075
2061.00,0.0075
2060.00,0.0075
2059.00,0.0076
2058.00,0.0077
2057.00,0.0077
2056.00,0.0077
2055.00,0.0078
2054.00,0.0080
2053.00,0.0084
2052.00,0.0087
2051.00,0.0086
2050.00,0.0082
2049.00,0.0078
2048.00,0.0075
2047.00,0.0074
2046.00,0.0073
2045.00,0.0074
2044.00,0.0075
2043.00,0.0076
2042.00,0.0076
2041.00,0.0077
2040.00,0.0078
2039.00,0.0078
2038.00,0.0077
2037.00,0.0076
2036.00,0.0075
2035.00,0.0073
2034.00,0.0071
2033.00,0.0070
2032.00,0.0069
2031.00,0.0068
2030.00,0.0066
2029.00,0.0066
2028.00,0.0066
2027.00,0.0066
2026.00,0.0065
2025.00,0.0064
2024.00,0.0064
2023.00,0.0064
2022.00,0.0064
2021.00,0.0065
2020.00,0.0066
2019.00,0.0067
2018.00,0.0067
2017.00,0.0068
2016.00,0.0067
2015.00,0.0067
2014.00,0.0066
2013.00,0.0065
2012.00,0.0065
2011.00,0.0064
2010.00,0.0062
2009.00,0.0060
2008.00,0.0058
2007.00,0.0057
2006.00,0.0057
2005.00,0.0059
2004.00,0.0060
2003.00,0.0061
2002.00,0.0061
2001.00,0.0062
2000.00,0.0064
1999.00,0.0065
1998.00,0.0066
1997.00,0.0067
1996.00,0.0068
1995.00,0.0068
1994.00,0.0067
1993.00,0.0067
1992.00,0.0068
1991.00,0.0068
1990.00,0.0068
1989.00,0.0068
1988.00,0.0070
1987.00,0.0072
1986.00,0.0073
1985.00,0.0075
1984.00,0.0077
1983.00,0.0080
1982.00,0.0082
1981.00,0.0082
1980.00,0.0080
1979.00,0.0073
1978.00,0.0065
1977.00,0.0061
1976.00,0.0059
1975.00,0.0058
1974.00,0.0057
1973.00,0.0057
1972.00,0.0057
1971.00,0.0058
1970.00,0.0058
1969.00,0.0059
1968.00,0.0059
1967.00,0.0058
1966.00,0.0057
1965.00,0.0057
1964.00,0.0057
1963.00,0.0057
1962.00,0.0056
1961.00,0.0055
1960.00,0.0055
1959.00,0.0054
1958.00,0.0054
1957.00,0.0054
1956.00,0.0055
1955.00,0.0056
1954.00,0.0056
1953.00,0.0057
1952.00,0.0057
1951.00,0.0057
1950.00,0.0056
1949.00,0.0056
1948.00,0.0057
1947.00,0.0057
1946.00,0.0058
1945.00,0.0058
1944.00,0.0059
1943.00,0.0058
1942.00,0.0057
1941.00,0.0056
1940.00,0.0056
1939.00,0.0056
1938.00,0.0057
1937.00,0.0058
1936.00,0.0058
1935.00,0.0058
1934.00,0.0058
1933.00,0.0058
1932.00,0.0058
1931.00,0.0058
1930.00,0.0057
1929.00,0.0058
1928.00,0.0059
1927.00,0.0059
1926.00,0.0058
1925.00,0.0058
1924.00,0.0059
1923.00,0.0060
1922.00,0.0059
1921.00,0.0059
1920.00,0.0059
1919.00,0.0059
1918.00,0.0060
1917.00,0.0059
1916.00,0.0059
1915.00,0.0059
1914.00,0.0060
1913.00,0.0060
1912.00,0.0061
1911.00,0.0061
1910.00,0.0060
1909.00,0.0060
1908.00,0.0061
1907.00,0.0060
1906.00,0.0060
1905.00,0.0060
1904.00,0.0060
1903.00,0.0060
1902.00,0.0060
1901.00,0.0060
1900.00,0.0060
1899.00,0.0060
1898.00,0.0060
1897.00,0.0060
1896.00,0.0061
1895.00,0.0062
1894.00,0.0062
1893.00,0.0061
1892.00,0.0061
1891.00,0.0061
1890.00,0.0062
1889.00,0.0061
1888.00,0.0061
1887.00,0.0060
1886.00,0.0060
1885.00,0.0060
1884.00,0.0061
1883.00,0.0061
1882.00,0.0061
1881.00,0.0061
1880.00,0.0061
1879.00,0.0061
1878.00,0.0060
1877.00,0.0060
1876.00,0.0060
1875.00,0.0060
1874.00,0.0060
1873.00,0.0060
1872.00,0.0061
1871.00,0.0062
1870.00,0.0063
1869.00,0.0063
1868.00,0.0061
1867.00,0.0059
1866.00,0.0058
1865.00,0.0058
1864.00,0.0059
1863.00,0.0060
1862.00,0.0060
1861.00,0.0060
1860.00,0.0060
1859.00,0.0060
1858.00,0.0059
1857.00,0.0060
1856.00,0.0060
1855.00,0.0060
1854.00,0.0060
1853.00,0.0060
1852.00,0.0060
1851.00,0.0060
1850.00,0.0060
1849.00,0.0060
1848.00,0.0060
1847.00,0.0061
1846.00,0.0061
1845.00,0.0061
1844.00,0.0061
1843.00,0.0058
1842.00,0.0057
1841.00,0.0058
1840.00,0.0060
1839.00,0.0061
1838.00,0.0061
1837.00,0.0061
1836.00,0.0062
1835.00,0.0062
1834.00,0.0061
1833.00,0.0062
1832.00,0.0063
1831.00,0.0064
1830.00,0.0064
1829.00,0.0063
1828.00,0.0062
1827.00,0.0062
1826.00,0.0063
1825.00,0.0064
1824.00,0.0064
1823.00,0.0063
1822.00,0.0062
1821.00,0.0062
1820.00,0.0061
1819.00,0.0060
1818.00,0.0059
1817.00,0.0059
1816.00,0.0060
1815.00,0.0061
1814.00,0.0062
1813.00,0.0063
1812.00,0.0064
1811.00,0.0065
1810.00,0.0065
1809.00,0.0064
1808.00,0.0064
1807.00,0.0064
1806.00,0.0065
1805.00,0.0065
1804.00,0.0066
1803.00,0.0067
1802.00,0.0067
1801.00,0.0067
1800.00,0.0067
1799.00,0.0067
1798.00,0.0066
1797.00,0.0066
1796.00,0.0066
1795.00,0.0067
1794.00,0.0068
1793.00,0.0069
1792.00,0.0068
1791.00,0.0067
1790.00,0.0065
1789.00,0.0066
1788.00,0.0067
1787.00,0.0068
1786.00,0.0069
1785.00,0.0069
1784.00,0.0069
1783.00,0.0069
1782.00,0.0069
1781.00,0.0070
1780.00,0.0070
1779.00,0.0070
1778.00,0.0069
1777.00,0.0070
1776.00,0.0071
1775.00,0.0071
1774.00,0.0071
1773.00,0.0071
1772.00,0.0070
1771.00,0.0069
1770.00,0.0068
1769.00,0.0069
1768.00,0.0070
1767.00,0.0070
1766.00,0.0070
1765.00,0.0071
1764.00,0.0074
1763.00,0.0075
1762.00,0.0075
1761.00,0.0074
1760.00,0.0073
1759.00,0.0074
1758.00,0.0076
1757.00,0.0077
1756.00,0.0077
1755.00,0.0076
1754.00,0.0076
1753.00,0.0077
1752.00,0.0078
1751.00,0.0078
1750.00,0.0079
1749.00,0.0080
1748.00,0.0082
1747.00,0.0083
1746.00,0.0084
1745.00,0.0085
1744.00,0.0087
1743.00,0.0088
1742.00,0.0088
1741.00,0.0089
1740.00,0.0091
1739.00,0.0091
1738.00,0.0089
1737.00,0.0089
1736.00,0.0090
1735.00,0.0090
1734.00,0.0088
1733.00,0.0086
1732.00,0.0087
1731.00,0.0093
1730.00,0.0098
1729.00,0.0102
1728.00,0.0104
1727.00,0.0105
1726.00,0.0107
1725.00,0.0109
1724.00,0.0112
1723.00,0.0115
1722.00,0.0117
1721.00,0.0119
1720.00,0.0123
1719.00,0.0127
1718.00,0.0129
1717.00,0.0131
1716.00,0.0136
1715.00,0.0144
1714.00,0.0152
1713.00,0.0161
1712.00,0.0171
1711.00,0.0182
1710.00,0.0192
1709.00,0.0204
1708.00,0.0218
1707.00,0.0234
1706.00,0.0251
1705.00,0.0268
1704.00,0.0283
1703.00,0.0295
1702.00,0.0309
1701.00,0.0333
1700.00,0.0362
1699.00,0.0383
1698.00,0.0399
1697.00,0.0419
1696.00,0.0448
1695.00,0.0477
1694.00,0.0503
1693.00,0.0526
1692.00,0.0551
1691.00,0.0576
1690.00,0.0601
1689.00,0.0625
1688.00,0.0645
1687.00,0.0659
1686.00,0.0675
1685.00,0.0703
1684.00,0.0745
1683.00,0.0782
1682.00,0.0807
1681.00,0.0828
1680.00,0.0850
1679.00,0.0871
1678.00,0.0889
1677.00,0.0909
1676.00,0.0936
1675.00,0.0969
1674.00,0.0998
1673.00,0.1020
1672.00,0.1041
1671.00,0.1066
1670.00,0.1100
1669.00,0.1139
1668.00,0.1174
1667.00,0.1201
1666.00,0.1223
1665.00,0.1247
1664.00,0.1279
1663.00,0.1321
1662.00,0.1367
1661.00,0.1408
1660.00,0.1445
1659.00,0.1480
1658.00,0.1512
1657.00,0.1537
1656.00,0.1554
1655.00,0.1571
1654.00,0.1615
1653.00,0.1696
1652.00,0.1765
1651.00,0.1795
1650.00,0.1804
1649.00,0.1808
1648.00,0.1818
1647.00,0.1841
1646.00,0.1868
1645.00,0.1885
1644.00,0.1891
1643.00,0.1891
1642.00,0.1887
1641.00,0.1882
1640.00,0.1874
1639.00,0.1863
1638.00,0.1847
1637.00,0.1830
1636.00,0.1819
1635.00,0.1810
1634.00,0.1795
1633.00,0.1771
1632.00,0.1740
1631.00,0.1704
1630.00,0.1665
1629.00,0.1622
1628.00,0.1577
1627.00,0.1531
1626.00,0.1485
1625.00,0.1438
1624.00,0.1390
1623.00,0.1344
1622.00,0.1301
1621.00,0.1262
1620.00,0.1223
1619.00,0.1184
1618.00,0.1146
1617.00,0.1110
1616.00,0.1079
1615.00,0.1053
1614.00,0.1029
1613.00,0.1004
1612.00,0.0977
1611.00,0.0951
1610.00,0.0926
1609.00,0.0903
1608.00,0.0882
1607.00,0.0862
1606.00,0.0844
1605.00,0.0829
1604.00,0.0815
1603.00,0.0802
1602.00,0.0792
1601.00,0.0784
1600.00,0.0776
1599.00,0.0769
1598.00,0.0765
1597.00,0.0761
1596.00,0.0758
1595.00,0.0757
1594.00,0.0757
1593.00,0.0758
1592.00,0.0759
1591.00,0.0761
1590.00,0.0765
1589.00,0.0770
1588.00,0.0774
1587.00,0.0779
1586.00,0.0784
1585.00,0.0790
1584.00,0.0796
1583.00,0.0802
1582.00,0.0809
1581.00,0.0815
1580.00,0.0820
1579.00,0.0823
1578.00,0.0825
1577.00,0.0830
1576.00,0.0838
1575.00,0.0848
1574.00,0.0859
1573.00,0.0868
1572.00,0.0874
1571.00,0.0882
1570.00,0.0894
1569.00,0.0907
1568.00,0.0917
1567.00,0.0926
1566.00,0.0937
1565.00,0.0951
1564.00,0.0962
1563.00,0.0970
1562.00,0.0973
1561.00,0.0978
1560.00,0.0997
1559.00,0.1041
1558.00,0.1087
1557.00,0.1113
1556.00,0.1132
1555.00,0.1155
1554.00,0.1181
1553.00,0.1208
1552.00,0.1232
1551.00,0.1258
1550.00,0.1286
1549.00,0.1313
1548.00,0.1333
1547.00,0.1348
1546.00,0.1364
1545.00,0.1382
1544.00,0.1399
1543.00,0.1411
1542.00,0.1421
1541.00,0.1437
1540.00,0.1462
1539.00,0.1486
1538.00,0.1498
1537.00,0.1501
1536.00,0.1498
1535.00,0.1496
1534.00,0.1501
1533.00,0.1511
1532.00,0.1517
1531.00,0.1516
1530.00,0.1510
1529.00,0.1505
1528.00,0.1502
1527.00,0.1501
1526.00,0.1501
1525.00,0.1498
1524.00,0.1492
1523.00,0.1486
1522.00,0.1486
1521.00,0.1493
1520.00,0.1501
1519.00,0.1503
1518.00,0.1503
1517.00,0.1503
1516.00,0.1501
1515.00,0.1493
1514.00,0.1477
1513.00,0.1457
1512.00,0.1435
1511.00,0.1412
1510.00,0.1386
1509.00,0.1357
1508.00,0.1329
1507.00,0.1306
1506.00,0.1287
1505.00,0.1265
1504.00,0.1242
1503.00,0.1218
1502.00,0.1191
1501.00,0.1163
1500.00,0.1135
1499.00,0.1107
1498.00,0.1077
1497.00,0.1047
1496.00,0.1017
1495.00,0.0989
1494.00,0.0962
1493.00,0.0934
1492.00,0.0906
1491.00,0.0878
1490.00,0.0850
1489.00,0.0823
1488.00,0.0798
1487.00,0.0775
1486.00,0.0753
1485.00,0.0732
1484.00,0.0714
1483.00,0.0698
1482.00,0.0684
1481.00,0.0672
1480.00,0.0663
1479.00,0.0656
1478.00,0.0651
1477.00,0.0650
1476.00,0.0650
1475.00,0.0651
1474.00,0.0655
1473.00,0.0664
1472.00,0.0676
1471.00,0.0686
1470.00,0.0693
1469.00,0.0697
1468.00,0.0699
1467.00,0.0699
1466.00,0.0700
1465.00,0.0701
1464.00,0.0703
1463.00,0.0706
1462.00,0.0708
1461.00,0.0710
1460.00,0.0713
1459.00,0.0717
1458.00,0.0726
1457.00,0.0741
1456.00,0.0755
1455.00,0.0766
1454.00,0.0774
1453.00,0.0782
1452.00,0.0788
1451.00,0.0794
1450.00,0.0799
1449.00,0.0804
1448.00,0.0808
1447.00,0.0811
1446.00,0.0810
1445.00,0.0808
1444.00,0.0805
1443.00,0.0800
1442.00,0.0793
1441.00,0.0784
1440.00,0.0774
1439.00,0.0762
1438.00,0.0749
1437.00,0.0735
1436.00,0.0722
1435.00,0.0710
1434.00,0.0700
1433.00,0.0690
1432.00,0.0680
1431.00,0.0672
1430.00,0.0664
1429.00,0.0657
1428.00,0.0651
1427.00,0.0647
1426.00,0.0645
1425.00,0.0644
1424.00,0.0646
1423.00,0.0648
1422.00,0.0649
1421.00,0.0649
1420.00,0.0653
1419.00,0.0660
1418.00,0.0668
1417.00,0.0675
1416.00,0.0680
1415.00,0.0684
1414.00,0.0688
1413.00,0.0692
1412.00,0.0696
1411.00,0.0702
1410.00,0.0707
1409.00,0.0712
1408.00,0.0717
1407.00,0.0723
1406.00,0.0730
1405.00,0.0738
1404.00,0.0746
1403.00,0.0753
1402.00,0.0758
1401.00,0.0764
1400.00,0.0770
1399.00,0.0778
1398.00,0.0784
1397.00,0.0789
1396.00,0.0793
1395.00,0.0797
1394.00,0.0801
1393.00,0.0803
1392.00,0.0803
1391.00,0.0803
1390.00,0.0801
1389.00,0.0798
1388.00,0.0795
1387.00,0.0791
1386.00,0.0787
1385.00,0.0781
1384.00,0.0774
1383.00,0.0767
1382.00,0.0759
1381.00,0.0752
1380.00,0.0745
1379.00,0.0738
1378.00,0.0731
1377.00,0.0723
1376.00,0.0715
1375.00,0.0706
1374.00,0.0697
1373.00,0.0689
1372.00,0.0681
1371.00,0.0674
1370.00,0.0669
1369.00,0.0663
1368.00,0.0657
1367.00,0.0650
1366.00,0.0641
1365.00,0.0632
1364.00,0.0623
1363.00,0.0615
1362.00,0.0608
1361.00,0.0602
1360.00,0.0597
1359.00,0.0593
1358.00,0.0590
1357.00,0.0589
1356.00,0.0588
1355.00,0.0588
1354.00,0.0589
1353.00,0.0590
1352.00,0.0591
1351.00,0.0592
1350.00,0.0593
1349.00,0.0595
1348.00,0.0595
1347.00,0.0595
1346.00,0.0595
1345.00,0.0594
1344.00,0.0594
1343.00,0.0594
1342.00,0.0594
1341.00,0.0595
1340.00,0.0597
1339.00,0.0599
1338.00,0.0601
1337.00,0.0604
1336.00,0.0605
1335.00,0.0606
1334.00,0.0606
1333.00,0.0606
1332.00,0.0604
1331.00,0.0604
1330.00,0.0603
1329.00,0.0604
1328.00,0.0605
1327.00,0.0608
1326.00,0.0612
1325.00,0.0617
1324.00,0.0623
1323.00,0.0630
1322.00,0.0637
1321.00,0.0644
1320.00,0.0651
1319.00,0.0657
1318.00,0.0662
1317.00,0.0664
1316.00,0.0664
1315.00,0.0664
1314.00,0.0663
1313.00,0.0662
1312.00,0.0661
1311.00,0.0661
1310.00,0.0661
1309.00,0.0661
1308.00,0.0662
1307.00,0.0664
1306.00,0.0666
1305.00,0.0667
1304.00,0.0668
1303.00,0.0669
1302.00,0.0668
1301.00,0.0668
1300.00,0.0668
1299.00,0.0668
1298.00,0.0669
1297.00,0.0670
1296.00,0.0671
1295.00,0.0673
1294.00,0.0675
1293.00,0.0676
1292.00,0.0678
1291.00,0.0681
1290.00,0.0684
1289.00,0.0687
1288.00,0.0690
1287.00,0.0693
1286.00,0.0696
1285.00,0.0699
1284.00,0.0702
1283.00,0.0705
1282.00,0.0708
1281.00,0.0710
1280.00,0.0712
1279.00,0.0712
1278.00,0.0711
1277.00,0.0708
1276.00,0.0706
1275.00,0.0704
1274.00,0.0702
1273.00,0.0701
1272.00,0.0701
1271.00,0.0702
1270.00,0.0705
1269.00,0.0708
1268.00,0.0713
1267.00,0.0719
1266.00,0.0725
1265.00,0.0731
1264.00,0.0737
1263.00,0.0742
1262.00,0.0746
1261.00,0.0748
1260.00,0.0749
1259.00,0.0749
1258.00,0.0749
1257.00,0.0748
1256.00,0.0747
1255.00,0.0747
1254.00,0.0747
1253.00,0.0747
1252.00,0.0747
1251.00,0.0748
1250.00,0.0749
1249.00,0.0752
1248.00,0.0756
1247.00,0.0761
1246.00,0.0767
1245.00,0.0772
1244.00,0.0776
1243.00,0.0779
1242.00,0.0779
1241.00,0.0778
1240.00,0.0775
1239.00,0.0771
1238.00,0.0766
1237.00,0.0761
1236.00,0.0756
1235.00,0.0752
1234.00,0.0747
1233.00,0.0743
1232.00,0.0740
1231.00,0.0737
1230.00,0.0734
1229.00,0.0730
1228.00,0.0726
1227.00,0.0719
1226.00,0.0712
1225.00,0.0703
1224.00,0.0694
1223.00,0.0685
1222.00,0.0676
1221.00,0.0668
1220.00,0.0660
1219.00,0.0651
1218.00,0.0643
1217.00,0.0633
1216.00,0.0623
1215.00,0.0613
1214.00,0.0604
1213.00,0.0595
1212.00,0.0588
1211.00,0.0582
1210.00,0.0578
1209.00,0.0575
1208.00,0.0574
1207.00,0.0573
1206.00,0.0571
1205.00,0.0566
1204.00,0.0559
1203.00,0.0550
1202.00,0.0539
1201.00,0.0529
1200.00,0.0519
1199.00,0.0509
1198.00,0.0501
1197.00,0.0494
1196.00,0.0488
1195.00,0.0483
1194.00,0.0479
1193.00,0.0475
1192.00,0.0472
1191.00,0.0469
1190.00,0.0467
1189.00,0.0465
1188.00,0.0462
1187.00,0.0460
1186.00,0.0459
1185.00,0.0458
1184.00,0.0457
1183.00,0.0458
1182.00,0.0460
1181.00,0.0462
1180.00,0.0466
1179.00,0.0471
1178.00,0.0478
1177.00,0.0486
1176.00,0.0494
1175.00,0.0503
1174.00,0.0511
1173.00,0.0517
1172.00,0.0522
1171.00,0.0524
1170.00,0.0524
1169.00,0.0521
1168.00,0.0516
1167.00,0.0511
1166.00,0.0506
1165.00,0.0502
1164.00,0.0499
1163.00,0.0497
1162.00,0.0496
1161.00,0.0495
1160.00,0.0494
1159.00,0.0494
1158.00,0.0494
1157.00,0.0494
1156.00,0.0494
1155.00,0.0493
1154.00,0.0492
1153.00,0.0491
1152.00,0.0492
1151.00,0.0492
1150.00,0.0493
1149.00,0.0493
1148.00,0.0490
1147.00,0.0484
1146.00,0.0477
1145.00,0.0468
1144.00,0.0461
1143.00,0.0456
1142.00,0.0452
1141.00,0.0450
1140.00,0.0449
1139.00,0.0450
1138.00,0.0452
1137.00,0.0454
1136.00,0.0457
1135.00,0.0460
1134.00,0.0464
1133.00,0.0468
1132.00,0.0473
1131.00,0.0477
1130.00,0.0480
1129.00,0.0484
1128.00,0.0487
1127.00,0.0490
1126.00,0.0493
1125.00,0.0494
1124.00,0.0496
1123.00,0.0497
1122.00,0.0499
1121.00,0.0501
1120.00,0.0503
1119.00,0.0505
1118.00,0.0508
1117.00,0.0510
1116.00,0.0513
1115.00,0.0516
1114.00,0.0520
1113.00,0.0523
1112.00,0.0526
1111.00,0.0530
1110.00,0.0533
1109.00,0.0537
1108.00,0.0540
1107.00,0.0544
1106.00,0.0547
1105.00,0.0550
1104.00,0.0552
1103.00,0.0555
1102.00,0.0557
1101.00,0.0559
1100.00,0.0560
1099.00,0.0561
1098.00,0.0560
1097.00,0.0560
1096.00,0.0559
1095.00,0.0559
1094.00,0.0559
1093.00,0.0559
1092.00,0.0560
1091.00,0.0560
1090.00,0.0561
1089.00,0.0562
1088.00,0.0563
1087.00,0.0565
1086.00,0.0567
1085.00,0.0569
1084.00,0.0571
1083.00,0.0573
1082.00,0.0575
1081.00,0.0575
1080.00,0.0575
1079.00,0.0574
1078.00,0.0573
1077.00,0.0572
1076.00,0.0570
1075.00,0.0568
1074.00,0.0565
1073.00,0.0561
1072.00,0.0558
1071.00,0.0555
1070.00,0.0551
1069.00,0.0548
1068.00,0.0545
1067.00,0.0542
1066.00,0.0539
1065.00,0.0537
1064.00,0.0534
1063.00,0.0532
1062.00,0.0531
1061.00,0.0530
1060.00,0.0529
1059.00,0.0530
1058.00,0.0531
1057.00,0.0533
1056.00,0.0535
1055.00,0.0537
1054.00,0.0538
1053.00,0.0535
1052.00,0.0529
1051.00,0.0522
1050.00,0.0514
1049.00,0.0507
1048.00,0.0500
1047.00,0.0495
1046.00,0.0490
1045.00,0.0486
1044.00,0.0483
1043.00,0.0480
1042.00,0.0478
1041.00,0.0477
1040.00,0.0477
1039.00,0.0478
1038.00,0.0480
1037.00,0.0483
1036.00,0.0487
1035.00,0.0491
1034.00,0.0495
1033.00,0.0497
1032.00,0.0498
1031.00,0.0497
1030.00,0.0494
1029.00,0.0490
1028.00,0.0485
1027.00,0.0480
1026.00,0.0474
1025.00,0.0468
1024.00,0.0462
1023.00,0.0457
1022.00,0.0452
1021.00,0.0448
1020.00,0.0443
1019.00,0.0439
1018.00,0.0435
1017.00,0.0431
1016.00,0.0427
1015.00,0.0423
1014.00,0.0418
1013.00,0.0413
1012.00,0.0407
1011.00,0.0401
1010.00,0.0394
1009.00,0.0387
1008.00,0.0379
1007.00,0.0372
1006.00,0.0365
1005.00,0.0359
1004.00,0.0354
1003.00,0.0349
1002.00,0.0346
1001.00,0.0343
1000.00,0.0340
999.00,0.0337
998.00,0.0333
997.00,0.0329
996.00,0.0325
995.00,0.0321
994.00,0.0317
993.00,0.0314
992.00,0.0312
991.00,0.0309
990.00,0.0308
989.00,0.0306
988.00,0.0305
987.00,0.0304
986.00,0.0303
985.00,0.0301
984.00,0.0299
983.00,0.0298
982.00,0.0296
981.00,0.0294
980.00,0.0292
979.00,0.0291
978.00,0.0289
977.00,0.0288
976.00,0.0287
975.00,0.0285
974.00,0.0284
973.00,0.0283
972.00,0.0283
971.00,0.0282
970.00,0.0281
969.00,0.0281
968.00,0.0280
967.00,0.0280
966.00,0.0280
965.00,0.0280
964.00,0.0280
963.00,0.0280
962.00,0.0281
961.00,0.0281
960.00,0.0282
959.00,0.0281
958.00,0.0281
957.00,0.0281
956.00,0.0280
955.00,0.0279
954.00,0.0279
953.00,0.0278
952.00,0.0278
951.00,0.0279
950.00,0.0280
949.00,0.0281
948.00,0.0283
947.00,0.0284
946.00,0.0287
945.00,0.0289
944.00,0.0292
943.00,0.0295
942.00,0.0299
941.00,0.0302
940.00,0.0304
939.00,0.0307
938.00,0.0309
937.00,0.0311
936.00,0.0313
935.00,0.0314
934.00,0.0315
933.00,0.0315
932.00,0.0315
931.00,0.0314
930.00,0.0313
929.00,0.0313
928.00,0.0312
927.00,0.0311
926.00,0.0310
925.00,0.0309
924.00,0.0308
923.00,0.0307
922.00,0.0306
921.00,0.0306
920.00,0.0305
919.00,0.0305
918.00,0.0304
917.00,0.0303
916.00,0.0303
915.00,0.0302
914.00,0.0302
913.00,0.0301
912.00,0.0300
911.00,0.0299
910.00,0.0298
909.00,0.0298
908.00,0.0299
907.00,0.0301
906.00,0.0303
905.00,0.0306
904.00,0.0308
903.00,0.0310
902.00,0.0311
901.00,0.0311
900.00,0.0311
899.00,0.0310
898.00,0.0309
897.00,0.0308
896.00,0.0307
895.00,0.0306
894.00,0.0307
893.00,0.0310
892.00,0.0314
891.00,0.0319
890.00,0.0323
889.00,0.0324
888.00,0.0322
887.00,0.0321
886.00,0.0320
885.00,0.0320
884.00,0.0320
883.00,0.0318
882.00,0.0315
881.00,0.0311
880.00,0.0308
879.00,0.0305
878.00,0.0304
877.00,0.0303
876.00,0.0303
875.00,0.0303
874.00,0.0303
873.00,0.0303
872.00,0.0303
871.00,0.0304
870.00,0.0305
869.00,0.0306
868.00,0.0307
867.00,0.0309
866.00,0.0312
865.00,0.0316
864.00,0.0321
863.00,0.0325
862.00,0.0329
861.00,0.0332
860.00,0.0334
859.00,0.0336
858.00,0.0338
857.00,0.0341
856.00,0.0343
855.00,0.0344
854.00,0.0345
853.00,0.0345
852.00,0.0345
851.00,0.0345
850.00,0.0346
849.00,0.0347
848.00,0.0348
847.00,0.0349
846.00,0.0351
845.00,0.0352
844.00,0.0354
843.00,0.0357
842.00,0.0360
841.00,0.0364
840.00,0.0368
839.00,0.0372
838.00,0.0376
837.00,0.0379
836.00,0.0382
835.00,0.0383
834.00,0.0385
833.00,0.0387
832.00,0.0390
831.00,0.0394
830.00,0.0398
829.00,0.0402
828.00,0.0406
827.00,0.0410
826.00,0.0413
825.00,0.0416
824.00,0.0419
823.00,0.0421
822.00,0.0423
821.00,0.0426
820.00,0.0428
819.00,0.0430
818.00,0.0433
817.00,0.0435
816.00,0.0439
815.00,0.0443
814.00,0.0447
813.00,0.0451
812.00,0.0456
811.00,0.0460
810.00,0.0465
809.00,0.0470
808.00,0.0475
807.00,0.0481
806.00,0.0487
805.00,0.0493
804.00,0.0498
803.00,0.0502
802.00,0.0504
801.00,0.0505
800.00,0.0506
799.00,0.0508
798.00,0.0510
797.00,0.0512
796.00,0.0514
795.00,0.0515
794.00,0.0516
793.00,0.0515
792.00,0.0512
791.00,0.0510
790.00,0.0507
789.00,0.0505
788.00,0.0503
787.00,0.0501
786.00,0.0499
785.00,0.0497
784.00,0.0496
783.00,0.0496
782.00,0.0495
781.00,0.0495
780.00,0.0495
779.00,0.0496
778.00,0.0496
777.00,0.0497
776.00,0.0499
775.00,0.0500
774.00,0.0502
773.00,0.0504
772.00,0.0506
771.00,0.0508
770.00,0.0510
769.00,0.0512
768.00,0.0514
767.00,0.0516
766.00,0.0518
765.00,0.0520
764.00,0.0522
763.00,0.0524
762.00,0.0526
761.00,0.0528
760.00,0.0531
759.00,0.0534
758.00,0.0537
757.00,0.0540
756.00,0.0543
755.00,0.0546
754.00,0.0548
753.00,0.0551
752.00,0.0553
751.00,0.0556
750.00,0.0559
749.00,0.0561
748.00,0.0564
747.00,0.0566
746.00,0.0569
745.00,0.0571
744.00,0.0574
743.00,0.0577
742.00,0.0579
741.00,0.0582
740.00,0.0584
739.00,0.0587
738.00,0.0591
737.00,0.0594
736.00,0.0598
735.00,0.0601
734.00,0.0605
733.00,0.0607
732.00,0.0610
731.00,0.0613
730.00,0.0615
729.00,0.0618
728.00,0.0621
727.00,0.0623
726.00,0.0626
725.00,0.0629
724.00,0.0633
723.00,0.0637
722.00,0.0642
721.00,0.0647
720.00,0.0652
719.00,0.0657
718.00,0.0662
717.00,0.0667
716.00,0.0672
715.00,0.0677
714.00,0.0684
713.00,0.0690
712.00,0.0697
711.00,0.0705
710.00,0.0712
709.00,0.0719
708.00,0.0726
707.00,0.0734
706.00,0.0742
705.00,0.0749
704.00,0.0756
703.00,0.0762
702.00,0.0767
701.00,0.0770
700.00,0.0773
699.00,0.0776
698.00,0.0778
697.00,0.0779
696.00,0.0781
695.00,0.0781
694.00,0.0782
693.00,0.0783
692.00,0.0784
691.00,0.0785
690.00,0.0788
689.00,0.0791
688.00,0.0796
687.00,0.0801
686.00,0.0805
685.00,0.0810
684.00,0.0816
683.00,0.0820
682.00,0.0825
681.00,0.0829
680.00,0.0834
679.00,0.0839
678.00,0.0844
677.00,0.0848
676.00,0.0853
675.00,0.0857
674.00,0.0861
673.00,0.0865
672.00,0.0869
671.00,0.0872
670.00,0.0876
669.00,0.0883
668.00,0.0894
667.00,0.0903
666.00,0.0904
665.00,0.0903
664.00,0.0902
663.00,0.0904
662.00,0.0907
661.00,0.0910
660.00,0.0912
659.00,0.0914
658.00,0.0915
657.00,0.0916
656.00,0.0917
655.00,0.0918
654.00,0.0919
653.00,0.0920
652.00,0.0921
651.00,0.0922
650.00,0.0924
649.00,0.0925
648.00,0.0926
647.00,0.0928
646.00,0.0930
645.00,0.0933
644.00,0.0935
643.00,0.0938
642.00,0.0940
641.00,0.0942
640.00,0.0945
639.00,0.0949
638.00,0.0952
637.00,0.0955
636.00,0.0958
635.00,0.0961
634.00,0.0964
633.00,0.0968
632.00,0.0971
631.00,0.0975
630.00,0.0978
629.00,0.0982
628.00,0.0985
627.00,0.0988
626.00,0.0991
625.00,0.0994
624.00,0.0997
623.00,0.1000
622.00,0.1003
621.00,0.1007
620.00,0.1010
619.00,0.1015
618.00,0.1019
617.00,0.1022
616.00,0.1024
615.00,0.1026
614.00,0.1027
613.00,0.1029
612.00,0.1032
611.00,0.1034
610.00,0.1035
609.00,0.1036
608.00,0.1036
607.00,0.1037
606.00,0.1038
605.00,0.1039
604.00,0.1040
603.00,0.1041
602.00,0.1043
601.00,0.1044
600.00,0.1044
599.00,0.1045
598.00,0.1045
597.00,0.1046
596.00,0.1049
595.00,0.1051
594.00,0.1054
593.00,0.1056
592.00,0.1058
591.00,0.1060
590.00,0.1061
589.00,0.1063
588.00,0.1065
587.00,0.1067
586.00,0.1070
585.00,0.1072
584.00,0.1075
583.00,0.1079
582.00,0.1084
581.00,0.1091
580.00,0.1100
579.00,0.1107
578.00,0.1112
577.00,0.1112
576.00,0.1109
575.00,0.1106
574.00,0.1104
573.00,0.1102
572.00,0.1101
571.00,0.1101
570.00,0.1101
569.00,0.1101
568.00,0.1103
567.00,0.1105
566.00,0.1107
565.00,0.1110
564.00,0.1113
563.00,0.1116
562.00,0.1118
561.00,0.1120
560.00,0.1122
559.00,0.1125
558.00,0.1129
557.00,0.1133
556.00,0.1139
555.00,0.1146
554.00,0.1154
553.00,0.1162
552.00,0.1169
551.00,0.1173
550.00,0.1173
549.00,0.1171
548.00,0.1168
547.00,0.1166
546.00,0.1165
545.00,0.1164
544.00,0.1165
543.00,0.1166
542.00,0.1167
541.00,0.1169
540.00,0.1173
539.00,0.1176
538.00,0.1179
537.00,0.1182
536.00,0.1184
535.00,0.1185
534.00,0.1184
533.00,0.1181
532.00,0.1179
531.00,0.1177
530.00,0.1176
529.00,0.1175
528.00,0.1176
527.00,0.1180
526.00,0.1183
525.00,0.1185
524.00,0.1186
523.00,0.1187
522.00,0.1188
521.00,0.1187
520.00,0.1185
519.00,0.1181
518.00,0.1176
517.00,0.1171
516.00,0.1169
515.00,0.1168
514.00,0.1167
513.00,0.1166
512.00,0.1164
511.00,0.1160
510.00,0.1155
509.00,0.1151
508.00,0.1148
507.00,0.1146
506.00,0.1143
505.00,0.1139
504.00,0.1136
503.00,0.1135
502.00,0.1137
501.00,0.1141
500.00,0.1144
499.00,0.1145
498.00,0.1146
497.00,0.1148
496.00,0.1152
495.00,0.1156
494.00,0.1161
493.00,0.1165
492.00,0.1170
491.00,0.1175
490.00,0.1177
489.00,0.1179
488.00,0.1181
487.00,0.1182
486.00,0.1183
485.00,0.1182
484.00,0.1180
483.00,0.1177
482.00,0.1174
481.00,0.1175
480.00,0.1177
479.00,0.1181
478.00,0.1183
477.00,0.1184
476.00,0.1183
475.00,0.1180
474.00,0.1177
473.00,0.1176
472.00,0.1177
471.00,0.1179
470.00,0.1178
469.00,0.1178
468.00,0.1179
467.00,0.1179
466.00,0.1177
465.00,0.1174
464.00,0.1170
463.00,0.1166
462.00,0.1162
461.00,0.1159
460.00,0.1158
459.00,0.1156
458.00,0.1151
457.00,0.1144
456.00,0.1139
455.00,0.1136
454.00,0.1133
453.00,0.1130
452.00,0.1125
451.00,0.1115
450.00,0.1102
449.00,0.1090
448.00,0.1080
447.00,0.1071
446.00,0.1064
445.00,0.1057
444.00,0.1053
443.00,0.1050
442.00,0.1044
441.00,0.1036
440.00,0.1029
439.00,0.1023
438.00,0.1017
437.00,0.1011
436.00,0.1006
435.00,0.1002
434.00,0.0999
433.00,0.0994
432.00,0.0991
431.00,0.0989
430.00,0.0991
429.00,0.0994
428.00,0.0997
427.00,0.0997
426.00,0.0994
425.00,0.0991
424.00,0.0989
423.00,0.0989
422.00,0.0988
421.00,0.0990
420.00,0.0996
419.00,0.1005
418.00,0.1008
417.00,0.1005
416.00,0.0998
415.00,0.0988
414.00,0.0979
413.00,0.0977
412.00,0.0982
411.00,0.0987
410.00,0.0985
409.00,0.0976
408.00,0.0966
407.00,0.0958
406.00,0.0953
405.00,0.0955
404.00,0.0964
403.00,0.0975
402.00,0.0980
401.00,0.0978
400.00,0.0975
