Created as New Dataset,Sample 452 By YargerLab Date Saturday, March 01 2025
cm-1,A
4000.00,0.0516
3999.00,0.0516
3998.00,0.0516
3997.00,0.0516
3996.00,0.0516
3995.00,0.0516
3994.00,0.0517
3993.00,0.0517
3992.00,0.0516
3991.00,0.0516
3990.00,0.0516
3989.00,0.0516
3988.00,0.0516
3987.00,0.0516
3986.00,0.0516
3985.00,0.0516
3984.00,0.0516
3983.00,0.0516
3982.00,0.0517
3981.00,0.0517
3980.00,0.0517
3979.00,0.0517
3978.00,0.0517
3977.00,0.0517
3976.00,0.0517
3975.00,0.0517
3974.00,0.0517
3973.00,0.0517
3972.00,0.0517
3971.00,0.0517
3970.00,0.0517
3969.00,0.0517
3968.00,0.0518
3967.00,0.0518
3966.00,0.0518
3965.00,0.0518
3964.00,0.0518
3963.00,0.0518
3962.00,0.0518
3961.00,0.0518
3960.00,0.0518
3959.00,0.0518
3958.00,0.0519
3957.00,0.0519
3956.00,0.0519
3955.00,0.0520
3954.00,0.0520
3953.00,0.0520
3952.00,0.0520
3951.00,0.0520
3950.00,0.0520
3949.00,0.0521
3948.00,0.0521
3947.00,0.0521
3946.00,0.0521
3945.00,0.0521
3944.00,0.0521
3943.00,0.0521
3942.00,0.0521
3941.00,0.0521
3940.00,0.0522
3939.00,0.0522
3938.00,0.0523
3937.00,0.0523
3936.00,0.0522
3935.00,0.0522
3934.00,0.0522
3933.00,0.0522
3932.00,0.0522
3931.00,0.0522
3930.00,0.0521
3929.00,0.0521
3928.00,0.0521
3927.00,0.0521
3926.00,0.0521
3925.00,0.0521
3924.00,0.0521
3923.00,0.0521
3922.00,0.0521
3921.00,0.0521
3920.00,0.0522
3919.00,0.0522
3918.00,0.0522
3917.00,0.0521
3916.00,0.0521
3915.00,0.0520
3914.00,0.0520
3913.00,0.0520
3912.00,0.0521
3911.00,0.0521
3910.00,0.0521
3909.00,0.0521
3908.00,0.0521
3907.00,0.0521
3906.00,0.0521
3905.00,0.0521
3904.00,0.0521
3903.00,0.0521
3902.00,0.0521
3901.00,0.0521
3900.00,0.0521
3899.00,0.0522
3898.00,0.0522
3897.00,0.0522
3896.00,0.0522
3895.00,0.0522
3894.00,0.0522
3893.00,0.0522
3892.00,0.0522
3891.00,0.0522
3890.00,0.0521
3889.00,0.0521
3888.00,0.0522
3887.00,0.0522
3886.00,0.0523
3885.00,0.0523
3884.00,0.0523
3883.00,0.0523
3882.00,0.0523
3881.00,0.0523
3880.00,0.0524
3879.00,0.0524
3878.00,0.0524
3877.00,0.0524
3876.00,0.0524
3875.00,0.0524
3874.00,0.0524
3873.00,0.0524
3872.00,0.0525
3871.00,0.0525
3870.00,0.0525
3869.00,0.0524
3868.00,0.0524
3867.00,0.0525
3866.00,0.0525
3865.00,0.0525
3864.00,0.0525
3863.00,0.0525
3862.00,0.0525
3861.00,0.0525
3860.00,0.0525
3859.00,0.0524
3858.00,0.0524
3857.00,0.0523
3856.00,0.0522
3855.00,0.0522
3854.00,0.0522
3853.00,0.0522
3852.00,0.0522
3851.00,0.0522
3850.00,0.0523
3849.00,0.0524
3848.00,0.0525
3847.00,0.0525
3846.00,0.0526
3845.00,0.0526
3844.00,0.0526
3843.00,0.0526
3842.00,0.0527
3841.00,0.0527
3840.00,0.0527
3839.00,0.0526
3838.00,0.0526
3837.00,0.0527
3836.00,0.0527
3835.00,0.0527
3834.00,0.0527
3833.00,0.0527
3832.00,0.0527
3831.00,0.0526
3830.00,0.0526
3829.00,0.0526
3828.00,0.0526
3827.00,0.0526
3826.00,0.0526
3825.00,0.0526
3824.00,0.0527
3823.00,0.0527
3822.00,0.0528
3821.00,0.0528
3820.00,0.0528
3819.00,0.0527
3818.00,0.0527
3817.00,0.0526
3816.00,0.0526
3815.00,0.0526
3814.00,0.0526
3813.00,0.0526
3812.00,0.0526
3811.00,0.0526
3810.00,0.0526
3809.00,0.0526
3808.00,0.0526
3807.00,0.0526
3806.00,0.0526
3805.00,0.0526
3804.00,0.0526
3803.00,0.0526
3802.00,0.0526
3801.00,0.0527
3800.00,0.0527
3799.00,0.0527
3798.00,0.0527
3797.00,0.0527
3796.00,0.0528
3795.00,0.0527
3794.00,0.0527
3793.00,0.0527
3792.00,0.0527
3791.00,0.0527
3790.00,0.0527
3789.00,0.0526
3788.00,0.0526
3787.00,0.0526
3786.00,0.0527
3785.00,0.0527
3784.00,0.0528
3783.00,0.0528
3782.00,0.0528
3781.00,0.0528
3780.00,0.0528
3779.00,0.0528
3778.00,0.0527
3777.00,0.0527
3776.00,0.0527
3775.00,0.0527
3774.00,0.0527
3773.00,0.0527
3772.00,0.0528
3771.00,0.0528
3770.00,0.0529
3769.00,0.0529
3768.00,0.0529
3767.00,0.0528
3766.00,0.0528
3765.00,0.0528
3764.00,0.0528
3763.00,0.0528
3762.00,0.0528
3761.00,0.0528
3760.00,0.0528
3759.00,0.0529
3758.00,0.0528
3757.00,0.0528
3756.00,0.0528
3755.00,0.0527
3754.00,0.0527
3753.00,0.0526
3752.00,0.0527
3751.00,0.0527
3750.00,0.0527
3749.00,0.0527
3748.00,0.0527
3747.00,0.0526
3746.00,0.0526
3745.00,0.0526
3744.00,0.0526
3743.00,0.0526
3742.00,0.0526
3741.00,0.0526
3740.00,0.0526
3739.00,0.0526
3738.00,0.0527
3737.00,0.0527
3736.00,0.0527
3735.00,0.0527
3734.00,0.0528
3733.00,0.0528
3732.00,0.0528
3731.00,0.0527
3730.00,0.0526
3729.00,0.0526
3728.00,0.0525
3727.00,0.0525
3726.00,0.0526
3725.00,0.0526
3724.00,0.0526
3723.00,0.0527
3722.00,0.0527
3721.00,0.0527
3720.00,0.0527
3719.00,0.0527
3718.00,0.0527
3717.00,0.0526
3716.00,0.0526
3715.00,0.0527
3714.00,0.0527
3713.00,0.0527
3712.00,0.0527
3711.00,0.0527
3710.00,0.0528
3709.00,0.0527
3708.00,0.0527
3707.00,0.0527
3706.00,0.0527
3705.00,0.0526
3704.00,0.0527
3703.00,0.0527
3702.00,0.0528
3701.00,0.0528
3700.00,0.0528
3699.00,0.0528
3698.00,0.0528
3697.00,0.0528
3696.00,0.0528
3695.00,0.0528
3694.00,0.0528
3693.00,0.0528
3692.00,0.0529
3691.00,0.0529
3690.00,0.0529
3689.00,0.0530
3688.00,0.0530
3687.00,0.0531
3686.00,0.0531
3685.00,0.0532
3684.00,0.0533
3683.00,0.0533
3682.00,0.0534
3681.00,0.0535
3680.00,0.0535
3679.00,0.0536
3678.00,0.0537
3677.00,0.0538
3676.00,0.0539
3675.00,0.0540
3674.00,0.0540
3673.00,0.0540
3672.00,0.0540
3671.00,0.0541
3670.00,0.0541
3669.00,0.0542
3668.00,0.0542
3667.00,0.0542
3666.00,0.0542
3665.00,0.0543
3664.00,0.0544
3663.00,0.0544
3662.00,0.0545
3661.00,0.0545
3660.00,0.0544
3659.00,0.0544
3658.00,0.0544
3657.00,0.0545
3656.00,0.0545
3655.00,0.0545
3654.00,0.0545
3653.00,0.0545
3652.00,0.0545
3651.00,0.0545
3650.00,0.0546
3649.00,0.0547
3648.00,0.0547
3647.00,0.0548
3646.00,0.0547
3645.00,0.0547
3644.00,0.0546
3643.00,0.0546
3642.00,0.0546
3641.00,0.0545
3640.00,0.0545
3639.00,0.0545
3638.00,0.0545
3637.00,0.0545
3636.00,0.0544
3635.00,0.0544
3634.00,0.0543
3633.00,0.0542
3632.00,0.0541
3631.00,0.0541
3630.00,0.0541
3629.00,0.0541
3628.00,0.0541
3627.00,0.0540
3626.00,0.0541
3625.00,0.0541
3624.00,0.0542
3623.00,0.0542
3622.00,0.0542
3621.00,0.0543
3620.00,0.0543
3619.00,0.0543
3618.00,0.0543
3617.00,0.0543
3616.00,0.0543
3615.00,0.0543
3614.00,0.0543
3613.00,0.0543
3612.00,0.0544
3611.00,0.0544
3610.00,0.0543
3609.00,0.0543
3608.00,0.0543
3607.00,0.0543
3606.00,0.0543
3605.00,0.0543
3604.00,0.0543
3603.00,0.0544
3602.00,0.0544
3601.00,0.0545
3600.00,0.0545
3599.00,0.0545
3598.00,0.0545
3597.00,0.0545
3596.00,0.0545
3595.00,0.0546
3594.00,0.0546
3593.00,0.0546
3592.00,0.0546
3591.00,0.0546
3590.00,0.0546
3589.00,0.0547
3588.00,0.0547
3587.00,0.0547
3586.00,0.0547
3585.00,0.0547
3584.00,0.0547
3583.00,0.0548
3582.00,0.0548
3581.00,0.0548
3580.00,0.0549
3579.00,0.0549
3578.00,0.0550
3577.00,0.0550
3576.00,0.0550
3575.00,0.0551
3574.00,0.0551
3573.00,0.0551
3572.00,0.0550
3571.00,0.0550
3570.00,0.0551
3569.00,0.0551
3568.00,0.0552
3567.00,0.0553
3566.00,0.0554
3565.00,0.0554
3564.00,0.0554
3563.00,0.0554
3562.00,0.0555
3561.00,0.0555
3560.00,0.0556
3559.00,0.0556
3558.00,0.0556
3557.00,0.0557
3556.00,0.0557
3555.00,0.0557
3554.00,0.0558
3553.00,0.0558
3552.00,0.0558
3551.00,0.0559
3550.00,0.0559
3549.00,0.0560
3548.00,0.0560
3547.00,0.0561
3546.00,0.0561
3545.00,0.0561
3544.00,0.0561
3543.00,0.0562
3542.00,0.0562
3541.00,0.0563
3540.00,0.0563
3539.00,0.0564
3538.00,0.0564
3537.00,0.0565
3536.00,0.0566
3535.00,0.0566
3534.00,0.0566
3533.00,0.0567
3532.00,0.0567
3531.00,0.0567
3530.00,0.0567
3529.00,0.0568
3528.00,0.0568
3527.00,0.0568
3526.00,0.0569
3525.00,0.0569
3524.00,0.0569
3523.00,0.0569
3522.00,0.0570
3521.00,0.0570
3520.00,0.0571
3519.00,0.0571
3518.00,0.0571
3517.00,0.0571
3516.00,0.0571
3515.00,0.0571
3514.00,0.0572
3513.00,0.0572
3512.00,0.0573
3511.00,0.0573
3510.00,0.0574
3509.00,0.0574
3508.00,0.0575
3507.00,0.0575
3506.00,0.0575
3505.00,0.0575
3504.00,0.0576
3503.00,0.0576
3502.00,0.0576
3501.00,0.0576
3500.00,0.0576
3499.00,0.0576
3498.00,0.0576
3497.00,0.0576
3496.00,0.0576
3495.00,0.0577
3494.00,0.0577
3493.00,0.0578
3492.00,0.0579
3491.00,0.0579
3490.00,0.0579
3489.00,0.0580
3488.00,0.0581
3487.00,0.0581
3486.00,0.0581
3485.00,0.0582
3484.00,0.0582
3483.00,0.0582
3482.00,0.0582
3481.00,0.0582
3480.00,0.0583
3479.00,0.0583
3478.00,0.0584
3477.00,0.0584
3476.00,0.0585
3475.00,0.0585
3474.00,0.0585
3473.00,0.0586
3472.00,0.0586
3471.00,0.0587
3470.00,0.0587
3469.00,0.0587
3468.00,0.0588
3467.00,0.0588
3466.00,0.0589
3465.00,0.0589
3464.00,0.0590
3463.00,0.0591
3462.00,0.0591
3461.00,0.0591
3460.00,0.0591
3459.00,0.0592
3458.00,0.0593
3457.00,0.0593
3456.00,0.0594
3455.00,0.0595
3454.00,0.0595
3453.00,0.0595
3452.00,0.0596
3451.00,0.0596
3450.00,0.0596
3449.00,0.0596
3448.00,0.0597
3447.00,0.0597
3446.00,0.0597
3445.00,0.0597
3444.00,0.0598
3443.00,0.0598
3442.00,0.0598
3441.00,0.0599
3440.00,0.0599
3439.00,0.0599
3438.00,0.0599
3437.00,0.0599
3436.00,0.0599
3435.00,0.0600
3434.00,0.0601
3433.00,0.0601
3432.00,0.0602
3431.00,0.0603
3430.00,0.0604
3429.00,0.0606
3428.00,0.0607
3427.00,0.0608
3426.00,0.0609
3425.00,0.0610
3424.00,0.0610
3423.00,0.0611
3422.00,0.0611
3421.00,0.0612
3420.00,0.0613
3419.00,0.0613
3418.00,0.0614
3417.00,0.0615
3416.00,0.0615
3415.00,0.0615
3414.00,0.0615
3413.00,0.0616
3412.00,0.0616
3411.00,0.0617
3410.00,0.0617
3409.00,0.0618
3408.00,0.0619
3407.00,0.0620
3406.00,0.0620
3405.00,0.0620
3404.00,0.0619
3403.00,0.0618
3402.00,0.0617
3401.00,0.0616
3400.00,0.0617
3399.00,0.0617
3398.00,0.0617
3397.00,0.0617
3396.00,0.0617
3395.00,0.0617
3394.00,0.0616
3393.00,0.0616
3392.00,0.0616
3391.00,0.0616
3390.00,0.0617
3389.00,0.0617
3388.00,0.0617
3387.00,0.0617
3386.00,0.0617
3385.00,0.0618
3384.00,0.0618
3383.00,0.0618
3382.00,0.0617
3381.00,0.0617
3380.00,0.0618
3379.00,0.0618
3378.00,0.0618
3377.00,0.0618
3376.00,0.0619
3375.00,0.0619
3374.00,0.0619
3373.00,0.0619
3372.00,0.0619
3371.00,0.0618
3370.00,0.0618
3369.00,0.0618
3368.00,0.0619
3367.00,0.0619
3366.00,0.0620
3365.00,0.0620
3364.00,0.0621
3363.00,0.0621
3362.00,0.0621
3361.00,0.0621
3360.00,0.0622
3359.00,0.0623
3358.00,0.0623
3357.00,0.0624
3356.00,0.0624
3355.00,0.0625
3354.00,0.0625
3353.00,0.0625
3352.00,0.0625
3351.00,0.0625
3350.00,0.0625
3349.00,0.0626
3348.00,0.0627
3347.00,0.0627
3346.00,0.0627
3345.00,0.0627
3344.00,0.0627
3343.00,0.0627
3342.00,0.0627
3341.00,0.0627
3340.00,0.0627
3339.00,0.0627
3338.00,0.0628
3337.00,0.0629
3336.00,0.0629
3335.00,0.0631
3334.00,0.0632
3333.00,0.0632
3332.00,0.0633
3331.00,0.0633
3330.00,0.0633
3329.00,0.0633
3328.00,0.0633
3327.00,0.0633
3326.00,0.0633
3325.00,0.0634
3324.00,0.0634
3323.00,0.0635
3322.00,0.0635
3321.00,0.0636
3320.00,0.0636
3319.00,0.0637
3318.00,0.0637
3317.00,0.0638
3316.00,0.0638
3315.00,0.0638
3314.00,0.0639
3313.00,0.0639
3312.00,0.0639
3311.00,0.0638
3310.00,0.0638
3309.00,0.0638
3308.00,0.0637
3307.00,0.0637
3306.00,0.0637
3305.00,0.0638
3304.00,0.0639
3303.00,0.0640
3302.00,0.0641
3301.00,0.0642
3300.00,0.0643
3299.00,0.0643
3298.00,0.0643
3297.00,0.0644
3296.00,0.0644
3295.00,0.0643
3294.00,0.0643
3293.00,0.0643
3292.00,0.0644
3291.00,0.0645
3290.00,0.0647
3289.00,0.0648
3288.00,0.0649
3287.00,0.0649
3286.00,0.0649
3285.00,0.0650
3284.00,0.0650
3283.00,0.0651
3282.00,0.0651
3281.00,0.0652
3280.00,0.0652
3279.00,0.0653
3278.00,0.0653
3277.00,0.0653
3276.00,0.0653
3275.00,0.0653
3274.00,0.0652
3273.00,0.0652
3272.00,0.0652
3271.00,0.0653
3270.00,0.0654
3269.00,0.0655
3268.00,0.0657
3267.00,0.0658
3266.00,0.0658
3265.00,0.0659
3264.00,0.0659
3263.00,0.0660
3262.00,0.0661
3261.00,0.0661
3260.00,0.0662
3259.00,0.0662
3258.00,0.0662
3257.00,0.0661
3256.00,0.0662
3255.00,0.0662
3254.00,0.0663
3253.00,0.0664
3252.00,0.0665
3251.00,0.0665
3250.00,0.0665
3249.00,0.0664
3248.00,0.0664
3247.00,0.0664
3246.00,0.0665
3245.00,0.0666
3244.00,0.0667
3243.00,0.0668
3242.00,0.0669
3241.00,0.0670
3240.00,0.0670
3239.00,0.0670
3238.00,0.0670
3237.00,0.0670
3236.00,0.0668
3235.00,0.0667
3234.00,0.0667
3233.00,0.0668
3232.00,0.0670
3231.00,0.0672
3230.00,0.0674
3229.00,0.0675
3228.00,0.0675
3227.00,0.0676
3226.00,0.0676
3225.00,0.0677
3224.00,0.0678
3223.00,0.0678
3222.00,0.0678
3221.00,0.0678
3220.00,0.0678
3219.00,0.0678
3218.00,0.0678
3217.00,0.0679
3216.00,0.0680
3215.00,0.0680
3214.00,0.0681
3213.00,0.0682
3212.00,0.0682
3211.00,0.0683
3210.00,0.0683
3209.00,0.0684
3208.00,0.0684
3207.00,0.0684
3206.00,0.0685
3205.00,0.0685
3204.00,0.0685
3203.00,0.0686
3202.00,0.0686
3201.00,0.0686
3200.00,0.0687
3199.00,0.0687
3198.00,0.0687
3197.00,0.0688
3196.00,0.0688
3195.00,0.0688
3194.00,0.0689
3193.00,0.0689
3192.00,0.0689
3191.00,0.0689
3190.00,0.0690
3189.00,0.0690
3188.00,0.0691
3187.00,0.0691
3186.00,0.0692
3185.00,0.0692
3184.00,0.0693
3183.00,0.0693
3182.00,0.0693
3181.00,0.0693
3180.00,0.0693
3179.00,0.0693
3178.00,0.0694
3177.00,0.0694
3176.00,0.0694
3175.00,0.0694
3174.00,0.0695
3173.00,0.0695
3172.00,0.0695
3171.00,0.0696
3170.00,0.0696
3169.00,0.0696
3168.00,0.0696
3167.00,0.0696
3166.00,0.0696
3165.00,0.0696
3164.00,0.0696
3163.00,0.0696
3162.00,0.0696
3161.00,0.0697
3160.00,0.0697
3159.00,0.0697
3158.00,0.0697
3157.00,0.0697
3156.00,0.0697
3155.00,0.0696
3154.00,0.0696
3153.00,0.0695
3152.00,0.0696
3151.00,0.0696
3150.00,0.0698
3149.00,0.0699
3148.00,0.0699
3147.00,0.0700
3146.00,0.0700
3145.00,0.0701
3144.00,0.0701
3143.00,0.0700
3142.00,0.0700
3141.00,0.0699
3140.00,0.0699
3139.00,0.0699
3138.00,0.0700
3137.00,0.0702
3136.00,0.0703
3135.00,0.0704
3134.00,0.0705
3133.00,0.0705
3132.00,0.0705
3131.00,0.0706
3130.00,0.0706
3129.00,0.0707
3128.00,0.0708
3127.00,0.0708
3126.00,0.0709
3125.00,0.0709
3124.00,0.0709
3123.00,0.0708
3122.00,0.0707
3121.00,0.0707
3120.00,0.0706
3119.00,0.0707
3118.00,0.0708
3117.00,0.0709
3116.00,0.0710
3115.00,0.0712
3114.00,0.0714
3113.00,0.0715
3112.00,0.0716
3111.00,0.0715
3110.00,0.0715
3109.00,0.0715
3108.00,0.0716
3107.00,0.0717
3106.00,0.0718
3105.00,0.0719
3104.00,0.0719
3103.00,0.0719
3102.00,0.0719
3101.00,0.0719
3100.00,0.0719
3099.00,0.0720
3098.00,0.0720
3097.00,0.0721
3096.00,0.0721
3095.00,0.0722
3094.00,0.0721
3093.00,0.0721
3092.00,0.0721
3091.00,0.0721
3090.00,0.0722
3089.00,0.0722
3088.00,0.0723
3087.00,0.0723
3086.00,0.0723
3085.00,0.0723
3084.00,0.0723
3083.00,0.0723
3082.00,0.0722
3081.00,0.0722
3080.00,0.0723
3079.00,0.0723
3078.00,0.0724
3077.00,0.0726
3076.00,0.0728
3075.00,0.0729
3074.00,0.0729
3073.00,0.0729
3072.00,0.0729
3071.00,0.0729
3070.00,0.0729
3069.00,0.0729
3068.00,0.0730
3067.00,0.0730
3066.00,0.0731
3065.00,0.0732
3064.00,0.0733
3063.00,0.0733
3062.00,0.0733
3061.00,0.0734
3060.00,0.0734
3059.00,0.0734
3058.00,0.0735
3057.00,0.0735
3056.00,0.0735
3055.00,0.0736
3054.00,0.0736
3053.00,0.0736
3052.00,0.0736
3051.00,0.0736
3050.00,0.0737
3049.00,0.0737
3048.00,0.0738
3047.00,0.0738
3046.00,0.0738
3045.00,0.0738
3044.00,0.0738
3043.00,0.0739
3042.00,0.0740
3041.00,0.0741
3040.00,0.0742
3039.00,0.0743
3038.00,0.0744
3037.00,0.0744
3036.00,0.0744
3035.00,0.0744
3034.00,0.0746
3033.00,0.0747
3032.00,0.0749
3031.00,0.0750
3030.00,0.0752
3029.00,0.0753
3028.00,0.0755
3027.00,0.0756
3026.00,0.0757
3025.00,0.0759
3024.00,0.0762
3023.00,0.0764
3022.00,0.0766
3021.00,0.0769
3020.00,0.0771
3019.00,0.0774
3018.00,0.0777
3017.00,0.0780
3016.00,0.0782
3015.00,0.0785
3014.00,0.0789
3013.00,0.0793
3012.00,0.0797
3011.00,0.0801
3010.00,0.0806
3009.00,0.0811
3008.00,0.0815
3007.00,0.0819
3006.00,0.0822
3005.00,0.0825
3004.00,0.0828
3003.00,0.0830
3002.00,0.0832
3001.00,0.0834
3000.00,0.0835
2999.00,0.0836
2998.00,0.0836
2997.00,0.0837
2996.00,0.0837
2995.00,0.0837
2994.00,0.0837
2993.00,0.0837
2992.00,0.0838
2991.00,0.0838
2990.00,0.0839
2989.00,0.0840
2988.00,0.0841
2987.00,0.0843
2986.00,0.0846
2985.00,0.0851
2984.00,0.0858
2983.00,0.0866
2982.00,0.0872
2981.00,0.0874
2980.00,0.0874
2979.00,0.0871
2978.00,0.0868
2977.00,0.0865
2976.00,0.0864
2975.00,0.0863
2974.00,0.0865
2973.00,0.0867
2972.00,0.0869
2971.00,0.0869
2970.00,0.0868
2969.00,0.0866
2968.00,0.0864
2967.00,0.0861
2966.00,0.0859
2965.00,0.0857
2964.00,0.0854
2963.00,0.0852
2962.00,0.0850
2961.00,0.0847
2960.00,0.0845
2959.00,0.0843
2958.00,0.0841
2957.00,0.0839
2956.00,0.0837
2955.00,0.0835
2954.00,0.0832
2953.00,0.0830
2952.00,0.0827
2951.00,0.0825
2950.00,0.0823
2949.00,0.0821
2948.00,0.0819
2947.00,0.0817
2946.00,0.0815
2945.00,0.0814
2944.00,0.0813
2943.00,0.0813
2942.00,0.0813
2941.00,0.0813
2940.00,0.0814
2939.00,0.0814
2938.00,0.0814
2937.00,0.0815
2936.00,0.0817
2935.00,0.0819
2934.00,0.0821
2933.00,0.0823
2932.00,0.0826
2931.00,0.0828
2930.00,0.0830
2929.00,0.0832
2928.00,0.0835
2927.00,0.0837
2926.00,0.0838
2925.00,0.0839
2924.00,0.0840
2923.00,0.0840
2922.00,0.0840
2921.00,0.0839
2920.00,0.0837
2919.00,0.0835
2918.00,0.0833
2917.00,0.0830
2916.00,0.0827
2915.00,0.0825
2914.00,0.0823
2913.00,0.0821
2912.00,0.0820
2911.00,0.0819
2910.00,0.0818
2909.00,0.0817
2908.00,0.0816
2907.00,0.0815
2906.00,0.0813
2905.00,0.0812
2904.00,0.0811
2903.00,0.0810
2902.00,0.0809
2901.00,0.0808
2900.00,0.0807
2899.00,0.0807
2898.00,0.0806
2897.00,0.0805
2896.00,0.0805
2895.00,0.0805
2894.00,0.0805
2893.00,0.0805
2892.00,0.0805
2891.00,0.0805
2890.00,0.0805
2889.00,0.0805
2888.00,0.0805
2887.00,0.0804
2886.00,0.0803
2885.00,0.0803
2884.00,0.0802
2883.00,0.0802
2882.00,0.0801
2881.00,0.0800
2880.00,0.0799
2879.00,0.0797
2878.00,0.0796
2877.00,0.0794
2876.00,0.0793
2875.00,0.0792
2874.00,0.0791
2873.00,0.0791
2872.00,0.0791
2871.00,0.0791
2870.00,0.0791
2869.00,0.0791
2868.00,0.0790
2867.00,0.0790
2866.00,0.0789
2865.00,0.0789
2864.00,0.0788
2863.00,0.0787
2862.00,0.0787
2861.00,0.0786
2860.00,0.0786
2859.00,0.0786
2858.00,0.0787
2857.00,0.0787
2856.00,0.0787
2855.00,0.0787
2854.00,0.0786
2853.00,0.0786
2852.00,0.0787
2851.00,0.0786
2850.00,0.0786
2849.00,0.0786
2848.00,0.0786
2847.00,0.0786
2846.00,0.0787
2845.00,0.0787
2844.00,0.0788
2843.00,0.0788
2842.00,0.0787
2841.00,0.0787
2840.00,0.0786
2839.00,0.0786
2838.00,0.0786
2837.00,0.0786
2836.00,0.0786
2835.00,0.0786
2834.00,0.0786
2833.00,0.0786
2832.00,0.0787
2831.00,0.0787
2830.00,0.0787
2829.00,0.0787
2828.00,0.0787
2827.00,0.0787
2826.00,0.0787
2825.00,0.0787
2824.00,0.0786
2823.00,0.0786
2822.00,0.0786
2821.00,0.0786
2820.00,0.0786
2819.00,0.0786
2818.00,0.0786
2817.00,0.0786
2816.00,0.0786
2815.00,0.0785
2814.00,0.0785
2813.00,0.0785
2812.00,0.0785
2811.00,0.0786
2810.00,0.0786
2809.00,0.0786
2808.00,0.0786
2807.00,0.0786
2806.00,0.0786
2805.00,0.0785
2804.00,0.0785
2803.00,0.0785
2802.00,0.0786
2801.00,0.0786
2800.00,0.0785
2799.00,0.0785
2798.00,0.0785
2797.00,0.0785
2796.00,0.0785
2795.00,0.0785
2794.00,0.0785
2793.00,0.0785
2792.00,0.0785
2791.00,0.0785
2790.00,0.0785
2789.00,0.0785
2788.00,0.0785
2787.00,0.0785
2786.00,0.0785
2785.00,0.0785
2784.00,0.0785
2783.00,0.0784
2782.00,0.0784
2781.00,0.0784
2780.00,0.0784
2779.00,0.0784
2778.00,0.0784
2777.00,0.0784
2776.00,0.0784
2775.00,0.0783
2774.00,0.0783
2773.00,0.0783
2772.00,0.0783
2771.00,0.0783
2770.00,0.0783
2769.00,0.0783
2768.00,0.0783
2767.00,0.0783
2766.00,0.0783
2765.00,0.0783
2764.00,0.0783
2763.00,0.0783
2762.00,0.0783
2761.00,0.0783
2760.00,0.0783
2759.00,0.0783
2758.00,0.0783
2757.00,0.0784
2756.00,0.0784
2755.00,0.0784
2754.00,0.0784
2753.00,0.0784
2752.00,0.0784
2751.00,0.0784
2750.00,0.0785
2749.00,0.0785
2748.00,0.0785
2747.00,0.0785
2746.00,0.0785
2745.00,0.0786
2744.00,0.0786
2743.00,0.0787
2742.00,0.0787
2741.00,0.0787
2740.00,0.0787
2739.00,0.0788
2738.00,0.0788
2737.00,0.0788
2736.00,0.0788
2735.00,0.0789
2734.00,0.0789
2733.00,0.0789
2732.00,0.0789
2731.00,0.0789
2730.00,0.0790
2729.00,0.0790
2728.00,0.0790
2727.00,0.0791
2726.00,0.0791
2725.00,0.0791
2724.00,0.0791
2723.00,0.0792
2722.00,0.0792
2721.00,0.0793
2720.00,0.0793
2719.00,0.0794
2718.00,0.0794
2717.00,0.0794
2716.00,0.0794
2715.00,0.0794
2714.00,0.0794
2713.00,0.0794
2712.00,0.0794
2711.00,0.0793
2710.00,0.0793
2709.00,0.0793
2708.00,0.0793
2707.00,0.0794
2706.00,0.0794
2705.00,0.0794
2704.00,0.0794
2703.00,0.0794
2702.00,0.0794
2701.00,0.0795
2700.00,0.0795
2699.00,0.0794
2698.00,0.0794
2697.00,0.0794
2696.00,0.0794
2695.00,0.0794
2694.00,0.0794
2693.00,0.0794
2692.00,0.0794
2691.00,0.0794
2690.00,0.0794
2689.00,0.0794
2688.00,0.0795
2687.00,0.0795
2686.00,0.0795
2685.00,0.0795
2684.00,0.0795
2683.00,0.0795
2682.00,0.0796
2681.00,0.0796
2680.00,0.0796
2679.00,0.0796
2678.00,0.0796
2677.00,0.0796
2676.00,0.0796
2675.00,0.0796
2674.00,0.0797
2673.00,0.0797
2672.00,0.0797
2671.00,0.0798
2670.00,0.0798
2669.00,0.0799
2668.00,0.0800
2667.00,0.0800
2666.00,0.0801
2665.00,0.0801
2664.00,0.0802
2663.00,0.0802
2662.00,0.0803
2661.00,0.0804
2660.00,0.0804
2659.00,0.0805
2658.00,0.0805
2657.00,0.0806
2656.00,0.0806
2655.00,0.0806
2654.00,0.0806
2653.00,0.0806
2652.00,0.0806
2651.00,0.0806
2650.00,0.0806
2649.00,0.0806
2648.00,0.0806
2647.00,0.0806
2646.00,0.0806
2645.00,0.0806
2644.00,0.0806
2643.00,0.0806
2642.00,0.0806
2641.00,0.0806
2640.00,0.0806
2639.00,0.0806
2638.00,0.0806
2637.00,0.0806
2636.00,0.0806
2635.00,0.0806
2634.00,0.0806
2633.00,0.0806
2632.00,0.0806
2631.00,0.0806
2630.00,0.0805
2629.00,0.0805
2628.00,0.0804
2627.00,0.0804
2626.00,0.0804
2625.00,0.0804
2624.00,0.0804
2623.00,0.0804
2622.00,0.0804
2621.00,0.0804
2620.00,0.0804
2619.00,0.0803
2618.00,0.0803
2617.00,0.0802
2616.00,0.0802
2615.00,0.0802
2614.00,0.0802
2613.00,0.0802
2612.00,0.0802
2611.00,0.0802
2610.00,0.0801
2609.00,0.0801
2608.00,0.0800
2607.00,0.0800
2606.00,0.0799
2605.00,0.0799
2604.00,0.0799
2603.00,0.0799
2602.00,0.0798
2601.00,0.0798
2600.00,0.0797
2599.00,0.0797
2598.00,0.0797
2597.00,0.0797
2596.00,0.0797
2595.00,0.0796
2594.00,0.0795
2593.00,0.0794
2592.00,0.0794
2591.00,0.0793
2590.00,0.0793
2589.00,0.0792
2588.00,0.0792
2587.00,0.0791
2586.00,0.0791
2585.00,0.0790
2584.00,0.0790
2583.00,0.0790
2582.00,0.0789
2581.00,0.0789
2580.00,0.0789
2579.00,0.0789
2578.00,0.0789
2577.00,0.0788
2576.00,0.0788
2575.00,0.0787
2574.00,0.0787
2573.00,0.0787
2572.00,0.0787
2571.00,0.0787
2570.00,0.0786
2569.00,0.0786
2568.00,0.0786
2567.00,0.0787
2566.00,0.0786
2565.00,0.0786
2564.00,0.0786
2563.00,0.0786
2562.00,0.0787
2561.00,0.0787
2560.00,0.0787
2559.00,0.0787
2558.00,0.0787
2557.00,0.0786
2556.00,0.0786
2555.00,0.0786
2554.00,0.0786
2553.00,0.0786
2552.00,0.0787
2551.00,0.0787
2550.00,0.0788
2549.00,0.0788
2548.00,0.0787
2547.00,0.0787
2546.00,0.0787
2545.00,0.0787
2544.00,0.0788
2543.00,0.0788
2542.00,0.0789
2541.00,0.0789
2540.00,0.0790
2539.00,0.0790
2538.00,0.0790
2537.00,0.0790
2536.00,0.0790
2535.00,0.0790
2534.00,0.0789
2533.00,0.0789
2532.00,0.0789
2531.00,0.0788
2530.00,0.0788
2529.00,0.0788
2528.00,0.0788
2527.00,0.0788
2526.00,0.0788
2525.00,0.0787
2524.00,0.0787
2523.00,0.0787
2522.00,0.0787
2521.00,0.0787
2520.00,0.0787
2519.00,0.0787
2518.00,0.0787
2517.00,0.0786
2516.00,0.0786
2515.00,0.0786
2514.00,0.0785
2513.00,0.0785
2512.00,0.0785
2511.00,0.0785
2510.00,0.0785
2509.00,0.0785
2508.00,0.0786
2507.00,0.0786
2506.00,0.0786
2505.00,0.0786
2504.00,0.0786
2503.00,0.0786
2502.00,0.0786
2501.00,0.0785
2500.00,0.0785
2499.00,0.0785
2498.00,0.0784
2497.00,0.0784
2496.00,0.0784
2495.00,0.0784
2494.00,0.0785
2493.00,0.0785
2492.00,0.0786
2491.00,0.0786
2490.00,0.0786
2489.00,0.0786
2488.00,0.0786
2487.00,0.0786
2486.00,0.0786
2485.00,0.0786
2484.00,0.0787
2483.00,0.0787
2482.00,0.0786
2481.00,0.0786
2480.00,0.0786
2479.00,0.0787
2478.00,0.0787
2477.00,0.0787
2476.00,0.0787
2475.00,0.0787
2474.00,0.0787
2473.00,0.0787
2472.00,0.0787
2471.00,0.0788
2470.00,0.0788
2469.00,0.0788
2468.00,0.0788
2467.00,0.0787
2466.00,0.0788
2465.00,0.0788
2464.00,0.0789
2463.00,0.0790
2462.00,0.0790
2461.00,0.0790
2460.00,0.0790
2459.00,0.0790
2458.00,0.0790
2457.00,0.0791
2456.00,0.0791
2455.00,0.0791
2454.00,0.0790
2453.00,0.0790
2452.00,0.0790
2451.00,0.0791
2450.00,0.0791
2449.00,0.0791
2448.00,0.0791
2447.00,0.0790
2446.00,0.0790
2445.00,0.0790
2444.00,0.0789
2443.00,0.0789
2442.00,0.0788
2441.00,0.0788
2440.00,0.0788
2439.00,0.0789
2438.00,0.0789
2437.00,0.0789
2436.00,0.0789
2435.00,0.0789
2434.00,0.0789
2433.00,0.0789
2432.00,0.0789
2431.00,0.0789
2430.00,0.0789
2429.00,0.0789
2428.00,0.0790
2427.00,0.0790
2426.00,0.0790
2425.00,0.0791
2424.00,0.0791
2423.00,0.0790
2422.00,0.0790
2421.00,0.0790
2420.00,0.0790
2419.00,0.0791
2418.00,0.0791
2417.00,0.0791
2416.00,0.0792
2415.00,0.0792
2414.00,0.0792
2413.00,0.0792
2412.00,0.0793
2411.00,0.0793
2410.00,0.0794
2409.00,0.0794
2408.00,0.0793
2407.00,0.0793
2406.00,0.0793
2405.00,0.0794
2404.00,0.0794
2403.00,0.0795
2402.00,0.0795
2401.00,0.0795
2400.00,0.0795
2399.00,0.0795
2398.00,0.0795
2397.00,0.0796
2396.00,0.0796
2395.00,0.0796
2394.00,0.0796
2393.00,0.0797
2392.00,0.0797
2391.00,0.0798
2390.00,0.0798
2389.00,0.0799
2388.00,0.0799
2387.00,0.0799
2386.00,0.0799
2385.00,0.0798
2384.00,0.0798
2383.00,0.0798
2382.00,0.0798
2381.00,0.0799
2380.00,0.0798
2379.00,0.0799
2378.00,0.0799
2377.00,0.0800
2376.00,0.0801
2375.00,0.0801
2374.00,0.0801
2373.00,0.0801
2372.00,0.0801
2371.00,0.0801
2370.00,0.0801
2369.00,0.0801
2368.00,0.0801
2367.00,0.0801
2366.00,0.0801
2365.00,0.0801
2364.00,0.0803
2363.00,0.0803
2362.00,0.0804
2361.00,0.0804
2360.00,0.0803
2359.00,0.0803
2358.00,0.0804
2357.00,0.0805
2356.00,0.0806
2355.00,0.0807
2354.00,0.0806
2353.00,0.0805
2352.00,0.0804
2351.00,0.0803
2350.00,0.0803
2349.00,0.0804
2348.00,0.0805
2347.00,0.0805
2346.00,0.0804
2345.00,0.0805
2344.00,0.0806
2343.00,0.0807
2342.00,0.0809
2341.00,0.0809
2340.00,0.0810
2339.00,0.0810
2338.00,0.0810
2337.00,0.0810
2336.00,0.0810
2335.00,0.0810
2334.00,0.0811
2333.00,0.0811
2332.00,0.0811
2331.00,0.0811
2330.00,0.0811
2329.00,0.0814
2328.00,0.0818
2327.00,0.0822
2326.00,0.0825
2325.00,0.0825
2324.00,0.0822
2323.00,0.0819
2322.00,0.0817
2321.00,0.0815
2320.00,0.0814
2319.00,0.0813
2318.00,0.0813
2317.00,0.0812
2316.00,0.0811
2315.00,0.0810
2314.00,0.0809
2313.00,0.0808
2312.00,0.0807
2311.00,0.0806
2310.00,0.0806
2309.00,0.0806
2308.00,0.0806
2307.00,0.0806
2306.00,0.0807
2305.00,0.0807
2304.00,0.0807
2303.00,0.0806
2302.00,0.0805
2301.00,0.0805
2300.00,0.0806
2299.00,0.0806
2298.00,0.0807
2297.00,0.0808
2296.00,0.0809
2295.00,0.0810
2294.00,0.0812
2293.00,0.0813
2292.00,0.0814
2291.00,0.0814
2290.00,0.0815
2289.00,0.0817
2288.00,0.0818
2287.00,0.0818
2286.00,0.0818
2285.00,0.0817
2284.00,0.0815
2283.00,0.0814
2282.00,0.0813
2281.00,0.0813
2280.00,0.0813
2279.00,0.0812
2278.00,0.0811
2277.00,0.0811
2276.00,0.0810
2275.00,0.0809
2274.00,0.0808
2273.00,0.0808
2272.00,0.0807
2271.00,0.0807
2270.00,0.0806
2269.00,0.0806
2268.00,0.0805
2267.00,0.0804
2266.00,0.0804
2265.00,0.0804
2264.00,0.0804
2263.00,0.0805
2262.00,0.0805
2261.00,0.0806
2260.00,0.0806
2259.00,0.0805
2258.00,0.0803
2257.00,0.0801
2256.00,0.0799
2255.00,0.0799
2254.00,0.0798
2253.00,0.0798
2252.00,0.0798
2251.00,0.0798
2250.00,0.0798
2249.00,0.0799
2248.00,0.0799
2247.00,0.0799
2246.00,0.0799
2245.00,0.0799
2244.00,0.0799
2243.00,0.0800
2242.00,0.0800
2241.00,0.0801
2240.00,0.0802
2239.00,0.0803
2238.00,0.0802
2237.00,0.0802
2236.00,0.0801
2235.00,0.0800
2234.00,0.0799
2233.00,0.0799
2232.00,0.0799
2231.00,0.0800
2230.00,0.0800
2229.00,0.0799
2228.00,0.0799
2227.00,0.0799
2226.00,0.0799
2225.00,0.0799
2224.00,0.0799
2223.00,0.0799
2222.00,0.0799
2221.00,0.0799
2220.00,0.0799
2219.00,0.0798
2218.00,0.0797
2217.00,0.0797
2216.00,0.0798
2215.00,0.0799
2214.00,0.0799
2213.00,0.0799
2212.00,0.0799
2211.00,0.0798
2210.00,0.0796
2209.00,0.0796
2208.00,0.0796
2207.00,0.0797
2206.00,0.0798
2205.00,0.0800
2204.00,0.0800
2203.00,0.0800
2202.00,0.0799
2201.00,0.0799
2200.00,0.0800
2199.00,0.0801
2198.00,0.0802
2197.00,0.0802
2196.00,0.0801
2195.00,0.0800
2194.00,0.0799
2193.00,0.0800
2192.00,0.0801
2191.00,0.0801
2190.00,0.0801
2189.00,0.0801
2188.00,0.0801
2187.00,0.0800
2186.00,0.0800
2185.00,0.0798
2184.00,0.0797
2183.00,0.0796
2182.00,0.0796
2181.00,0.0797
2180.00,0.0799
2179.00,0.0798
2178.00,0.0797
2177.00,0.0795
2176.00,0.0794
2175.00,0.0794
2174.00,0.0796
2173.00,0.0800
2172.00,0.0804
2171.00,0.0807
2170.00,0.0808
2169.00,0.0808
2168.00,0.0808
2167.00,0.0807
2166.00,0.0806
2165.00,0.0808
2164.00,0.0809
2163.00,0.0808
2162.00,0.0801
2161.00,0.0788
2160.00,0.0773
2159.00,0.0763
2158.00,0.0760
2157.00,0.0763
2156.00,0.0768
2155.00,0.0771
2154.00,0.0773
2153.00,0.0775
2152.00,0.0777
2151.00,0.0778
2150.00,0.0779
2149.00,0.0778
2148.00,0.0778
2147.00,0.0777
2146.00,0.0776
2145.00,0.0777
2144.00,0.0778
2143.00,0.0779
2142.00,0.0780
2141.00,0.0780
2140.00,0.0781
2139.00,0.0781
2138.00,0.0781
2137.00,0.0780
2136.00,0.0778
2135.00,0.0777
2134.00,0.0777
2133.00,0.0778
2132.00,0.0780
2131.00,0.0781
2130.00,0.0783
2129.00,0.0785
2128.00,0.0787
2127.00,0.0789
2126.00,0.0790
2125.00,0.0791
2124.00,0.0792
2123.00,0.0793
2122.00,0.0793
2121.00,0.0794
2120.00,0.0796
2119.00,0.0798
2118.00,0.0799
2117.00,0.0801
2116.00,0.0803
2115.00,0.0804
2114.00,0.0805
2113.00,0.0805
2112.00,0.0806
2111.00,0.0806
2110.00,0.0806
2109.00,0.0806
2108.00,0.0805
2107.00,0.0804
2106.00,0.0802
2105.00,0.0801
2104.00,0.0802
2103.00,0.0802
2102.00,0.0803
2101.00,0.0804
2100.00,0.0806
2099.00,0.0806
2098.00,0.0806
2097.00,0.0805
2096.00,0.0804
2095.00,0.0804
2094.00,0.0805
2093.00,0.0807
2092.00,0.0810
2091.00,0.0812
2090.00,0.0813
2089.00,0.0813
2088.00,0.0813
2087.00,0.0813
2086.00,0.0813
2085.00,0.0813
2084.00,0.0814
2083.00,0.0815
2082.00,0.0815
2081.00,0.0815
2080.00,0.0815
2079.00,0.0815
2078.00,0.0814
2077.00,0.0813
2076.00,0.0813
2075.00,0.0812
2074.00,0.0811
2073.00,0.0811
2072.00,0.0810
2071.00,0.0810
2070.00,0.0809
2069.00,0.0808
2068.00,0.0806
2067.00,0.0805
2066.00,0.0804
2065.00,0.0804
2064.00,0.0804
2063.00,0.0804
2062.00,0.0803
2061.00,0.0802
2060.00,0.0802
2059.00,0.0803
2058.00,0.0804
2057.00,0.0804
2056.00,0.0803
2055.00,0.0803
2054.00,0.0807
2053.00,0.0812
2052.00,0.0815
2051.00,0.0813
2050.00,0.0808
2049.00,0.0804
2048.00,0.0802
2047.00,0.0800
2046.00,0.0799
2045.00,0.0798
2044.00,0.0797
2043.00,0.0797
2042.00,0.0797
2041.00,0.0797
2040.00,0.0798
2039.00,0.0799
2038.00,0.0797
2037.00,0.0793
2036.00,0.0789
2035.00,0.0786
2034.00,0.0786
2033.00,0.0789
2032.00,0.0793
2031.00,0.0793
2030.00,0.0792
2029.00,0.0791
2028.00,0.0790
2027.00,0.0789
2026.00,0.0787
2025.00,0.0785
2024.00,0.0784
2023.00,0.0783
2022.00,0.0783
2021.00,0.0785
2020.00,0.0788
2019.00,0.0792
2018.00,0.0794
2017.00,0.0795
2016.00,0.0794
2015.00,0.0792
2014.00,0.0790
2013.00,0.0790
2012.00,0.0791
2011.00,0.0792
2010.00,0.0792
2009.00,0.0791
2008.00,0.0790
2007.00,0.0789
2006.00,0.0789
2005.00,0.0790
2004.00,0.0791
2003.00,0.0792
2002.00,0.0794
2001.00,0.0796
2000.00,0.0799
1999.00,0.0802
1998.00,0.0805
1997.00,0.0807
1996.00,0.0808
1995.00,0.0808
1994.00,0.0807
1993.00,0.0807
1992.00,0.0806
1991.00,0.0805
1990.00,0.0805
1989.00,0.0807
1988.00,0.0810
1987.00,0.0812
1986.00,0.0813
1985.00,0.0814
1984.00,0.0815
1983.00,0.0816
1982.00,0.0815
1981.00,0.0814
1980.00,0.0810
1979.00,0.0804
1978.00,0.0799
1977.00,0.0796
1976.00,0.0795
1975.00,0.0794
1974.00,0.0794
1973.00,0.0796
1972.00,0.0798
1971.00,0.0799
1970.00,0.0799
1969.00,0.0798
1968.00,0.0798
1967.00,0.0797
1966.00,0.0796
1965.00,0.0797
1964.00,0.0800
1963.00,0.0801
1962.00,0.0801
1961.00,0.0799
1960.00,0.0798
1959.00,0.0798
1958.00,0.0798
1957.00,0.0799
1956.00,0.0801
1955.00,0.0802
1954.00,0.0804
1953.00,0.0806
1952.00,0.0808
1951.00,0.0809
1950.00,0.0808
1949.00,0.0808
1948.00,0.0809
1947.00,0.0809
1946.00,0.0810
1945.00,0.0811
1944.00,0.0813
1943.00,0.0813
1942.00,0.0814
1941.00,0.0815
1940.00,0.0816
1939.00,0.0816
1938.00,0.0816
1937.00,0.0816
1936.00,0.0817
1935.00,0.0817
1934.00,0.0818
1933.00,0.0818
1932.00,0.0819
1931.00,0.0820
1930.00,0.0820
1929.00,0.0821
1928.00,0.0823
1927.00,0.0824
1926.00,0.0826
1925.00,0.0827
1924.00,0.0828
1923.00,0.0828
1922.00,0.0829
1921.00,0.0831
1920.00,0.0832
1919.00,0.0833
1918.00,0.0832
1917.00,0.0831
1916.00,0.0832
1915.00,0.0832
1914.00,0.0833
1913.00,0.0833
1912.00,0.0833
1911.00,0.0832
1910.00,0.0832
1909.00,0.0832
1908.00,0.0833
1907.00,0.0833
1906.00,0.0833
1905.00,0.0833
1904.00,0.0832
1903.00,0.0832
1902.00,0.0831
1901.00,0.0832
1900.00,0.0832
1899.00,0.0832
1898.00,0.0832
1897.00,0.0832
1896.00,0.0833
1895.00,0.0833
1894.00,0.0833
1893.00,0.0834
1892.00,0.0835
1891.00,0.0835
1890.00,0.0834
1889.00,0.0833
1888.00,0.0833
1887.00,0.0834
1886.00,0.0835
1885.00,0.0836
1884.00,0.0836
1883.00,0.0837
1882.00,0.0837
1881.00,0.0838
1880.00,0.0839
1879.00,0.0840
1878.00,0.0841
1877.00,0.0842
1876.00,0.0842
1875.00,0.0842
1874.00,0.0842
1873.00,0.0843
1872.00,0.0846
1871.00,0.0848
1870.00,0.0848
1869.00,0.0848
1868.00,0.0848
1867.00,0.0848
1866.00,0.0849
1865.00,0.0849
1864.00,0.0849
1863.00,0.0849
1862.00,0.0850
1861.00,0.0851
1860.00,0.0852
1859.00,0.0853
1858.00,0.0854
1857.00,0.0854
1856.00,0.0855
1855.00,0.0855
1854.00,0.0856
1853.00,0.0856
1852.00,0.0857
1851.00,0.0858
1850.00,0.0858
1849.00,0.0858
1848.00,0.0859
1847.00,0.0860
1846.00,0.0860
1845.00,0.0859
1844.00,0.0856
1843.00,0.0855
1842.00,0.0856
1841.00,0.0858
1840.00,0.0859
1839.00,0.0859
1838.00,0.0859
1837.00,0.0859
1836.00,0.0860
1835.00,0.0861
1834.00,0.0861
1833.00,0.0863
1832.00,0.0864
1831.00,0.0865
1830.00,0.0864
1829.00,0.0864
1828.00,0.0865
1827.00,0.0866
1826.00,0.0866
1825.00,0.0866
1824.00,0.0866
1823.00,0.0868
1822.00,0.0869
1821.00,0.0869
1820.00,0.0869
1819.00,0.0869
1818.00,0.0869
1817.00,0.0869
1816.00,0.0871
1815.00,0.0873
1814.00,0.0875
1813.00,0.0877
1812.00,0.0878
1811.00,0.0879
1810.00,0.0879
1809.00,0.0879
1808.00,0.0880
1807.00,0.0881
1806.00,0.0882
1805.00,0.0883
1804.00,0.0884
1803.00,0.0884
1802.00,0.0884
1801.00,0.0884
1800.00,0.0884
1799.00,0.0884
1798.00,0.0884
1797.00,0.0886
1796.00,0.0888
1795.00,0.0890
1794.00,0.0891
1793.00,0.0891
1792.00,0.0890
1791.00,0.0889
1790.00,0.0889
1789.00,0.0891
1788.00,0.0892
1787.00,0.0892
1786.00,0.0892
1785.00,0.0893
1784.00,0.0894
1783.00,0.0896
1782.00,0.0898
1781.00,0.0899
1780.00,0.0899
1779.00,0.0901
1778.00,0.0902
1777.00,0.0905
1776.00,0.0908
1775.00,0.0912
1774.00,0.0915
1773.00,0.0918
1772.00,0.0920
1771.00,0.0922
1770.00,0.0924
1769.00,0.0926
1768.00,0.0927
1767.00,0.0929
1766.00,0.0932
1765.00,0.0937
1764.00,0.0942
1763.00,0.0945
1762.00,0.0947
1761.00,0.0951
1760.00,0.0957
1759.00,0.0964
1758.00,0.0969
1757.00,0.0973
1756.00,0.0977
1755.00,0.0982
1754.00,0.0987
1753.00,0.0992
1752.00,0.0995
1751.00,0.0998
1750.00,0.1002
1749.00,0.1008
1748.00,0.1014
1747.00,0.1021
1746.00,0.1028
1745.00,0.1037
1744.00,0.1048
1743.00,0.1060
1742.00,0.1076
1741.00,0.1096
1740.00,0.1120
1739.00,0.1149
1738.00,0.1182
1737.00,0.1221
1736.00,0.1266
1735.00,0.1323
1734.00,0.1393
1733.00,0.1466
1732.00,0.1533
1731.00,0.1587
1730.00,0.1627
1729.00,0.1653
1728.00,0.1664
1727.00,0.1659
1726.00,0.1640
1725.00,0.1611
1724.00,0.1578
1723.00,0.1544
1722.00,0.1516
1721.00,0.1497
1720.00,0.1487
1719.00,0.1488
1718.00,0.1503
1717.00,0.1535
1716.00,0.1579
1715.00,0.1630
1714.00,0.1683
1713.00,0.1734
1712.00,0.1779
1711.00,0.1813
1710.00,0.1837
1709.00,0.1851
1708.00,0.1855
1707.00,0.1850
1706.00,0.1835
1705.00,0.1811
1704.00,0.1782
1703.00,0.1749
1702.00,0.1708
1701.00,0.1652
1700.00,0.1591
1699.00,0.1542
1698.00,0.1508
1697.00,0.1477
1696.00,0.1441
1695.00,0.1408
1694.00,0.1386
1693.00,0.1374
1692.00,0.1364
1691.00,0.1355
1690.00,0.1348
1689.00,0.1343
1688.00,0.1342
1687.00,0.1343
1686.00,0.1345
1685.00,0.1347
1684.00,0.1348
1683.00,0.1350
1682.00,0.1355
1681.00,0.1360
1680.00,0.1364
1679.00,0.1368
1678.00,0.1374
1677.00,0.1380
1676.00,0.1386
1675.00,0.1393
1674.00,0.1402
1673.00,0.1413
1672.00,0.1425
1671.00,0.1435
1670.00,0.1444
1669.00,0.1455
1668.00,0.1467
1667.00,0.1481
1666.00,0.1495
1665.00,0.1510
1664.00,0.1527
1663.00,0.1546
1662.00,0.1566
1661.00,0.1587
1660.00,0.1610
1659.00,0.1635
1658.00,0.1660
1657.00,0.1686
1656.00,0.1714
1655.00,0.1744
1654.00,0.1780
1653.00,0.1824
1652.00,0.1870
1651.00,0.1913
1650.00,0.1951
1649.00,0.1987
1648.00,0.2027
1647.00,0.2076
1646.00,0.2127
1645.00,0.2179
1644.00,0.2231
1643.00,0.2281
1642.00,0.2331
1641.00,0.2384
1640.00,0.2441
1639.00,0.2497
1638.00,0.2552
1637.00,0.2612
1636.00,0.2680
1635.00,0.2748
1634.00,0.2811
1633.00,0.2868
1632.00,0.2921
1631.00,0.2973
1630.00,0.3024
1629.00,0.3078
1628.00,0.3133
1627.00,0.3185
1626.00,0.3232
1625.00,0.3277
1624.00,0.3323
1623.00,0.3367
1622.00,0.3408
1621.00,0.3443
1620.00,0.3475
1619.00,0.3504
1618.00,0.3532
1617.00,0.3561
1616.00,0.3592
1615.00,0.3618
1614.00,0.3637
1613.00,0.3652
1612.00,0.3665
1611.00,0.3678
1610.00,0.3690
1609.00,0.3700
1608.00,0.3708
1607.00,0.3714
1606.00,0.3716
1605.00,0.3716
1604.00,0.3714
1603.00,0.3710
1602.00,0.3702
1601.00,0.3690
1600.00,0.3678
1599.00,0.3663
1598.00,0.3644
1597.00,0.3623
1596.00,0.3599
1595.00,0.3575
1594.00,0.3547
1593.00,0.3518
1592.00,0.3488
1591.00,0.3457
1590.00,0.3423
1589.00,0.3387
1588.00,0.3352
1587.00,0.3316
1586.00,0.3279
1585.00,0.3242
1584.00,0.3205
1583.00,0.3168
1582.00,0.3131
1581.00,0.3094
1580.00,0.3059
1579.00,0.3026
1578.00,0.2992
1577.00,0.2954
1576.00,0.2916
1575.00,0.2880
1574.00,0.2848
1573.00,0.2819
1572.00,0.2789
1571.00,0.2757
1570.00,0.2725
1569.00,0.2693
1568.00,0.2666
1567.00,0.2642
1566.00,0.2617
1565.00,0.2592
1564.00,0.2568
1563.00,0.2548
1562.00,0.2530
1561.00,0.2510
1560.00,0.2489
1559.00,0.2467
1558.00,0.2448
1557.00,0.2432
1556.00,0.2417
1555.00,0.2400
1554.00,0.2381
1553.00,0.2364
1552.00,0.2349
1551.00,0.2334
1550.00,0.2318
1549.00,0.2303
1548.00,0.2290
1547.00,0.2278
1546.00,0.2266
1545.00,0.2253
1544.00,0.2241
1543.00,0.2231
1542.00,0.2221
1541.00,0.2209
1540.00,0.2194
1539.00,0.2178
1538.00,0.2165
1537.00,0.2155
1536.00,0.2144
1535.00,0.2132
1534.00,0.2117
1533.00,0.2104
1532.00,0.2093
1531.00,0.2084
1530.00,0.2075
1529.00,0.2066
1528.00,0.2056
1527.00,0.2046
1526.00,0.2037
1525.00,0.2030
1524.00,0.2024
1523.00,0.2017
1522.00,0.2008
1521.00,0.1998
1520.00,0.1991
1519.00,0.1985
1518.00,0.1979
1517.00,0.1970
1516.00,0.1961
1515.00,0.1954
1514.00,0.1948
1513.00,0.1942
1512.00,0.1936
1511.00,0.1932
1510.00,0.1929
1509.00,0.1926
1508.00,0.1923
1507.00,0.1919
1506.00,0.1913
1505.00,0.1908
1504.00,0.1906
1503.00,0.1904
1502.00,0.1900
1501.00,0.1896
1500.00,0.1893
1499.00,0.1891
1498.00,0.1889
1497.00,0.1888
1496.00,0.1887
1495.00,0.1888
1494.00,0.1889
1493.00,0.1890
1492.00,0.1891
1491.00,0.1891
1490.00,0.1892
1489.00,0.1893
1488.00,0.1895
1487.00,0.1896
1486.00,0.1897
1485.00,0.1899
1484.00,0.1901
1483.00,0.1904
1482.00,0.1907
1481.00,0.1910
1480.00,0.1915
1479.00,0.1921
1478.00,0.1927
1477.00,0.1934
1476.00,0.1942
1475.00,0.1952
1474.00,0.1963
1473.00,0.1974
1472.00,0.1986
1471.00,0.1996
1470.00,0.2007
1469.00,0.2018
1468.00,0.2029
1467.00,0.2041
1466.00,0.2054
1465.00,0.2068
1464.00,0.2081
1463.00,0.2094
1462.00,0.2104
1461.00,0.2112
1460.00,0.2118
1459.00,0.2123
1458.00,0.2127
1457.00,0.2129
1456.00,0.2131
1455.00,0.2135
1454.00,0.2138
1453.00,0.2140
1452.00,0.2142
1451.00,0.2145
1450.00,0.2149
1449.00,0.2154
1448.00,0.2159
1447.00,0.2166
1446.00,0.2174
1445.00,0.2185
1444.00,0.2197
1443.00,0.2212
1442.00,0.2228
1441.00,0.2246
1440.00,0.2265
1439.00,0.2285
1438.00,0.2307
1437.00,0.2332
1436.00,0.2361
1435.00,0.2391
1434.00,0.2419
1433.00,0.2446
1432.00,0.2474
1431.00,0.2503
1430.00,0.2532
1429.00,0.2563
1428.00,0.2593
1427.00,0.2621
1426.00,0.2648
1425.00,0.2675
1424.00,0.2701
1423.00,0.2725
1422.00,0.2745
1421.00,0.2763
1420.00,0.2780
1419.00,0.2794
1418.00,0.2806
1417.00,0.2814
1416.00,0.2817
1415.00,0.2815
1414.00,0.2809
1413.00,0.2801
1412.00,0.2791
1411.00,0.2778
1410.00,0.2762
1409.00,0.2746
1408.00,0.2728
1407.00,0.2708
1406.00,0.2687
1405.00,0.2665
1404.00,0.2643
1403.00,0.2622
1402.00,0.2600
1401.00,0.2577
1400.00,0.2551
1399.00,0.2523
1398.00,0.2496
1397.00,0.2470
1396.00,0.2443
1395.00,0.2415
1394.00,0.2387
1393.00,0.2362
1392.00,0.2338
1391.00,0.2316
1390.00,0.2294
1389.00,0.2273
1388.00,0.2253
1387.00,0.2235
1386.00,0.2221
1385.00,0.2209
1384.00,0.2199
1383.00,0.2190
1382.00,0.2184
1381.00,0.2180
1380.00,0.2179
1379.00,0.2181
1378.00,0.2187
1377.00,0.2198
1376.00,0.2215
1375.00,0.2236
1374.00,0.2264
1373.00,0.2296
1372.00,0.2331
1371.00,0.2370
1370.00,0.2413
1369.00,0.2462
1368.00,0.2519
1367.00,0.2586
1366.00,0.2661
1365.00,0.2745
1364.00,0.2836
1363.00,0.2927
1362.00,0.3009
1361.00,0.3071
1360.00,0.3107
1359.00,0.3113
1358.00,0.3092
1357.00,0.3048
1356.00,0.2986
1355.00,0.2913
1354.00,0.2835
1353.00,0.2757
1352.00,0.2684
1351.00,0.2616
1350.00,0.2555
1349.00,0.2500
1348.00,0.2451
1347.00,0.2407
1346.00,0.2369
1345.00,0.2335
1344.00,0.2305
1343.00,0.2279
1342.00,0.2257
1341.00,0.2237
1340.00,0.2219
1339.00,0.2203
1338.00,0.2189
1337.00,0.2177
1336.00,0.2166
1335.00,0.2157
1334.00,0.2148
1333.00,0.2141
1332.00,0.2134
1331.00,0.2128
1330.00,0.2123
1329.00,0.2118
1328.00,0.2115
1327.00,0.2112
1326.00,0.2112
1325.00,0.2112
1324.00,0.2114
1323.00,0.2117
1322.00,0.2122
1321.00,0.2128
1320.00,0.2135
1319.00,0.2143
1318.00,0.2152
1317.00,0.2163
1316.00,0.2174
1315.00,0.2187
1314.00,0.2200
1313.00,0.2214
1312.00,0.2229
1311.00,0.2243
1310.00,0.2257
1309.00,0.2271
1308.00,0.2284
1307.00,0.2295
1306.00,0.2306
1305.00,0.2314
1304.00,0.2319
1303.00,0.2322
1302.00,0.2324
1301.00,0.2323
1300.00,0.2322
1299.00,0.2319
1298.00,0.2315
1297.00,0.2310
1296.00,0.2304
1295.00,0.2297
1294.00,0.2290
1293.00,0.2282
1292.00,0.2275
1291.00,0.2267
1290.00,0.2260
1289.00,0.2253
1288.00,0.2247
1287.00,0.2241
1286.00,0.2236
1285.00,0.2232
1284.00,0.2228
1283.00,0.2224
1282.00,0.2221
1281.00,0.2218
1280.00,0.2216
1279.00,0.2214
1278.00,0.2213
1277.00,0.2212
1276.00,0.2210
1275.00,0.2210
1274.00,0.2210
1273.00,0.2211
1272.00,0.2213
1271.00,0.2217
1270.00,0.2222
1269.00,0.2229
1268.00,0.2238
1267.00,0.2250
1266.00,0.2264
1265.00,0.2281
1264.00,0.2301
1263.00,0.2324
1262.00,0.2352
1261.00,0.2384
1260.00,0.2419
1259.00,0.2459
1258.00,0.2502
1257.00,0.2548
1256.00,0.2596
1255.00,0.2645
1254.00,0.2693
1253.00,0.2740
1252.00,0.2784
1251.00,0.2822
1250.00,0.2854
1249.00,0.2879
1248.00,0.2897
1247.00,0.2907
1246.00,0.2912
1245.00,0.2910
1244.00,0.2903
1243.00,0.2892
1242.00,0.2877
1241.00,0.2859
1240.00,0.2837
1239.00,0.2812
1238.00,0.2783
1237.00,0.2750
1236.00,0.2715
1235.00,0.2678
1234.00,0.2638
1233.00,0.2598
1232.00,0.2556
1231.00,0.2514
1230.00,0.2472
1229.00,0.2431
1228.00,0.2390
1227.00,0.2351
1226.00,0.2313
1225.00,0.2276
1224.00,0.2241
1223.00,0.2207
1222.00,0.2175
1221.00,0.2144
1220.00,0.2115
1219.00,0.2087
1218.00,0.2060
1217.00,0.2034
1216.00,0.2009
1215.00,0.1986
1214.00,0.1964
1213.00,0.1943
1212.00,0.1923
1211.00,0.1905
1210.00,0.1887
1209.00,0.1870
1208.00,0.1855
1207.00,0.1840
1206.00,0.1827
1205.00,0.1815
1204.00,0.1802
1203.00,0.1791
1202.00,0.1780
1201.00,0.1770
1200.00,0.1761
1199.00,0.1753
1198.00,0.1746
1197.00,0.1740
1196.00,0.1735
1195.00,0.1730
1194.00,0.1727
1193.00,0.1726
1192.00,0.1725
1191.00,0.1726
1190.00,0.1728
1189.00,0.1732
1188.00,0.1738
1187.00,0.1745
1186.00,0.1755
1185.00,0.1766
1184.00,0.1779
1183.00,0.1793
1182.00,0.1808
1181.00,0.1825
1180.00,0.1842
1179.00,0.1861
1178.00,0.1880
1177.00,0.1901
1176.00,0.1922
1175.00,0.1943
1174.00,0.1964
1173.00,0.1981
1172.00,0.1994
1171.00,0.2002
1170.00,0.2005
1169.00,0.2003
1168.00,0.1996
1167.00,0.1988
1166.00,0.1981
1165.00,0.1976
1164.00,0.1974
1163.00,0.1976
1162.00,0.1984
1161.00,0.1997
1160.00,0.2015
1159.00,0.2035
1158.00,0.2054
1157.00,0.2068
1156.00,0.2074
1155.00,0.2070
1154.00,0.2056
1153.00,0.2035
1152.00,0.2008
1151.00,0.1978
1150.00,0.1947
1149.00,0.1916
1148.00,0.1884
1147.00,0.1852
1146.00,0.1821
1145.00,0.1792
1144.00,0.1765
1143.00,0.1741
1142.00,0.1719
1141.00,0.1700
1140.00,0.1683
1139.00,0.1668
1138.00,0.1655
1137.00,0.1642
1136.00,0.1631
1135.00,0.1620
1134.00,0.1610
1133.00,0.1601
1132.00,0.1593
1131.00,0.1585
1130.00,0.1578
1129.00,0.1571
1128.00,0.1564
1127.00,0.1558
1126.00,0.1552
1125.00,0.1547
1124.00,0.1542
1123.00,0.1537
1122.00,0.1533
1121.00,0.1529
1120.00,0.1525
1119.00,0.1521
1118.00,0.1518
1117.00,0.1515
1116.00,0.1512
1115.00,0.1510
1114.00,0.1507
1113.00,0.1505
1112.00,0.1503
1111.00,0.1501
1110.00,0.1499
1109.00,0.1498
1108.00,0.1496
1107.00,0.1495
1106.00,0.1495
1105.00,0.1494
1104.00,0.1492
1103.00,0.1491
1102.00,0.1490
1101.00,0.1488
1100.00,0.1487
1099.00,0.1485
1098.00,0.1484
1097.00,0.1484
1096.00,0.1483
1095.00,0.1483
1094.00,0.1483
1093.00,0.1483
1092.00,0.1483
1091.00,0.1483
1090.00,0.1484
1089.00,0.1485
1088.00,0.1485
1087.00,0.1485
1086.00,0.1486
1085.00,0.1485
1084.00,0.1485
1083.00,0.1486
1082.00,0.1487
1081.00,0.1488
1080.00,0.1488
1079.00,0.1488
1078.00,0.1488
1077.00,0.1489
1076.00,0.1490
1075.00,0.1491
1074.00,0.1493
1073.00,0.1495
1072.00,0.1495
1071.00,0.1496
1070.00,0.1497
1069.00,0.1497
1068.00,0.1496
1067.00,0.1496
1066.00,0.1497
1065.00,0.1498
1064.00,0.1499
1063.00,0.1500
1062.00,0.1502
1061.00,0.1504
1060.00,0.1506
1059.00,0.1509
1058.00,0.1513
1057.00,0.1517
1056.00,0.1521
1055.00,0.1525
1054.00,0.1529
1053.00,0.1532
1052.00,0.1534
1051.00,0.1534
1050.00,0.1535
1049.00,0.1536
1048.00,0.1537
1047.00,0.1539
1046.00,0.1541
1045.00,0.1544
1044.00,0.1547
1043.00,0.1551
1042.00,0.1556
1041.00,0.1563
1040.00,0.1572
1039.00,0.1581
1038.00,0.1593
1037.00,0.1607
1036.00,0.1622
1035.00,0.1640
1034.00,0.1660
1033.00,0.1683
1032.00,0.1707
1031.00,0.1733
1030.00,0.1762
1029.00,0.1791
1028.00,0.1821
1027.00,0.1850
1026.00,0.1876
1025.00,0.1899
1024.00,0.1917
1023.00,0.1930
1022.00,0.1940
1021.00,0.1947
1020.00,0.1953
1019.00,0.1958
1018.00,0.1966
1017.00,0.1974
1016.00,0.1984
1015.00,0.1995
1014.00,0.2008
1013.00,0.2022
1012.00,0.2034
1011.00,0.2046
1010.00,0.2056
1009.00,0.2066
1008.00,0.2074
1007.00,0.2083
1006.00,0.2091
1005.00,0.2101
1004.00,0.2110
1003.00,0.2120
1002.00,0.2129
1001.00,0.2137
1000.00,0.2142
999.00,0.2142
998.00,0.2137
997.00,0.2128
996.00,0.2114
995.00,0.2098
994.00,0.2081
993.00,0.2064
992.00,0.2047
991.00,0.2032
990.00,0.2018
989.00,0.2007
988.00,0.1996
987.00,0.1989
986.00,0.1984
985.00,0.1981
984.00,0.1979
983.00,0.1979
982.00,0.1981
981.00,0.1984
980.00,0.1989
979.00,0.1995
978.00,0.2003
977.00,0.2012
976.00,0.2022
975.00,0.2033
974.00,0.2045
973.00,0.2057
972.00,0.2069
971.00,0.2081
970.00,0.2093
969.00,0.2105
968.00,0.2116
967.00,0.2127
966.00,0.2137
965.00,0.2147
964.00,0.2155
963.00,0.2163
962.00,0.2171
961.00,0.2179
960.00,0.2187
959.00,0.2194
958.00,0.2202
957.00,0.2208
956.00,0.2212
955.00,0.2215
954.00,0.2217
953.00,0.2217
952.00,0.2217
951.00,0.2215
950.00,0.2211
949.00,0.2206
948.00,0.2200
947.00,0.2193
946.00,0.2186
945.00,0.2178
944.00,0.2169
943.00,0.2159
942.00,0.2149
941.00,0.2138
940.00,0.2126
939.00,0.2114
938.00,0.2101
937.00,0.2088
936.00,0.2074
935.00,0.2062
934.00,0.2050
933.00,0.2038
932.00,0.2026
931.00,0.2014
930.00,0.2005
929.00,0.1997
928.00,0.1993
927.00,0.1993
926.00,0.1999
925.00,0.2011
924.00,0.2031
923.00,0.2063
922.00,0.2109
921.00,0.2169
920.00,0.2243
919.00,0.2327
918.00,0.2416
917.00,0.2502
916.00,0.2576
915.00,0.2630
914.00,0.2659
913.00,0.2663
912.00,0.2643
911.00,0.2606
910.00,0.2558
909.00,0.2503
908.00,0.2445
907.00,0.2388
906.00,0.2333
905.00,0.2280
904.00,0.2230
903.00,0.2185
902.00,0.2143
901.00,0.2105
900.00,0.2070
899.00,0.2038
898.00,0.2009
897.00,0.1983
896.00,0.1958
895.00,0.1935
894.00,0.1913
893.00,0.1894
892.00,0.1876
891.00,0.1859
890.00,0.1844
889.00,0.1829
888.00,0.1815
887.00,0.1802
886.00,0.1790
885.00,0.1778
884.00,0.1767
883.00,0.1755
882.00,0.1744
881.00,0.1733
880.00,0.1723
879.00,0.1714
878.00,0.1705
877.00,0.1697
876.00,0.1689
875.00,0.1681
874.00,0.1674
873.00,0.1667
872.00,0.1659
871.00,0.1651
870.00,0.1643
869.00,0.1637
868.00,0.1631
867.00,0.1626
866.00,0.1621
865.00,0.1616
864.00,0.1610
863.00,0.1604
862.00,0.1599
861.00,0.1595
860.00,0.1590
859.00,0.1585
858.00,0.1582
857.00,0.1579
856.00,0.1576
855.00,0.1573
854.00,0.1570
853.00,0.1567
852.00,0.1564
851.00,0.1562
850.00,0.1560
849.00,0.1558
848.00,0.1557
847.00,0.1555
846.00,0.1553
845.00,0.1551
844.00,0.1548
843.00,0.1546
842.00,0.1545
841.00,0.1543
840.00,0.1542
839.00,0.1541
838.00,0.1542
837.00,0.1543
836.00,0.1543
835.00,0.1543
834.00,0.1543
833.00,0.1544
832.00,0.1545
831.00,0.1546
830.00,0.1548
829.00,0.1550
828.00,0.1551
827.00,0.1554
826.00,0.1557
825.00,0.1562
824.00,0.1567
823.00,0.1573
822.00,0.1580
821.00,0.1588
820.00,0.1597
819.00,0.1606
818.00,0.1616
817.00,0.1626
816.00,0.1637
815.00,0.1651
814.00,0.1667
813.00,0.1684
812.00,0.1702
811.00,0.1719
810.00,0.1737
809.00,0.1756
808.00,0.1775
807.00,0.1795
806.00,0.1817
805.00,0.1840
804.00,0.1863
803.00,0.1887
802.00,0.1913
801.00,0.1941
800.00,0.1968
799.00,0.1997
798.00,0.2027
797.00,0.2058
796.00,0.2090
795.00,0.2123
794.00,0.2158
793.00,0.2195
792.00,0.2232
791.00,0.2270
790.00,0.2309
789.00,0.2347
788.00,0.2386
787.00,0.2425
786.00,0.2464
785.00,0.2502
784.00,0.2537
783.00,0.2569
782.00,0.2598
781.00,0.2622
780.00,0.2640
779.00,0.2651
778.00,0.2656
777.00,0.2653
776.00,0.2641
775.00,0.2620
774.00,0.2589
773.00,0.2549
772.00,0.2499
771.00,0.2443
770.00,0.2382
769.00,0.2319
768.00,0.2254
767.00,0.2190
766.00,0.2128
765.00,0.2070
764.00,0.2014
763.00,0.1964
762.00,0.1920
761.00,0.1880
760.00,0.1844
759.00,0.1811
758.00,0.1783
757.00,0.1757
756.00,0.1734
755.00,0.1714
754.00,0.1696
753.00,0.1681
752.00,0.1667
751.00,0.1656
750.00,0.1646
749.00,0.1637
748.00,0.1628
747.00,0.1620
746.00,0.1613
745.00,0.1607
744.00,0.1600
743.00,0.1595
742.00,0.1590
741.00,0.1586
740.00,0.1581
739.00,0.1577
738.00,0.1574
737.00,0.1570
736.00,0.1566
735.00,0.1562
734.00,0.1559
733.00,0.1557
732.00,0.1555
731.00,0.1552
730.00,0.1550
729.00,0.1549
728.00,0.1547
727.00,0.1546
726.00,0.1544
725.00,0.1541
724.00,0.1539
723.00,0.1536
722.00,0.1534
721.00,0.1532
720.00,0.1530
719.00,0.1529
718.00,0.1528
717.00,0.1527
716.00,0.1525
715.00,0.1523
714.00,0.1522
713.00,0.1522
712.00,0.1522
711.00,0.1522
710.00,0.1521
709.00,0.1520
708.00,0.1517
707.00,0.1515
706.00,0.1514
705.00,0.1513
704.00,0.1513
703.00,0.1512
702.00,0.1512
701.00,0.1511
700.00,0.1510
699.00,0.1508
698.00,0.1507
697.00,0.1505
696.00,0.1504
695.00,0.1503
694.00,0.1504
693.00,0.1504
692.00,0.1504
691.00,0.1504
690.00,0.1504
689.00,0.1505
688.00,0.1504
687.00,0.1504
686.00,0.1503
685.00,0.1503
684.00,0.1503
683.00,0.1502
682.00,0.1503
681.00,0.1504
680.00,0.1504
679.00,0.1503
678.00,0.1504
677.00,0.1504
676.00,0.1504
675.00,0.1505
674.00,0.1507
673.00,0.1508
672.00,0.1509
671.00,0.1511
670.00,0.1516
669.00,0.1523
668.00,0.1528
667.00,0.1529
666.00,0.1527
665.00,0.1523
664.00,0.1522
663.00,0.1522
662.00,0.1524
661.00,0.1527
660.00,0.1529
659.00,0.1533
658.00,0.1538
657.00,0.1543
656.00,0.1547
655.00,0.1551
654.00,0.1557
653.00,0.1563
652.00,0.1569
651.00,0.1576
650.00,0.1583
649.00,0.1590
648.00,0.1597
647.00,0.1605
646.00,0.1614
645.00,0.1623
644.00,0.1632
643.00,0.1642
642.00,0.1654
641.00,0.1665
640.00,0.1674
639.00,0.1681
638.00,0.1685
637.00,0.1686
636.00,0.1683
635.00,0.1679
634.00,0.1673
633.00,0.1668
632.00,0.1663
631.00,0.1658
630.00,0.1654
629.00,0.1650
628.00,0.1646
627.00,0.1644
626.00,0.1644
625.00,0.1646
624.00,0.1649
623.00,0.1654
622.00,0.1660
621.00,0.1664
620.00,0.1665
619.00,0.1662
618.00,0.1656
617.00,0.1646
616.00,0.1636
615.00,0.1625
614.00,0.1616
613.00,0.1609
612.00,0.1603
611.00,0.1599
610.00,0.1598
609.00,0.1597
608.00,0.1594
607.00,0.1592
606.00,0.1591
605.00,0.1590
604.00,0.1588
603.00,0.1585
602.00,0.1579
601.00,0.1570
600.00,0.1562
599.00,0.1557
598.00,0.1555
597.00,0.1553
596.00,0.1551
595.00,0.1549
594.00,0.1546
593.00,0.1543
592.00,0.1539
591.00,0.1537
590.00,0.1538
589.00,0.1537
588.00,0.1535
587.00,0.1532
586.00,0.1531
585.00,0.1529
584.00,0.1527
583.00,0.1525
582.00,0.1525
581.00,0.1525
580.00,0.1524
579.00,0.1524
578.00,0.1524
577.00,0.1525
576.00,0.1524
575.00,0.1524
574.00,0.1525
573.00,0.1525
572.00,0.1525
571.00,0.1525
570.00,0.1525
569.00,0.1526
568.00,0.1526
567.00,0.1527
566.00,0.1528
565.00,0.1529
564.00,0.1530
563.00,0.1532
562.00,0.1535
561.00,0.1538
560.00,0.1539
559.00,0.1541
558.00,0.1545
557.00,0.1550
556.00,0.1553
555.00,0.1557
554.00,0.1562
553.00,0.1569
552.00,0.1576
551.00,0.1584
550.00,0.1594
549.00,0.1604
548.00,0.1611
547.00,0.1618
546.00,0.1627
545.00,0.1635
544.00,0.1642
543.00,0.1650
542.00,0.1660
541.00,0.1670
540.00,0.1680
539.00,0.1694
538.00,0.1715
537.00,0.1741
536.00,0.1772
535.00,0.1811
534.00,0.1859
533.00,0.1912
532.00,0.1966
531.00,0.2013
530.00,0.2046
529.00,0.2055
528.00,0.2037
527.00,0.2001
526.00,0.1956
525.00,0.1914
524.00,0.1881
523.00,0.1861
522.00,0.1852
521.00,0.1852
520.00,0.1857
519.00,0.1869
518.00,0.1890
517.00,0.1918
516.00,0.1951
515.00,0.1988
514.00,0.2027
513.00,0.2064
512.00,0.2093
511.00,0.2110
510.00,0.2115
509.00,0.2105
508.00,0.2081
507.00,0.2046
506.00,0.2003
505.00,0.1952
504.00,0.1896
503.00,0.1843
502.00,0.1797
501.00,0.1757
500.00,0.1719
499.00,0.1688
498.00,0.1664
497.00,0.1646
496.00,0.1629
495.00,0.1616
494.00,0.1607
493.00,0.1601
492.00,0.1594
491.00,0.1586
490.00,0.1576
489.00,0.1563
488.00,0.1548
487.00,0.1534
486.00,0.1525
485.00,0.1516
484.00,0.1507
483.00,0.1503
482.00,0.1506
481.00,0.1510
480.00,0.1510
479.00,0.1510
478.00,0.1510
477.00,0.1508
476.00,0.1503
475.00,0.1498
474.00,0.1496
473.00,0.1494
472.00,0.1488
471.00,0.1483
470.00,0.1481
469.00,0.1479
468.00,0.1472
467.00,0.1464
466.00,0.1458
465.00,0.1452
464.00,0.1444
463.00,0.1438
462.00,0.1439
461.00,0.1440
460.00,0.1436
459.00,0.1430
458.00,0.1427
457.00,0.1425
456.00,0.1421
455.00,0.1420
454.00,0.1420
453.00,0.1417
452.00,0.1409
451.00,0.1402
450.00,0.1399
449.00,0.1395
448.00,0.1387
447.00,0.1381
446.00,0.1380
445.00,0.1381
444.00,0.1380
443.00,0.1380
442.00,0.1382
441.00,0.1382
440.00,0.1377
439.00,0.1373
438.00,0.1374
437.00,0.1374
436.00,0.1372
435.00,0.1375
434.00,0.1384
433.00,0.1390
432.00,0.1387
431.00,0.1381
430.00,0.1379
429.00,0.1373
428.00,0.1361
427.00,0.1352
426.00,0.1352
425.00,0.1355
424.00,0.1353
423.00,0.1352
422.00,0.1360
421.00,0.1370
420.00,0.1372
419.00,0.1370
418.00,0.1375
417.00,0.1381
416.00,0.1382
415.00,0.1383
414.00,0.1392
413.00,0.1403
412.00,0.1413
411.00,0.1429
410.00,0.1451
409.00,0.1469
408.00,0.1483
407.00,0.1509
406.00,0.1560
405.00,0.1619
404.00,0.1660
403.00,0.1678
402.00,0.1675
401.00,0.1642
400.00,0.1583
