Created as New Dataset,Sample 467 By YargerLab Date Saturday, March 01 2025
cm-1,A
4000.00,-0.0097
3999.00,-0.0097
3998.00,-0.0097
3997.00,-0.0097
3996.00,-0.0097
3995.00,-0.0097
3994.00,-0.0097
3993.00,-0.0097
3992.00,-0.0097
3991.00,-0.0097
3990.00,-0.0097
3989.00,-0.0097
3988.00,-0.0097
3987.00,-0.0097
3986.00,-0.0097
3985.00,-0.0098
3984.00,-0.0098
3983.00,-0.0098
3982.00,-0.0098
3981.00,-0.0098
3980.00,-0.0098
3979.00,-0.0098
3978.00,-0.0098
3977.00,-0.0098
3976.00,-0.0098
3975.00,-0.0098
3974.00,-0.0098
3973.00,-0.0098
3972.00,-0.0098
3971.00,-0.0098
3970.00,-0.0098
3969.00,-0.0098
3968.00,-0.0099
3967.00,-0.0099
3966.00,-0.0099
3965.00,-0.0099
3964.00,-0.0098
3963.00,-0.0098
3962.00,-0.0098
3961.00,-0.0098
3960.00,-0.0098
3959.00,-0.0098
3958.00,-0.0098
3957.00,-0.0098
3956.00,-0.0099
3955.00,-0.0099
3954.00,-0.0099
3953.00,-0.0098
3952.00,-0.0098
3951.00,-0.0098
3950.00,-0.0098
3949.00,-0.0098
3948.00,-0.0098
3947.00,-0.0099
3946.00,-0.0099
3945.00,-0.0098
3944.00,-0.0098
3943.00,-0.0099
3942.00,-0.0099
3941.00,-0.0099
3940.00,-0.0099
3939.00,-0.0099
3938.00,-0.0099
3937.00,-0.0100
3936.00,-0.0100
3935.00,-0.0100
3934.00,-0.0099
3933.00,-0.0099
3932.00,-0.0099
3931.00,-0.0099
3930.00,-0.0099
3929.00,-0.0099
3928.00,-0.0099
3927.00,-0.0099
3926.00,-0.0099
3925.00,-0.0100
3924.00,-0.0100
3923.00,-0.0100
3922.00,-0.0099
3921.00,-0.0099
3920.00,-0.0099
3919.00,-0.0099
3918.00,-0.0100
3917.00,-0.0100
3916.00,-0.0100
3915.00,-0.0100
3914.00,-0.0099
3913.00,-0.0100
3912.00,-0.0100
3911.00,-0.0100
3910.00,-0.0100
3909.00,-0.0101
3908.00,-0.0101
3907.00,-0.0101
3906.00,-0.0101
3905.00,-0.0101
3904.00,-0.0102
3903.00,-0.0102
3902.00,-0.0102
3901.00,-0.0101
3900.00,-0.0101
3899.00,-0.0101
3898.00,-0.0101
3897.00,-0.0101
3896.00,-0.0102
3895.00,-0.0102
3894.00,-0.0102
3893.00,-0.0103
3892.00,-0.0103
3891.00,-0.0103
3890.00,-0.0102
3889.00,-0.0102
3888.00,-0.0101
3887.00,-0.0101
3886.00,-0.0102
3885.00,-0.0102
3884.00,-0.0102
3883.00,-0.0102
3882.00,-0.0102
3881.00,-0.0102
3880.00,-0.0102
3879.00,-0.0102
3878.00,-0.0102
3877.00,-0.0102
3876.00,-0.0102
3875.00,-0.0103
3874.00,-0.0103
3873.00,-0.0104
3872.00,-0.0104
3871.00,-0.0104
3870.00,-0.0104
3869.00,-0.0104
3868.00,-0.0104
3867.00,-0.0104
3866.00,-0.0104
3865.00,-0.0103
3864.00,-0.0103
3863.00,-0.0103
3862.00,-0.0103
3861.00,-0.0103
3860.00,-0.0104
3859.00,-0.0104
3858.00,-0.0104
3857.00,-0.0104
3856.00,-0.0104
3855.00,-0.0104
3854.00,-0.0104
3853.00,-0.0104
3852.00,-0.0104
3851.00,-0.0104
3850.00,-0.0104
3849.00,-0.0104
3848.00,-0.0104
3847.00,-0.0104
3846.00,-0.0104
3845.00,-0.0105
3844.00,-0.0105
3843.00,-0.0105
3842.00,-0.0105
3841.00,-0.0105
3840.00,-0.0105
3839.00,-0.0105
3838.00,-0.0105
3837.00,-0.0105
3836.00,-0.0104
3835.00,-0.0104
3834.00,-0.0104
3833.00,-0.0105
3832.00,-0.0105
3831.00,-0.0105
3830.00,-0.0105
3829.00,-0.0105
3828.00,-0.0105
3827.00,-0.0105
3826.00,-0.0105
3825.00,-0.0105
3824.00,-0.0105
3823.00,-0.0106
3822.00,-0.0106
3821.00,-0.0106
3820.00,-0.0106
3819.00,-0.0105
3818.00,-0.0105
3817.00,-0.0105
3816.00,-0.0105
3815.00,-0.0106
3814.00,-0.0106
3813.00,-0.0106
3812.00,-0.0106
3811.00,-0.0107
3810.00,-0.0107
3809.00,-0.0107
3808.00,-0.0107
3807.00,-0.0107
3806.00,-0.0107
3805.00,-0.0107
3804.00,-0.0107
3803.00,-0.0107
3802.00,-0.0107
3801.00,-0.0107
3800.00,-0.0107
3799.00,-0.0106
3798.00,-0.0106
3797.00,-0.0106
3796.00,-0.0106
3795.00,-0.0106
3794.00,-0.0106
3793.00,-0.0107
3792.00,-0.0107
3791.00,-0.0108
3790.00,-0.0108
3789.00,-0.0108
3788.00,-0.0107
3787.00,-0.0107
3786.00,-0.0107
3785.00,-0.0107
3784.00,-0.0107
3783.00,-0.0107
3782.00,-0.0107
3781.00,-0.0107
3780.00,-0.0107
3779.00,-0.0108
3778.00,-0.0108
3777.00,-0.0108
3776.00,-0.0107
3775.00,-0.0107
3774.00,-0.0107
3773.00,-0.0108
3772.00,-0.0108
3771.00,-0.0108
3770.00,-0.0108
3769.00,-0.0108
3768.00,-0.0108
3767.00,-0.0107
3766.00,-0.0107
3765.00,-0.0107
3764.00,-0.0107
3763.00,-0.0108
3762.00,-0.0108
3761.00,-0.0108
3760.00,-0.0108
3759.00,-0.0108
3758.00,-0.0108
3757.00,-0.0108
3756.00,-0.0109
3755.00,-0.0109
3754.00,-0.0109
3753.00,-0.0109
3752.00,-0.0109
3751.00,-0.0109
3750.00,-0.0109
3749.00,-0.0109
3748.00,-0.0109
3747.00,-0.0109
3746.00,-0.0108
3745.00,-0.0108
3744.00,-0.0108
3743.00,-0.0108
3742.00,-0.0108
3741.00,-0.0109
3740.00,-0.0109
3739.00,-0.0110
3738.00,-0.0110
3737.00,-0.0111
3736.00,-0.0111
3735.00,-0.0110
3734.00,-0.0110
3733.00,-0.0110
3732.00,-0.0109
3731.00,-0.0109
3730.00,-0.0109
3729.00,-0.0109
3728.00,-0.0109
3727.00,-0.0109
3726.00,-0.0110
3725.00,-0.0110
3724.00,-0.0110
3723.00,-0.0110
3722.00,-0.0110
3721.00,-0.0110
3720.00,-0.0110
3719.00,-0.0110
3718.00,-0.0110
3717.00,-0.0110
3716.00,-0.0111
3715.00,-0.0111
3714.00,-0.0111
3713.00,-0.0111
3712.00,-0.0110
3711.00,-0.0110
3710.00,-0.0109
3709.00,-0.0109
3708.00,-0.0109
3707.00,-0.0109
3706.00,-0.0109
3705.00,-0.0109
3704.00,-0.0109
3703.00,-0.0110
3702.00,-0.0110
3701.00,-0.0110
3700.00,-0.0110
3699.00,-0.0110
3698.00,-0.0111
3697.00,-0.0111
3696.00,-0.0111
3695.00,-0.0111
3694.00,-0.0111
3693.00,-0.0112
3692.00,-0.0112
3691.00,-0.0112
3690.00,-0.0112
3689.00,-0.0112
3688.00,-0.0113
3687.00,-0.0113
3686.00,-0.0113
3685.00,-0.0113
3684.00,-0.0113
3683.00,-0.0114
3682.00,-0.0114
3681.00,-0.0115
3680.00,-0.0115
3679.00,-0.0116
3678.00,-0.0116
3677.00,-0.0117
3676.00,-0.0117
3675.00,-0.0118
3674.00,-0.0118
3673.00,-0.0118
3672.00,-0.0117
3671.00,-0.0117
3670.00,-0.0117
3669.00,-0.0117
3668.00,-0.0116
3667.00,-0.0116
3666.00,-0.0116
3665.00,-0.0116
3664.00,-0.0117
3663.00,-0.0117
3662.00,-0.0117
3661.00,-0.0117
3660.00,-0.0117
3659.00,-0.0117
3658.00,-0.0117
3657.00,-0.0118
3656.00,-0.0118
3655.00,-0.0118
3654.00,-0.0117
3653.00,-0.0117
3652.00,-0.0117
3651.00,-0.0117
3650.00,-0.0117
3649.00,-0.0117
3648.00,-0.0117
3647.00,-0.0116
3646.00,-0.0115
3645.00,-0.0115
3644.00,-0.0114
3643.00,-0.0114
3642.00,-0.0114
3641.00,-0.0114
3640.00,-0.0113
3639.00,-0.0113
3638.00,-0.0113
3637.00,-0.0113
3636.00,-0.0113
3635.00,-0.0112
3634.00,-0.0111
3633.00,-0.0111
3632.00,-0.0110
3631.00,-0.0109
3630.00,-0.0109
3629.00,-0.0109
3628.00,-0.0109
3627.00,-0.0109
3626.00,-0.0108
3625.00,-0.0108
3624.00,-0.0108
3623.00,-0.0108
3622.00,-0.0107
3621.00,-0.0107
3620.00,-0.0107
3619.00,-0.0107
3618.00,-0.0106
3617.00,-0.0106
3616.00,-0.0106
3615.00,-0.0106
3614.00,-0.0106
3613.00,-0.0106
3612.00,-0.0105
3611.00,-0.0105
3610.00,-0.0105
3609.00,-0.0105
3608.00,-0.0106
3607.00,-0.0106
3606.00,-0.0106
3605.00,-0.0105
3604.00,-0.0105
3603.00,-0.0105
3602.00,-0.0104
3601.00,-0.0104
3600.00,-0.0104
3599.00,-0.0103
3598.00,-0.0103
3597.00,-0.0103
3596.00,-0.0103
3595.00,-0.0103
3594.00,-0.0102
3593.00,-0.0102
3592.00,-0.0102
3591.00,-0.0102
3590.00,-0.0102
3589.00,-0.0102
3588.00,-0.0102
3587.00,-0.0102
3586.00,-0.0101
3585.00,-0.0101
3584.00,-0.0101
3583.00,-0.0102
3582.00,-0.0102
3581.00,-0.0102
3580.00,-0.0102
3579.00,-0.0102
3578.00,-0.0102
3577.00,-0.0101
3576.00,-0.0101
3575.00,-0.0100
3574.00,-0.0100
3573.00,-0.0100
3572.00,-0.0100
3571.00,-0.0100
3570.00,-0.0100
3569.00,-0.0101
3568.00,-0.0101
3567.00,-0.0101
3566.00,-0.0100
3565.00,-0.0099
3564.00,-0.0098
3563.00,-0.0098
3562.00,-0.0098
3561.00,-0.0098
3560.00,-0.0098
3559.00,-0.0099
3558.00,-0.0099
3557.00,-0.0099
3556.00,-0.0099
3555.00,-0.0098
3554.00,-0.0098
3553.00,-0.0098
3552.00,-0.0098
3551.00,-0.0098
3550.00,-0.0097
3549.00,-0.0097
3548.00,-0.0096
3547.00,-0.0096
3546.00,-0.0097
3545.00,-0.0097
3544.00,-0.0096
3543.00,-0.0096
3542.00,-0.0096
3541.00,-0.0096
3540.00,-0.0096
3539.00,-0.0096
3538.00,-0.0095
3537.00,-0.0095
3536.00,-0.0095
3535.00,-0.0095
3534.00,-0.0095
3533.00,-0.0095
3532.00,-0.0095
3531.00,-0.0095
3530.00,-0.0095
3529.00,-0.0095
3528.00,-0.0094
3527.00,-0.0094
3526.00,-0.0094
3525.00,-0.0093
3524.00,-0.0093
3523.00,-0.0093
3522.00,-0.0093
3521.00,-0.0093
3520.00,-0.0092
3519.00,-0.0092
3518.00,-0.0091
3517.00,-0.0091
3516.00,-0.0091
3515.00,-0.0091
3514.00,-0.0091
3513.00,-0.0091
3512.00,-0.0091
3511.00,-0.0091
3510.00,-0.0090
3509.00,-0.0090
3508.00,-0.0089
3507.00,-0.0089
3506.00,-0.0089
3505.00,-0.0089
3504.00,-0.0089
3503.00,-0.0088
3502.00,-0.0088
3501.00,-0.0088
3500.00,-0.0087
3499.00,-0.0087
3498.00,-0.0088
3497.00,-0.0088
3496.00,-0.0088
3495.00,-0.0087
3494.00,-0.0086
3493.00,-0.0086
3492.00,-0.0085
3491.00,-0.0085
3490.00,-0.0084
3489.00,-0.0084
3488.00,-0.0084
3487.00,-0.0084
3486.00,-0.0083
3485.00,-0.0083
3484.00,-0.0083
3483.00,-0.0082
3482.00,-0.0082
3481.00,-0.0082
3480.00,-0.0081
3479.00,-0.0081
3478.00,-0.0081
3477.00,-0.0081
3476.00,-0.0080
3475.00,-0.0080
3474.00,-0.0079
3473.00,-0.0079
3472.00,-0.0078
3471.00,-0.0078
3470.00,-0.0078
3469.00,-0.0077
3468.00,-0.0077
3467.00,-0.0077
3466.00,-0.0077
3465.00,-0.0077
3464.00,-0.0076
3463.00,-0.0075
3462.00,-0.0075
3461.00,-0.0074
3460.00,-0.0074
3459.00,-0.0074
3458.00,-0.0073
3457.00,-0.0073
3456.00,-0.0073
3455.00,-0.0072
3454.00,-0.0073
3453.00,-0.0073
3452.00,-0.0073
3451.00,-0.0072
3450.00,-0.0072
3449.00,-0.0071
3448.00,-0.0071
3447.00,-0.0070
3446.00,-0.0070
3445.00,-0.0069
3444.00,-0.0069
3443.00,-0.0069
3442.00,-0.0068
3441.00,-0.0068
3440.00,-0.0067
3439.00,-0.0066
3438.00,-0.0065
3437.00,-0.0064
3436.00,-0.0064
3435.00,-0.0063
3434.00,-0.0063
3433.00,-0.0063
3432.00,-0.0062
3431.00,-0.0062
3430.00,-0.0062
3429.00,-0.0061
3428.00,-0.0061
3427.00,-0.0060
3426.00,-0.0059
3425.00,-0.0059
3424.00,-0.0058
3423.00,-0.0058
3422.00,-0.0057
3421.00,-0.0057
3420.00,-0.0056
3419.00,-0.0056
3418.00,-0.0055
3417.00,-0.0055
3416.00,-0.0054
3415.00,-0.0054
3414.00,-0.0053
3413.00,-0.0053
3412.00,-0.0052
3411.00,-0.0052
3410.00,-0.0051
3409.00,-0.0051
3408.00,-0.0050
3407.00,-0.0050
3406.00,-0.0049
3405.00,-0.0049
3404.00,-0.0048
3403.00,-0.0047
3402.00,-0.0046
3401.00,-0.0046
3400.00,-0.0045
3399.00,-0.0044
3398.00,-0.0044
3397.00,-0.0043
3396.00,-0.0043
3395.00,-0.0042
3394.00,-0.0042
3393.00,-0.0041
3392.00,-0.0040
3391.00,-0.0040
3390.00,-0.0039
3389.00,-0.0039
3388.00,-0.0038
3387.00,-0.0038
3386.00,-0.0037
3385.00,-0.0036
3384.00,-0.0035
3383.00,-0.0034
3382.00,-0.0034
3381.00,-0.0033
3380.00,-0.0032
3379.00,-0.0032
3378.00,-0.0032
3377.00,-0.0031
3376.00,-0.0030
3375.00,-0.0029
3374.00,-0.0028
3373.00,-0.0027
3372.00,-0.0026
3371.00,-0.0025
3370.00,-0.0024
3369.00,-0.0023
3368.00,-0.0023
3367.00,-0.0022
3366.00,-0.0021
3365.00,-0.0020
3364.00,-0.0019
3363.00,-0.0018
3362.00,-0.0017
3361.00,-0.0015
3360.00,-0.0014
3359.00,-0.0013
3358.00,-0.0012
3357.00,-0.0011
3356.00,-0.0009
3355.00,-0.0008
3354.00,-0.0007
3353.00,-0.0006
3352.00,-0.0004
3351.00,-0.0003
3350.00,-0.0001
3349.00,0.0000
3348.00,0.0001
3347.00,0.0003
3346.00,0.0004
3345.00,0.0005
3344.00,0.0007
3343.00,0.0009
3342.00,0.0010
3341.00,0.0012
3340.00,0.0013
3339.00,0.0015
3338.00,0.0016
3337.00,0.0018
3336.00,0.0020
3335.00,0.0021
3334.00,0.0023
3333.00,0.0025
3332.00,0.0027
3331.00,0.0030
3330.00,0.0032
3329.00,0.0034
3328.00,0.0036
3327.00,0.0037
3326.00,0.0039
3325.00,0.0041
3324.00,0.0043
3323.00,0.0046
3322.00,0.0048
3321.00,0.0050
3320.00,0.0052
3319.00,0.0055
3318.00,0.0057
3317.00,0.0059
3316.00,0.0062
3315.00,0.0064
3314.00,0.0066
3313.00,0.0069
3312.00,0.0071
3311.00,0.0074
3310.00,0.0077
3309.00,0.0079
3308.00,0.0082
3307.00,0.0084
3306.00,0.0087
3305.00,0.0090
3304.00,0.0093
3303.00,0.0096
3302.00,0.0099
3301.00,0.0102
3300.00,0.0105
3299.00,0.0107
3298.00,0.0110
3297.00,0.0112
3296.00,0.0115
3295.00,0.0118
3294.00,0.0120
3293.00,0.0123
3292.00,0.0125
3291.00,0.0128
3290.00,0.0130
3289.00,0.0132
3288.00,0.0134
3287.00,0.0136
3286.00,0.0138
3285.00,0.0140
3284.00,0.0142
3283.00,0.0145
3282.00,0.0146
3281.00,0.0148
3280.00,0.0149
3279.00,0.0150
3278.00,0.0151
3277.00,0.0152
3276.00,0.0152
3275.00,0.0152
3274.00,0.0152
3273.00,0.0152
3272.00,0.0152
3271.00,0.0152
3270.00,0.0152
3269.00,0.0152
3268.00,0.0151
3267.00,0.0149
3266.00,0.0148
3265.00,0.0146
3264.00,0.0144
3263.00,0.0143
3262.00,0.0141
3261.00,0.0140
3260.00,0.0138
3259.00,0.0136
3258.00,0.0134
3257.00,0.0131
3256.00,0.0129
3255.00,0.0127
3254.00,0.0124
3253.00,0.0122
3252.00,0.0119
3251.00,0.0117
3250.00,0.0115
3249.00,0.0113
3248.00,0.0111
3247.00,0.0110
3246.00,0.0108
3245.00,0.0106
3244.00,0.0105
3243.00,0.0103
3242.00,0.0102
3241.00,0.0100
3240.00,0.0098
3239.00,0.0096
3238.00,0.0094
3237.00,0.0093
3236.00,0.0091
3235.00,0.0089
3234.00,0.0087
3233.00,0.0086
3232.00,0.0084
3231.00,0.0083
3230.00,0.0081
3229.00,0.0080
3228.00,0.0078
3227.00,0.0076
3226.00,0.0075
3225.00,0.0074
3224.00,0.0073
3223.00,0.0072
3222.00,0.0071
3221.00,0.0069
3220.00,0.0068
3219.00,0.0066
3218.00,0.0065
3217.00,0.0063
3216.00,0.0062
3215.00,0.0061
3214.00,0.0061
3213.00,0.0060
3212.00,0.0059
3211.00,0.0058
3210.00,0.0057
3209.00,0.0055
3208.00,0.0054
3207.00,0.0053
3206.00,0.0052
3205.00,0.0051
3204.00,0.0050
3203.00,0.0049
3202.00,0.0048
3201.00,0.0047
3200.00,0.0046
3199.00,0.0045
3198.00,0.0044
3197.00,0.0043
3196.00,0.0043
3195.00,0.0042
3194.00,0.0041
3193.00,0.0040
3192.00,0.0038
3191.00,0.0037
3190.00,0.0036
3189.00,0.0035
3188.00,0.0034
3187.00,0.0033
3186.00,0.0032
3185.00,0.0030
3184.00,0.0029
3183.00,0.0028
3182.00,0.0027
3181.00,0.0026
3180.00,0.0025
3179.00,0.0024
3178.00,0.0022
3177.00,0.0021
3176.00,0.0019
3175.00,0.0018
3174.00,0.0017
3173.00,0.0015
3172.00,0.0014
3171.00,0.0013
3170.00,0.0012
3169.00,0.0011
3168.00,0.0010
3167.00,0.0009
3166.00,0.0008
3165.00,0.0006
3164.00,0.0005
3163.00,0.0005
3162.00,0.0004
3161.00,0.0003
3160.00,0.0001
3159.00,-0.0000
3158.00,-0.0001
3157.00,-0.0002
3156.00,-0.0003
3155.00,-0.0004
3154.00,-0.0005
3153.00,-0.0006
3152.00,-0.0007
3151.00,-0.0008
3150.00,-0.0009
3149.00,-0.0010
3148.00,-0.0012
3147.00,-0.0013
3146.00,-0.0014
3145.00,-0.0015
3144.00,-0.0015
3143.00,-0.0016
3142.00,-0.0016
3141.00,-0.0017
3140.00,-0.0018
3139.00,-0.0018
3138.00,-0.0019
3137.00,-0.0020
3136.00,-0.0021
3135.00,-0.0021
3134.00,-0.0022
3133.00,-0.0023
3132.00,-0.0024
3131.00,-0.0024
3130.00,-0.0024
3129.00,-0.0025
3128.00,-0.0025
3127.00,-0.0026
3126.00,-0.0027
3125.00,-0.0028
3124.00,-0.0028
3123.00,-0.0029
3122.00,-0.0029
3121.00,-0.0030
3120.00,-0.0030
3119.00,-0.0031
3118.00,-0.0031
3117.00,-0.0032
3116.00,-0.0032
3115.00,-0.0032
3114.00,-0.0032
3113.00,-0.0032
3112.00,-0.0032
3111.00,-0.0033
3110.00,-0.0033
3109.00,-0.0033
3108.00,-0.0032
3107.00,-0.0032
3106.00,-0.0032
3105.00,-0.0032
3104.00,-0.0032
3103.00,-0.0032
3102.00,-0.0032
3101.00,-0.0032
3100.00,-0.0032
3099.00,-0.0032
3098.00,-0.0032
3097.00,-0.0032
3096.00,-0.0031
3095.00,-0.0031
3094.00,-0.0031
3093.00,-0.0031
3092.00,-0.0031
3091.00,-0.0031
3090.00,-0.0030
3089.00,-0.0030
3088.00,-0.0030
3087.00,-0.0030
3086.00,-0.0029
3085.00,-0.0029
3084.00,-0.0029
3083.00,-0.0029
3082.00,-0.0029
3081.00,-0.0029
3080.00,-0.0029
3079.00,-0.0029
3078.00,-0.0028
3077.00,-0.0028
3076.00,-0.0028
3075.00,-0.0027
3074.00,-0.0027
3073.00,-0.0027
3072.00,-0.0027
3071.00,-0.0027
3070.00,-0.0027
3069.00,-0.0028
3068.00,-0.0028
3067.00,-0.0028
3066.00,-0.0028
3065.00,-0.0027
3064.00,-0.0027
3063.00,-0.0028
3062.00,-0.0028
3061.00,-0.0028
3060.00,-0.0028
3059.00,-0.0028
3058.00,-0.0029
3057.00,-0.0029
3056.00,-0.0030
3055.00,-0.0031
3054.00,-0.0032
3053.00,-0.0032
3052.00,-0.0033
3051.00,-0.0034
3050.00,-0.0035
3049.00,-0.0036
3048.00,-0.0037
3047.00,-0.0038
3046.00,-0.0039
3045.00,-0.0040
3044.00,-0.0041
3043.00,-0.0042
3042.00,-0.0042
3041.00,-0.0043
3040.00,-0.0044
3039.00,-0.0045
3038.00,-0.0046
3037.00,-0.0047
3036.00,-0.0048
3035.00,-0.0049
3034.00,-0.0049
3033.00,-0.0050
3032.00,-0.0051
3031.00,-0.0052
3030.00,-0.0052
3029.00,-0.0053
3028.00,-0.0054
3027.00,-0.0055
3026.00,-0.0056
3025.00,-0.0057
3024.00,-0.0058
3023.00,-0.0059
3022.00,-0.0061
3021.00,-0.0062
3020.00,-0.0064
3019.00,-0.0065
3018.00,-0.0067
3017.00,-0.0068
3016.00,-0.0069
3015.00,-0.0070
3014.00,-0.0071
3013.00,-0.0073
3012.00,-0.0074
3011.00,-0.0075
3010.00,-0.0076
3009.00,-0.0078
3008.00,-0.0080
3007.00,-0.0081
3006.00,-0.0084
3005.00,-0.0086
3004.00,-0.0088
3003.00,-0.0090
3002.00,-0.0092
3001.00,-0.0094
3000.00,-0.0096
2999.00,-0.0098
2998.00,-0.0100
2997.00,-0.0101
2996.00,-0.0102
2995.00,-0.0102
2994.00,-0.0103
2993.00,-0.0104
2992.00,-0.0105
2991.00,-0.0105
2990.00,-0.0105
2989.00,-0.0105
2988.00,-0.0105
2987.00,-0.0106
2986.00,-0.0108
2985.00,-0.0112
2984.00,-0.0116
2983.00,-0.0121
2982.00,-0.0124
2981.00,-0.0125
2980.00,-0.0122
2979.00,-0.0118
2978.00,-0.0114
2977.00,-0.0110
2976.00,-0.0107
2975.00,-0.0105
2974.00,-0.0103
2973.00,-0.0102
2972.00,-0.0102
2971.00,-0.0100
2970.00,-0.0097
2969.00,-0.0093
2968.00,-0.0090
2967.00,-0.0087
2966.00,-0.0084
2965.00,-0.0082
2964.00,-0.0080
2963.00,-0.0078
2962.00,-0.0076
2961.00,-0.0075
2960.00,-0.0074
2959.00,-0.0074
2958.00,-0.0073
2957.00,-0.0072
2956.00,-0.0072
2955.00,-0.0071
2954.00,-0.0071
2953.00,-0.0071
2952.00,-0.0071
2951.00,-0.0071
2950.00,-0.0072
2949.00,-0.0072
2948.00,-0.0072
2947.00,-0.0071
2946.00,-0.0070
2945.00,-0.0069
2944.00,-0.0068
2943.00,-0.0067
2942.00,-0.0065
2941.00,-0.0064
2940.00,-0.0062
2939.00,-0.0061
2938.00,-0.0059
2937.00,-0.0058
2936.00,-0.0056
2935.00,-0.0055
2934.00,-0.0054
2933.00,-0.0053
2932.00,-0.0052
2931.00,-0.0051
2930.00,-0.0050
2929.00,-0.0049
2928.00,-0.0048
2927.00,-0.0048
2926.00,-0.0047
2925.00,-0.0047
2924.00,-0.0047
2923.00,-0.0048
2922.00,-0.0049
2921.00,-0.0049
2920.00,-0.0050
2919.00,-0.0052
2918.00,-0.0054
2917.00,-0.0056
2916.00,-0.0058
2915.00,-0.0060
2914.00,-0.0062
2913.00,-0.0064
2912.00,-0.0066
2911.00,-0.0067
2910.00,-0.0069
2909.00,-0.0070
2908.00,-0.0071
2907.00,-0.0073
2906.00,-0.0074
2905.00,-0.0075
2904.00,-0.0076
2903.00,-0.0076
2902.00,-0.0077
2901.00,-0.0078
2900.00,-0.0079
2899.00,-0.0080
2898.00,-0.0081
2897.00,-0.0082
2896.00,-0.0083
2895.00,-0.0085
2894.00,-0.0086
2893.00,-0.0086
2892.00,-0.0087
2891.00,-0.0088
2890.00,-0.0088
2889.00,-0.0088
2888.00,-0.0089
2887.00,-0.0088
2886.00,-0.0088
2885.00,-0.0088
2884.00,-0.0087
2883.00,-0.0086
2882.00,-0.0085
2881.00,-0.0084
2880.00,-0.0082
2879.00,-0.0080
2878.00,-0.0079
2877.00,-0.0078
2876.00,-0.0078
2875.00,-0.0077
2874.00,-0.0078
2873.00,-0.0078
2872.00,-0.0078
2871.00,-0.0078
2870.00,-0.0078
2869.00,-0.0079
2868.00,-0.0079
2867.00,-0.0080
2866.00,-0.0080
2865.00,-0.0081
2864.00,-0.0082
2863.00,-0.0082
2862.00,-0.0082
2861.00,-0.0082
2860.00,-0.0082
2859.00,-0.0082
2858.00,-0.0082
2857.00,-0.0082
2856.00,-0.0082
2855.00,-0.0081
2854.00,-0.0081
2853.00,-0.0081
2852.00,-0.0081
2851.00,-0.0081
2850.00,-0.0082
2849.00,-0.0083
2848.00,-0.0084
2847.00,-0.0085
2846.00,-0.0086
2845.00,-0.0087
2844.00,-0.0088
2843.00,-0.0090
2842.00,-0.0091
2841.00,-0.0092
2840.00,-0.0093
2839.00,-0.0093
2838.00,-0.0094
2837.00,-0.0095
2836.00,-0.0095
2835.00,-0.0095
2834.00,-0.0095
2833.00,-0.0096
2832.00,-0.0096
2831.00,-0.0096
2830.00,-0.0096
2829.00,-0.0097
2828.00,-0.0097
2827.00,-0.0098
2826.00,-0.0098
2825.00,-0.0098
2824.00,-0.0098
2823.00,-0.0098
2822.00,-0.0098
2821.00,-0.0098
2820.00,-0.0099
2819.00,-0.0099
2818.00,-0.0099
2817.00,-0.0100
2816.00,-0.0100
2815.00,-0.0100
2814.00,-0.0101
2813.00,-0.0101
2812.00,-0.0101
2811.00,-0.0101
2810.00,-0.0101
2809.00,-0.0101
2808.00,-0.0101
2807.00,-0.0101
2806.00,-0.0101
2805.00,-0.0101
2804.00,-0.0102
2803.00,-0.0102
2802.00,-0.0103
2801.00,-0.0103
2800.00,-0.0104
2799.00,-0.0104
2798.00,-0.0104
2797.00,-0.0104
2796.00,-0.0104
2795.00,-0.0104
2794.00,-0.0104
2793.00,-0.0105
2792.00,-0.0105
2791.00,-0.0105
2790.00,-0.0105
2789.00,-0.0105
2788.00,-0.0106
2787.00,-0.0106
2786.00,-0.0106
2785.00,-0.0106
2784.00,-0.0106
2783.00,-0.0107
2782.00,-0.0107
2781.00,-0.0107
2780.00,-0.0107
2779.00,-0.0108
2778.00,-0.0108
2777.00,-0.0108
2776.00,-0.0108
2775.00,-0.0108
2774.00,-0.0108
2773.00,-0.0108
2772.00,-0.0109
2771.00,-0.0109
2770.00,-0.0109
2769.00,-0.0109
2768.00,-0.0110
2767.00,-0.0110
2766.00,-0.0110
2765.00,-0.0111
2764.00,-0.0111
2763.00,-0.0111
2762.00,-0.0111
2761.00,-0.0111
2760.00,-0.0112
2759.00,-0.0112
2758.00,-0.0112
2757.00,-0.0112
2756.00,-0.0113
2755.00,-0.0113
2754.00,-0.0113
2753.00,-0.0114
2752.00,-0.0114
2751.00,-0.0114
2750.00,-0.0114
2749.00,-0.0114
2748.00,-0.0115
2747.00,-0.0115
2746.00,-0.0115
2745.00,-0.0116
2744.00,-0.0116
2743.00,-0.0116
2742.00,-0.0117
2741.00,-0.0117
2740.00,-0.0117
2739.00,-0.0117
2738.00,-0.0117
2737.00,-0.0117
2736.00,-0.0118
2735.00,-0.0118
2734.00,-0.0118
2733.00,-0.0119
2732.00,-0.0119
2731.00,-0.0119
2730.00,-0.0119
2729.00,-0.0119
2728.00,-0.0120
2727.00,-0.0120
2726.00,-0.0121
2725.00,-0.0121
2724.00,-0.0121
2723.00,-0.0122
2722.00,-0.0122
2721.00,-0.0122
2720.00,-0.0122
2719.00,-0.0122
2718.00,-0.0122
2717.00,-0.0122
2716.00,-0.0122
2715.00,-0.0122
2714.00,-0.0123
2713.00,-0.0123
2712.00,-0.0123
2711.00,-0.0123
2710.00,-0.0124
2709.00,-0.0124
2708.00,-0.0124
2707.00,-0.0124
2706.00,-0.0125
2705.00,-0.0125
2704.00,-0.0126
2703.00,-0.0126
2702.00,-0.0126
2701.00,-0.0126
2700.00,-0.0126
2699.00,-0.0126
2698.00,-0.0126
2697.00,-0.0127
2696.00,-0.0127
2695.00,-0.0127
2694.00,-0.0127
2693.00,-0.0128
2692.00,-0.0128
2691.00,-0.0128
2690.00,-0.0128
2689.00,-0.0129
2688.00,-0.0129
2687.00,-0.0129
2686.00,-0.0130
2685.00,-0.0130
2684.00,-0.0130
2683.00,-0.0130
2682.00,-0.0131
2681.00,-0.0131
2680.00,-0.0131
2679.00,-0.0131
2678.00,-0.0131
2677.00,-0.0131
2676.00,-0.0131
2675.00,-0.0131
2674.00,-0.0132
2673.00,-0.0132
2672.00,-0.0133
2671.00,-0.0133
2670.00,-0.0133
2669.00,-0.0133
2668.00,-0.0134
2667.00,-0.0134
2666.00,-0.0134
2665.00,-0.0134
2664.00,-0.0135
2663.00,-0.0135
2662.00,-0.0135
2661.00,-0.0135
2660.00,-0.0135
2659.00,-0.0135
2658.00,-0.0135
2657.00,-0.0135
2656.00,-0.0135
2655.00,-0.0136
2654.00,-0.0136
2653.00,-0.0136
2652.00,-0.0137
2651.00,-0.0137
2650.00,-0.0137
2649.00,-0.0137
2648.00,-0.0137
2647.00,-0.0138
2646.00,-0.0138
2645.00,-0.0138
2644.00,-0.0138
2643.00,-0.0138
2642.00,-0.0137
2641.00,-0.0137
2640.00,-0.0137
2639.00,-0.0137
2638.00,-0.0137
2637.00,-0.0137
2636.00,-0.0137
2635.00,-0.0138
2634.00,-0.0138
2633.00,-0.0138
2632.00,-0.0138
2631.00,-0.0138
2630.00,-0.0138
2629.00,-0.0138
2628.00,-0.0138
2627.00,-0.0138
2626.00,-0.0138
2625.00,-0.0138
2624.00,-0.0138
2623.00,-0.0138
2622.00,-0.0139
2621.00,-0.0139
2620.00,-0.0139
2619.00,-0.0138
2618.00,-0.0138
2617.00,-0.0138
2616.00,-0.0138
2615.00,-0.0138
2614.00,-0.0138
2613.00,-0.0138
2612.00,-0.0138
2611.00,-0.0138
2610.00,-0.0139
2609.00,-0.0139
2608.00,-0.0139
2607.00,-0.0139
2606.00,-0.0139
2605.00,-0.0139
2604.00,-0.0139
2603.00,-0.0140
2602.00,-0.0140
2601.00,-0.0140
2600.00,-0.0140
2599.00,-0.0140
2598.00,-0.0140
2597.00,-0.0140
2596.00,-0.0141
2595.00,-0.0141
2594.00,-0.0141
2593.00,-0.0140
2592.00,-0.0140
2591.00,-0.0139
2590.00,-0.0139
2589.00,-0.0139
2588.00,-0.0140
2587.00,-0.0140
2586.00,-0.0141
2585.00,-0.0141
2584.00,-0.0141
2583.00,-0.0141
2582.00,-0.0142
2581.00,-0.0142
2580.00,-0.0143
2579.00,-0.0143
2578.00,-0.0142
2577.00,-0.0142
2576.00,-0.0142
2575.00,-0.0142
2574.00,-0.0142
2573.00,-0.0143
2572.00,-0.0143
2571.00,-0.0143
2570.00,-0.0144
2569.00,-0.0144
2568.00,-0.0144
2567.00,-0.0144
2566.00,-0.0144
2565.00,-0.0144
2564.00,-0.0144
2563.00,-0.0144
2562.00,-0.0144
2561.00,-0.0144
2560.00,-0.0145
2559.00,-0.0145
2558.00,-0.0145
2557.00,-0.0145
2556.00,-0.0146
2555.00,-0.0146
2554.00,-0.0146
2553.00,-0.0146
2552.00,-0.0147
2551.00,-0.0147
2550.00,-0.0148
2549.00,-0.0148
2548.00,-0.0148
2547.00,-0.0148
2546.00,-0.0148
2545.00,-0.0148
2544.00,-0.0148
2543.00,-0.0148
2542.00,-0.0148
2541.00,-0.0148
2540.00,-0.0148
2539.00,-0.0148
2538.00,-0.0149
2537.00,-0.0149
2536.00,-0.0149
2535.00,-0.0149
2534.00,-0.0150
2533.00,-0.0150
2532.00,-0.0150
2531.00,-0.0149
2530.00,-0.0149
2529.00,-0.0149
2528.00,-0.0149
2527.00,-0.0150
2526.00,-0.0150
2525.00,-0.0151
2524.00,-0.0151
2523.00,-0.0151
2522.00,-0.0150
2521.00,-0.0150
2520.00,-0.0149
2519.00,-0.0149
2518.00,-0.0149
2517.00,-0.0149
2516.00,-0.0149
2515.00,-0.0150
2514.00,-0.0150
2513.00,-0.0151
2512.00,-0.0152
2511.00,-0.0152
2510.00,-0.0152
2509.00,-0.0152
2508.00,-0.0153
2507.00,-0.0153
2506.00,-0.0153
2505.00,-0.0153
2504.00,-0.0152
2503.00,-0.0152
2502.00,-0.0152
2501.00,-0.0152
2500.00,-0.0152
2499.00,-0.0152
2498.00,-0.0152
2497.00,-0.0152
2496.00,-0.0152
2495.00,-0.0153
2494.00,-0.0153
2493.00,-0.0153
2492.00,-0.0153
2491.00,-0.0153
2490.00,-0.0153
2489.00,-0.0154
2488.00,-0.0154
2487.00,-0.0154
2486.00,-0.0154
2485.00,-0.0154
2484.00,-0.0154
2483.00,-0.0154
2482.00,-0.0154
2481.00,-0.0154
2480.00,-0.0154
2479.00,-0.0154
2478.00,-0.0155
2477.00,-0.0155
2476.00,-0.0155
2475.00,-0.0155
2474.00,-0.0156
2473.00,-0.0156
2472.00,-0.0156
2471.00,-0.0156
2470.00,-0.0155
2469.00,-0.0155
2468.00,-0.0155
2467.00,-0.0156
2466.00,-0.0156
2465.00,-0.0157
2464.00,-0.0157
2463.00,-0.0157
2462.00,-0.0158
2461.00,-0.0158
2460.00,-0.0158
2459.00,-0.0158
2458.00,-0.0158
2457.00,-0.0158
2456.00,-0.0158
2455.00,-0.0158
2454.00,-0.0159
2453.00,-0.0159
2452.00,-0.0159
2451.00,-0.0159
2450.00,-0.0159
2449.00,-0.0159
2448.00,-0.0160
2447.00,-0.0160
2446.00,-0.0160
2445.00,-0.0160
2444.00,-0.0160
2443.00,-0.0160
2442.00,-0.0160
2441.00,-0.0160
2440.00,-0.0160
2439.00,-0.0160
2438.00,-0.0160
2437.00,-0.0160
2436.00,-0.0160
2435.00,-0.0160
2434.00,-0.0161
2433.00,-0.0161
2432.00,-0.0160
2431.00,-0.0160
2430.00,-0.0159
2429.00,-0.0159
2428.00,-0.0160
2427.00,-0.0161
2426.00,-0.0161
2425.00,-0.0162
2424.00,-0.0162
2423.00,-0.0162
2422.00,-0.0162
2421.00,-0.0162
2420.00,-0.0162
2419.00,-0.0162
2418.00,-0.0162
2417.00,-0.0162
2416.00,-0.0162
2415.00,-0.0163
2414.00,-0.0163
2413.00,-0.0164
2412.00,-0.0164
2411.00,-0.0164
2410.00,-0.0164
2409.00,-0.0164
2408.00,-0.0164
2407.00,-0.0164
2406.00,-0.0164
2405.00,-0.0164
2404.00,-0.0165
2403.00,-0.0165
2402.00,-0.0166
2401.00,-0.0166
2400.00,-0.0166
2399.00,-0.0166
2398.00,-0.0166
2397.00,-0.0166
2396.00,-0.0167
2395.00,-0.0167
2394.00,-0.0167
2393.00,-0.0167
2392.00,-0.0167
2391.00,-0.0168
2390.00,-0.0168
2389.00,-0.0168
2388.00,-0.0168
2387.00,-0.0168
2386.00,-0.0167
2385.00,-0.0167
2384.00,-0.0167
2383.00,-0.0168
2382.00,-0.0168
2381.00,-0.0168
2380.00,-0.0168
2379.00,-0.0167
2378.00,-0.0167
2377.00,-0.0167
2376.00,-0.0167
2375.00,-0.0167
2374.00,-0.0168
2373.00,-0.0168
2372.00,-0.0169
2371.00,-0.0169
2370.00,-0.0169
2369.00,-0.0169
2368.00,-0.0169
2367.00,-0.0169
2366.00,-0.0168
2365.00,-0.0168
2364.00,-0.0169
2363.00,-0.0169
2362.00,-0.0170
2361.00,-0.0170
2360.00,-0.0170
2359.00,-0.0170
2358.00,-0.0170
2357.00,-0.0170
2356.00,-0.0171
2355.00,-0.0171
2354.00,-0.0172
2353.00,-0.0173
2352.00,-0.0173
2351.00,-0.0173
2350.00,-0.0173
2349.00,-0.0172
2348.00,-0.0171
2347.00,-0.0171
2346.00,-0.0171
2345.00,-0.0171
2344.00,-0.0171
2343.00,-0.0171
2342.00,-0.0170
2341.00,-0.0170
2340.00,-0.0171
2339.00,-0.0172
2338.00,-0.0172
2337.00,-0.0173
2336.00,-0.0173
2335.00,-0.0173
2334.00,-0.0174
2333.00,-0.0174
2332.00,-0.0174
2331.00,-0.0174
2330.00,-0.0175
2329.00,-0.0175
2328.00,-0.0176
2327.00,-0.0177
2326.00,-0.0177
2325.00,-0.0176
2324.00,-0.0176
2323.00,-0.0175
2322.00,-0.0175
2321.00,-0.0176
2320.00,-0.0176
2319.00,-0.0176
2318.00,-0.0176
2317.00,-0.0176
2316.00,-0.0176
2315.00,-0.0176
2314.00,-0.0176
2313.00,-0.0176
2312.00,-0.0176
2311.00,-0.0177
2310.00,-0.0177
2309.00,-0.0178
2308.00,-0.0178
2307.00,-0.0178
2306.00,-0.0178
2305.00,-0.0178
2304.00,-0.0178
2303.00,-0.0178
2302.00,-0.0178
2301.00,-0.0178
2300.00,-0.0178
2299.00,-0.0178
2298.00,-0.0178
2297.00,-0.0179
2296.00,-0.0180
2295.00,-0.0180
2294.00,-0.0180
2293.00,-0.0180
2292.00,-0.0180
2291.00,-0.0179
2290.00,-0.0180
2289.00,-0.0180
2288.00,-0.0180
2287.00,-0.0180
2286.00,-0.0180
2285.00,-0.0181
2284.00,-0.0181
2283.00,-0.0182
2282.00,-0.0183
2281.00,-0.0183
2280.00,-0.0183
2279.00,-0.0183
2278.00,-0.0182
2277.00,-0.0181
2276.00,-0.0180
2275.00,-0.0179
2274.00,-0.0179
2273.00,-0.0180
2272.00,-0.0181
2271.00,-0.0181
2270.00,-0.0182
2269.00,-0.0182
2268.00,-0.0182
2267.00,-0.0182
2266.00,-0.0182
2265.00,-0.0182
2264.00,-0.0182
2263.00,-0.0182
2262.00,-0.0182
2261.00,-0.0182
2260.00,-0.0182
2259.00,-0.0182
2258.00,-0.0182
2257.00,-0.0183
2256.00,-0.0183
2255.00,-0.0183
2254.00,-0.0182
2253.00,-0.0181
2252.00,-0.0181
2251.00,-0.0180
2250.00,-0.0181
2249.00,-0.0181
2248.00,-0.0182
2247.00,-0.0183
2246.00,-0.0183
2245.00,-0.0184
2244.00,-0.0184
2243.00,-0.0185
2242.00,-0.0186
2241.00,-0.0186
2240.00,-0.0186
2239.00,-0.0186
2238.00,-0.0186
2237.00,-0.0185
2236.00,-0.0185
2235.00,-0.0186
2234.00,-0.0187
2233.00,-0.0187
2232.00,-0.0187
2231.00,-0.0186
2230.00,-0.0185
2229.00,-0.0185
2228.00,-0.0185
2227.00,-0.0185
2226.00,-0.0185
2225.00,-0.0185
2224.00,-0.0185
2223.00,-0.0185
2222.00,-0.0186
2221.00,-0.0187
2220.00,-0.0188
2219.00,-0.0189
2218.00,-0.0189
2217.00,-0.0189
2216.00,-0.0188
2215.00,-0.0188
2214.00,-0.0188
2213.00,-0.0189
2212.00,-0.0189
2211.00,-0.0188
2210.00,-0.0188
2209.00,-0.0188
2208.00,-0.0189
2207.00,-0.0190
2206.00,-0.0192
2205.00,-0.0193
2204.00,-0.0193
2203.00,-0.0192
2202.00,-0.0190
2201.00,-0.0189
2200.00,-0.0190
2199.00,-0.0190
2198.00,-0.0192
2197.00,-0.0192
2196.00,-0.0192
2195.00,-0.0191
2194.00,-0.0189
2193.00,-0.0187
2192.00,-0.0185
2191.00,-0.0184
2190.00,-0.0184
2189.00,-0.0186
2188.00,-0.0189
2187.00,-0.0191
2186.00,-0.0193
2185.00,-0.0193
2184.00,-0.0194
2183.00,-0.0194
2182.00,-0.0195
2181.00,-0.0196
2180.00,-0.0197
2179.00,-0.0197
2178.00,-0.0196
2177.00,-0.0194
2176.00,-0.0193
2175.00,-0.0194
2174.00,-0.0195
2173.00,-0.0197
2172.00,-0.0197
2171.00,-0.0196
2170.00,-0.0195
2169.00,-0.0193
2168.00,-0.0192
2167.00,-0.0193
2166.00,-0.0194
2165.00,-0.0195
2164.00,-0.0195
2163.00,-0.0193
2162.00,-0.0190
2161.00,-0.0189
2160.00,-0.0188
2159.00,-0.0189
2158.00,-0.0190
2157.00,-0.0190
2156.00,-0.0191
2155.00,-0.0193
2154.00,-0.0195
2153.00,-0.0196
2152.00,-0.0197
2151.00,-0.0197
2150.00,-0.0197
2149.00,-0.0196
2148.00,-0.0196
2147.00,-0.0196
2146.00,-0.0196
2145.00,-0.0197
2144.00,-0.0198
2143.00,-0.0199
2142.00,-0.0200
2141.00,-0.0199
2140.00,-0.0198
2139.00,-0.0197
2138.00,-0.0196
2137.00,-0.0196
2136.00,-0.0196
2135.00,-0.0197
2134.00,-0.0198
2133.00,-0.0199
2132.00,-0.0200
2131.00,-0.0201
2130.00,-0.0201
2129.00,-0.0201
2128.00,-0.0200
2127.00,-0.0199
2126.00,-0.0199
2125.00,-0.0200
2124.00,-0.0200
2123.00,-0.0201
2122.00,-0.0201
2121.00,-0.0201
2120.00,-0.0201
2119.00,-0.0201
2118.00,-0.0201
2117.00,-0.0201
2116.00,-0.0202
2115.00,-0.0202
2114.00,-0.0202
2113.00,-0.0202
2112.00,-0.0202
2111.00,-0.0203
2110.00,-0.0203
2109.00,-0.0203
2108.00,-0.0203
2107.00,-0.0203
2106.00,-0.0203
2105.00,-0.0203
2104.00,-0.0203
2103.00,-0.0204
2102.00,-0.0205
2101.00,-0.0206
2100.00,-0.0208
2099.00,-0.0209
2098.00,-0.0209
2097.00,-0.0208
2096.00,-0.0207
2095.00,-0.0206
2094.00,-0.0206
2093.00,-0.0207
2092.00,-0.0208
2091.00,-0.0208
2090.00,-0.0208
2089.00,-0.0208
2088.00,-0.0207
2087.00,-0.0207
2086.00,-0.0207
2085.00,-0.0207
2084.00,-0.0207
2083.00,-0.0208
2082.00,-0.0210
2081.00,-0.0210
2080.00,-0.0210
2079.00,-0.0210
2078.00,-0.0210
2077.00,-0.0209
2076.00,-0.0208
2075.00,-0.0207
2074.00,-0.0207
2073.00,-0.0208
2072.00,-0.0209
2071.00,-0.0210
2070.00,-0.0211
2069.00,-0.0212
2068.00,-0.0213
2067.00,-0.0214
2066.00,-0.0215
2065.00,-0.0215
2064.00,-0.0215
2063.00,-0.0215
2062.00,-0.0215
2061.00,-0.0215
2060.00,-0.0214
2059.00,-0.0213
2058.00,-0.0213
2057.00,-0.0213
2056.00,-0.0213
2055.00,-0.0214
2054.00,-0.0216
2053.00,-0.0218
2052.00,-0.0218
2051.00,-0.0217
2050.00,-0.0215
2049.00,-0.0213
2048.00,-0.0212
2047.00,-0.0212
2046.00,-0.0212
2045.00,-0.0212
2044.00,-0.0212
2043.00,-0.0211
2042.00,-0.0211
2041.00,-0.0212
2040.00,-0.0213
2039.00,-0.0214
2038.00,-0.0215
2037.00,-0.0215
2036.00,-0.0216
2035.00,-0.0217
2034.00,-0.0216
2033.00,-0.0216
2032.00,-0.0216
2031.00,-0.0217
2030.00,-0.0219
2029.00,-0.0221
2028.00,-0.0220
2027.00,-0.0220
2026.00,-0.0221
2025.00,-0.0222
2024.00,-0.0222
2023.00,-0.0221
2022.00,-0.0219
2021.00,-0.0219
2020.00,-0.0219
2019.00,-0.0219
2018.00,-0.0219
2017.00,-0.0218
2016.00,-0.0219
2015.00,-0.0220
2014.00,-0.0223
2013.00,-0.0225
2012.00,-0.0226
2011.00,-0.0226
2010.00,-0.0225
2009.00,-0.0223
2008.00,-0.0221
2007.00,-0.0220
2006.00,-0.0220
2005.00,-0.0221
2004.00,-0.0221
2003.00,-0.0221
2002.00,-0.0221
2001.00,-0.0223
2000.00,-0.0225
1999.00,-0.0226
1998.00,-0.0226
1997.00,-0.0225
1996.00,-0.0223
1995.00,-0.0221
1994.00,-0.0221
1993.00,-0.0222
1992.00,-0.0223
1991.00,-0.0225
1990.00,-0.0225
1989.00,-0.0226
1988.00,-0.0226
1987.00,-0.0227
1986.00,-0.0228
1985.00,-0.0229
1984.00,-0.0230
1983.00,-0.0232
1982.00,-0.0232
1981.00,-0.0230
1980.00,-0.0227
1979.00,-0.0225
1978.00,-0.0225
1977.00,-0.0224
1976.00,-0.0223
1975.00,-0.0223
1974.00,-0.0224
1973.00,-0.0226
1972.00,-0.0228
1971.00,-0.0230
1970.00,-0.0231
1969.00,-0.0231
1968.00,-0.0231
1967.00,-0.0231
1966.00,-0.0232
1965.00,-0.0233
1964.00,-0.0232
1963.00,-0.0230
1962.00,-0.0229
1961.00,-0.0228
1960.00,-0.0228
1959.00,-0.0229
1958.00,-0.0229
1957.00,-0.0229
1956.00,-0.0229
1955.00,-0.0229
1954.00,-0.0229
1953.00,-0.0230
1952.00,-0.0231
1951.00,-0.0233
1950.00,-0.0234
1949.00,-0.0235
1948.00,-0.0236
1947.00,-0.0236
1946.00,-0.0237
1945.00,-0.0237
1944.00,-0.0237
1943.00,-0.0237
1942.00,-0.0237
1941.00,-0.0237
1940.00,-0.0237
1939.00,-0.0236
1938.00,-0.0236
1937.00,-0.0237
1936.00,-0.0238
1935.00,-0.0239
1934.00,-0.0240
1933.00,-0.0240
1932.00,-0.0239
1931.00,-0.0239
1930.00,-0.0240
1929.00,-0.0241
1928.00,-0.0242
1927.00,-0.0243
1926.00,-0.0243
1925.00,-0.0244
1924.00,-0.0245
1923.00,-0.0246
1922.00,-0.0247
1921.00,-0.0246
1920.00,-0.0245
1919.00,-0.0245
1918.00,-0.0245
1917.00,-0.0246
1916.00,-0.0246
1915.00,-0.0247
1914.00,-0.0247
1913.00,-0.0247
1912.00,-0.0247
1911.00,-0.0247
1910.00,-0.0247
1909.00,-0.0248
1908.00,-0.0248
1907.00,-0.0248
1906.00,-0.0248
1905.00,-0.0249
1904.00,-0.0249
1903.00,-0.0250
1902.00,-0.0250
1901.00,-0.0250
1900.00,-0.0250
1899.00,-0.0250
1898.00,-0.0250
1897.00,-0.0250
1896.00,-0.0250
1895.00,-0.0251
1894.00,-0.0251
1893.00,-0.0251
1892.00,-0.0251
1891.00,-0.0251
1890.00,-0.0252
1889.00,-0.0253
1888.00,-0.0253
1887.00,-0.0253
1886.00,-0.0254
1885.00,-0.0254
1884.00,-0.0254
1883.00,-0.0254
1882.00,-0.0254
1881.00,-0.0254
1880.00,-0.0255
1879.00,-0.0256
1878.00,-0.0257
1877.00,-0.0258
1876.00,-0.0258
1875.00,-0.0259
1874.00,-0.0259
1873.00,-0.0260
1872.00,-0.0260
1871.00,-0.0260
1870.00,-0.0260
1869.00,-0.0261
1868.00,-0.0261
1867.00,-0.0262
1866.00,-0.0262
1865.00,-0.0262
1864.00,-0.0262
1863.00,-0.0263
1862.00,-0.0263
1861.00,-0.0264
1860.00,-0.0265
1859.00,-0.0266
1858.00,-0.0266
1857.00,-0.0267
1856.00,-0.0267
1855.00,-0.0267
1854.00,-0.0267
1853.00,-0.0267
1852.00,-0.0267
1851.00,-0.0267
1850.00,-0.0268
1849.00,-0.0268
1848.00,-0.0268
1847.00,-0.0268
1846.00,-0.0268
1845.00,-0.0269
1844.00,-0.0270
1843.00,-0.0272
1842.00,-0.0273
1841.00,-0.0273
1840.00,-0.0273
1839.00,-0.0273
1838.00,-0.0273
1837.00,-0.0273
1836.00,-0.0273
1835.00,-0.0274
1834.00,-0.0274
1833.00,-0.0274
1832.00,-0.0274
1831.00,-0.0274
1830.00,-0.0275
1829.00,-0.0276
1828.00,-0.0277
1827.00,-0.0277
1826.00,-0.0278
1825.00,-0.0279
1824.00,-0.0280
1823.00,-0.0280
1822.00,-0.0280
1821.00,-0.0280
1820.00,-0.0280
1819.00,-0.0281
1818.00,-0.0281
1817.00,-0.0282
1816.00,-0.0283
1815.00,-0.0283
1814.00,-0.0283
1813.00,-0.0283
1812.00,-0.0283
1811.00,-0.0284
1810.00,-0.0285
1809.00,-0.0285
1808.00,-0.0285
1807.00,-0.0285
1806.00,-0.0286
1805.00,-0.0286
1804.00,-0.0287
1803.00,-0.0287
1802.00,-0.0288
1801.00,-0.0288
1800.00,-0.0289
1799.00,-0.0289
1798.00,-0.0290
1797.00,-0.0290
1796.00,-0.0290
1795.00,-0.0291
1794.00,-0.0291
1793.00,-0.0292
1792.00,-0.0293
1791.00,-0.0294
1790.00,-0.0295
1789.00,-0.0295
1788.00,-0.0295
1787.00,-0.0295
1786.00,-0.0296
1785.00,-0.0297
1784.00,-0.0297
1783.00,-0.0298
1782.00,-0.0298
1781.00,-0.0298
1780.00,-0.0298
1779.00,-0.0299
1778.00,-0.0300
1777.00,-0.0300
1776.00,-0.0300
1775.00,-0.0301
1774.00,-0.0301
1773.00,-0.0302
1772.00,-0.0304
1771.00,-0.0306
1770.00,-0.0307
1769.00,-0.0307
1768.00,-0.0307
1767.00,-0.0308
1766.00,-0.0308
1765.00,-0.0308
1764.00,-0.0308
1763.00,-0.0309
1762.00,-0.0310
1761.00,-0.0312
1760.00,-0.0313
1759.00,-0.0313
1758.00,-0.0313
1757.00,-0.0314
1756.00,-0.0315
1755.00,-0.0315
1754.00,-0.0315
1753.00,-0.0315
1752.00,-0.0316
1751.00,-0.0317
1750.00,-0.0318
1749.00,-0.0318
1748.00,-0.0318
1747.00,-0.0319
1746.00,-0.0320
1745.00,-0.0320
1744.00,-0.0321
1743.00,-0.0321
1742.00,-0.0322
1741.00,-0.0323
1740.00,-0.0324
1739.00,-0.0326
1738.00,-0.0328
1737.00,-0.0328
1736.00,-0.0328
1735.00,-0.0330
1734.00,-0.0334
1733.00,-0.0337
1732.00,-0.0338
1731.00,-0.0339
1730.00,-0.0339
1729.00,-0.0340
1728.00,-0.0341
1727.00,-0.0343
1726.00,-0.0344
1725.00,-0.0344
1724.00,-0.0345
1723.00,-0.0346
1722.00,-0.0346
1721.00,-0.0346
1720.00,-0.0345
1719.00,-0.0344
1718.00,-0.0344
1717.00,-0.0345
1716.00,-0.0344
1715.00,-0.0343
1714.00,-0.0341
1713.00,-0.0337
1712.00,-0.0333
1711.00,-0.0327
1710.00,-0.0321
1709.00,-0.0314
1708.00,-0.0306
1707.00,-0.0296
1706.00,-0.0284
1705.00,-0.0271
1704.00,-0.0256
1703.00,-0.0241
1702.00,-0.0225
1701.00,-0.0206
1700.00,-0.0186
1699.00,-0.0169
1698.00,-0.0156
1697.00,-0.0146
1696.00,-0.0138
1695.00,-0.0133
1694.00,-0.0129
1693.00,-0.0124
1692.00,-0.0118
1691.00,-0.0113
1690.00,-0.0106
1689.00,-0.0099
1688.00,-0.0092
1687.00,-0.0085
1686.00,-0.0078
1685.00,-0.0069
1684.00,-0.0059
1683.00,-0.0050
1682.00,-0.0041
1681.00,-0.0033
1680.00,-0.0023
1679.00,-0.0015
1678.00,-0.0007
1677.00,0.0001
1676.00,0.0009
1675.00,0.0018
1674.00,0.0027
1673.00,0.0035
1672.00,0.0043
1671.00,0.0051
1670.00,0.0059
1669.00,0.0066
1668.00,0.0073
1667.00,0.0079
1666.00,0.0084
1665.00,0.0090
1664.00,0.0095
1663.00,0.0101
1662.00,0.0106
1661.00,0.0110
1660.00,0.0114
1659.00,0.0116
1658.00,0.0118
1657.00,0.0119
1656.00,0.0118
1655.00,0.0117
1654.00,0.0118
1653.00,0.0119
1652.00,0.0119
1651.00,0.0118
1650.00,0.0116
1649.00,0.0113
1648.00,0.0110
1647.00,0.0107
1646.00,0.0103
1645.00,0.0099
1644.00,0.0095
1643.00,0.0091
1642.00,0.0087
1641.00,0.0083
1640.00,0.0080
1639.00,0.0076
1638.00,0.0073
1637.00,0.0071
1636.00,0.0071
1635.00,0.0071
1634.00,0.0072
1633.00,0.0073
1632.00,0.0075
1631.00,0.0077
1630.00,0.0082
1629.00,0.0088
1628.00,0.0098
1627.00,0.0108
1626.00,0.0118
1625.00,0.0129
1624.00,0.0142
1623.00,0.0156
1622.00,0.0169
1621.00,0.0179
1620.00,0.0186
1619.00,0.0190
1618.00,0.0195
1617.00,0.0199
1616.00,0.0202
1615.00,0.0201
1614.00,0.0196
1613.00,0.0188
1612.00,0.0179
1611.00,0.0168
1610.00,0.0157
1609.00,0.0146
1608.00,0.0134
1607.00,0.0122
1606.00,0.0110
1605.00,0.0098
1604.00,0.0086
1603.00,0.0076
1602.00,0.0066
1601.00,0.0056
1600.00,0.0047
1599.00,0.0038
1598.00,0.0030
1597.00,0.0022
1596.00,0.0014
1595.00,0.0006
1594.00,-0.0002
1593.00,-0.0010
1592.00,-0.0018
1591.00,-0.0025
1590.00,-0.0032
1589.00,-0.0039
1588.00,-0.0046
1587.00,-0.0052
1586.00,-0.0057
1585.00,-0.0061
1584.00,-0.0064
1583.00,-0.0068
1582.00,-0.0070
1581.00,-0.0073
1580.00,-0.0074
1579.00,-0.0075
1578.00,-0.0075
1577.00,-0.0074
1576.00,-0.0073
1575.00,-0.0071
1574.00,-0.0069
1573.00,-0.0066
1572.00,-0.0064
1571.00,-0.0060
1570.00,-0.0055
1569.00,-0.0049
1568.00,-0.0043
1567.00,-0.0036
1566.00,-0.0028
1565.00,-0.0019
1564.00,-0.0010
1563.00,-0.0001
1562.00,0.0007
1561.00,0.0015
1560.00,0.0027
1559.00,0.0042
1558.00,0.0057
1557.00,0.0068
1556.00,0.0078
1555.00,0.0089
1554.00,0.0100
1553.00,0.0111
1552.00,0.0122
1551.00,0.0133
1550.00,0.0144
1549.00,0.0155
1548.00,0.0165
1547.00,0.0174
1546.00,0.0183
1545.00,0.0193
1544.00,0.0203
1543.00,0.0212
1542.00,0.0220
1541.00,0.0231
1540.00,0.0243
1539.00,0.0254
1538.00,0.0262
1537.00,0.0269
1536.00,0.0275
1535.00,0.0282
1534.00,0.0291
1533.00,0.0301
1532.00,0.0309
1531.00,0.0316
1530.00,0.0322
1529.00,0.0328
1528.00,0.0335
1527.00,0.0343
1526.00,0.0351
1525.00,0.0359
1524.00,0.0366
1523.00,0.0375
1522.00,0.0386
1521.00,0.0399
1520.00,0.0411
1519.00,0.0420
1518.00,0.0429
1517.00,0.0438
1516.00,0.0446
1515.00,0.0451
1514.00,0.0453
1513.00,0.0453
1512.00,0.0452
1511.00,0.0451
1510.00,0.0447
1509.00,0.0443
1508.00,0.0438
1507.00,0.0433
1506.00,0.0426
1505.00,0.0417
1504.00,0.0408
1503.00,0.0398
1502.00,0.0386
1501.00,0.0375
1500.00,0.0363
1499.00,0.0351
1498.00,0.0339
1497.00,0.0326
1496.00,0.0312
1495.00,0.0298
1494.00,0.0283
1493.00,0.0268
1492.00,0.0252
1491.00,0.0235
1490.00,0.0219
1489.00,0.0203
1488.00,0.0187
1487.00,0.0170
1486.00,0.0155
1485.00,0.0140
1484.00,0.0126
1483.00,0.0113
1482.00,0.0100
1481.00,0.0088
1480.00,0.0077
1479.00,0.0067
1478.00,0.0057
1477.00,0.0049
1476.00,0.0041
1475.00,0.0034
1474.00,0.0029
1473.00,0.0024
1472.00,0.0021
1471.00,0.0018
1470.00,0.0016
1469.00,0.0014
1468.00,0.0010
1467.00,0.0007
1466.00,0.0003
1465.00,-0.0001
1464.00,-0.0003
1463.00,-0.0004
1462.00,-0.0004
1461.00,-0.0004
1460.00,-0.0002
1459.00,0.0000
1458.00,0.0005
1457.00,0.0011
1456.00,0.0017
1455.00,0.0022
1454.00,0.0026
1453.00,0.0028
1452.00,0.0030
1451.00,0.0031
1450.00,0.0031
1449.00,0.0031
1448.00,0.0030
1447.00,0.0029
1446.00,0.0027
1445.00,0.0024
1444.00,0.0020
1443.00,0.0015
1442.00,0.0010
1441.00,0.0004
1440.00,-0.0002
1439.00,-0.0009
1438.00,-0.0016
1437.00,-0.0023
1436.00,-0.0030
1435.00,-0.0036
1434.00,-0.0041
1433.00,-0.0046
1432.00,-0.0051
1431.00,-0.0055
1430.00,-0.0059
1429.00,-0.0063
1428.00,-0.0065
1427.00,-0.0067
1426.00,-0.0069
1425.00,-0.0069
1424.00,-0.0069
1423.00,-0.0068
1422.00,-0.0068
1421.00,-0.0067
1420.00,-0.0066
1419.00,-0.0063
1418.00,-0.0059
1417.00,-0.0055
1416.00,-0.0052
1415.00,-0.0048
1414.00,-0.0044
1413.00,-0.0041
1412.00,-0.0037
1411.00,-0.0034
1410.00,-0.0031
1409.00,-0.0028
1408.00,-0.0025
1407.00,-0.0022
1406.00,-0.0019
1405.00,-0.0017
1404.00,-0.0016
1403.00,-0.0015
1402.00,-0.0015
1401.00,-0.0014
1400.00,-0.0014
1399.00,-0.0014
1398.00,-0.0014
1397.00,-0.0015
1396.00,-0.0016
1395.00,-0.0016
1394.00,-0.0018
1393.00,-0.0019
1392.00,-0.0019
1391.00,-0.0020
1390.00,-0.0020
1389.00,-0.0021
1388.00,-0.0023
1387.00,-0.0025
1386.00,-0.0027
1385.00,-0.0030
1384.00,-0.0033
1383.00,-0.0036
1382.00,-0.0039
1381.00,-0.0042
1380.00,-0.0043
1379.00,-0.0045
1378.00,-0.0047
1377.00,-0.0048
1376.00,-0.0050
1375.00,-0.0052
1374.00,-0.0054
1373.00,-0.0057
1372.00,-0.0059
1371.00,-0.0061
1370.00,-0.0063
1369.00,-0.0065
1368.00,-0.0067
1367.00,-0.0069
1366.00,-0.0072
1365.00,-0.0075
1364.00,-0.0078
1363.00,-0.0080
1362.00,-0.0083
1361.00,-0.0086
1360.00,-0.0088
1359.00,-0.0089
1358.00,-0.0089
1357.00,-0.0089
1356.00,-0.0088
1355.00,-0.0086
1354.00,-0.0084
1353.00,-0.0082
1352.00,-0.0080
1351.00,-0.0078
1350.00,-0.0076
1349.00,-0.0074
1348.00,-0.0073
1347.00,-0.0071
1346.00,-0.0070
1345.00,-0.0069
1344.00,-0.0068
1343.00,-0.0067
1342.00,-0.0066
1341.00,-0.0065
1340.00,-0.0065
1339.00,-0.0065
1338.00,-0.0065
1337.00,-0.0066
1336.00,-0.0067
1335.00,-0.0067
1334.00,-0.0068
1333.00,-0.0069
1332.00,-0.0070
1331.00,-0.0070
1330.00,-0.0071
1329.00,-0.0072
1328.00,-0.0073
1327.00,-0.0073
1326.00,-0.0074
1325.00,-0.0075
1324.00,-0.0076
1323.00,-0.0077
1322.00,-0.0077
1321.00,-0.0077
1320.00,-0.0077
1319.00,-0.0078
1318.00,-0.0078
1317.00,-0.0079
1316.00,-0.0080
1315.00,-0.0080
1314.00,-0.0080
1313.00,-0.0080
1312.00,-0.0081
1311.00,-0.0081
1310.00,-0.0081
1309.00,-0.0082
1308.00,-0.0082
1307.00,-0.0083
1306.00,-0.0084
1305.00,-0.0085
1304.00,-0.0086
1303.00,-0.0088
1302.00,-0.0089
1301.00,-0.0090
1300.00,-0.0092
1299.00,-0.0093
1298.00,-0.0095
1297.00,-0.0096
1296.00,-0.0098
1295.00,-0.0099
1294.00,-0.0100
1293.00,-0.0101
1292.00,-0.0102
1291.00,-0.0103
1290.00,-0.0104
1289.00,-0.0104
1288.00,-0.0106
1287.00,-0.0107
1286.00,-0.0108
1285.00,-0.0109
1284.00,-0.0110
1283.00,-0.0111
1282.00,-0.0113
1281.00,-0.0115
1280.00,-0.0116
1279.00,-0.0118
1278.00,-0.0120
1277.00,-0.0122
1276.00,-0.0124
1275.00,-0.0126
1274.00,-0.0128
1273.00,-0.0129
1272.00,-0.0131
1271.00,-0.0132
1270.00,-0.0133
1269.00,-0.0135
1268.00,-0.0137
1267.00,-0.0139
1266.00,-0.0141
1265.00,-0.0143
1264.00,-0.0144
1263.00,-0.0145
1262.00,-0.0146
1261.00,-0.0148
1260.00,-0.0149
1259.00,-0.0150
1258.00,-0.0151
1257.00,-0.0151
1256.00,-0.0151
1255.00,-0.0150
1254.00,-0.0148
1253.00,-0.0145
1252.00,-0.0142
1251.00,-0.0139
1250.00,-0.0134
1249.00,-0.0130
1248.00,-0.0125
1247.00,-0.0121
1246.00,-0.0116
1245.00,-0.0112
1244.00,-0.0108
1243.00,-0.0104
1242.00,-0.0099
1241.00,-0.0095
1240.00,-0.0091
1239.00,-0.0086
1238.00,-0.0082
1237.00,-0.0077
1236.00,-0.0072
1235.00,-0.0068
1234.00,-0.0063
1233.00,-0.0058
1232.00,-0.0054
1231.00,-0.0051
1230.00,-0.0047
1229.00,-0.0044
1228.00,-0.0041
1227.00,-0.0038
1226.00,-0.0037
1225.00,-0.0035
1224.00,-0.0035
1223.00,-0.0034
1222.00,-0.0034
1221.00,-0.0034
1220.00,-0.0034
1219.00,-0.0035
1218.00,-0.0036
1217.00,-0.0038
1216.00,-0.0040
1215.00,-0.0042
1214.00,-0.0045
1213.00,-0.0047
1212.00,-0.0051
1211.00,-0.0054
1210.00,-0.0057
1209.00,-0.0061
1208.00,-0.0065
1207.00,-0.0070
1206.00,-0.0074
1205.00,-0.0079
1204.00,-0.0084
1203.00,-0.0088
1202.00,-0.0092
1201.00,-0.0097
1200.00,-0.0102
1199.00,-0.0107
1198.00,-0.0112
1197.00,-0.0117
1196.00,-0.0121
1195.00,-0.0125
1194.00,-0.0128
1193.00,-0.0132
1192.00,-0.0136
1191.00,-0.0140
1190.00,-0.0144
1189.00,-0.0147
1188.00,-0.0151
1187.00,-0.0154
1186.00,-0.0156
1185.00,-0.0159
1184.00,-0.0162
1183.00,-0.0165
1182.00,-0.0167
1181.00,-0.0170
1180.00,-0.0173
1179.00,-0.0175
1178.00,-0.0176
1177.00,-0.0176
1176.00,-0.0177
1175.00,-0.0176
1174.00,-0.0175
1173.00,-0.0175
1172.00,-0.0175
1171.00,-0.0175
1170.00,-0.0175
1169.00,-0.0175
1168.00,-0.0174
1167.00,-0.0174
1166.00,-0.0173
1165.00,-0.0173
1164.00,-0.0173
1163.00,-0.0173
1162.00,-0.0172
1161.00,-0.0172
1160.00,-0.0172
1159.00,-0.0172
1158.00,-0.0173
1157.00,-0.0174
1156.00,-0.0175
1155.00,-0.0177
1154.00,-0.0179
1153.00,-0.0182
1152.00,-0.0185
1151.00,-0.0188
1150.00,-0.0190
1149.00,-0.0193
1148.00,-0.0197
1147.00,-0.0200
1146.00,-0.0202
1145.00,-0.0205
1144.00,-0.0208
1143.00,-0.0210
1142.00,-0.0211
1141.00,-0.0213
1140.00,-0.0216
1139.00,-0.0218
1138.00,-0.0220
1137.00,-0.0223
1136.00,-0.0226
1135.00,-0.0229
1134.00,-0.0231
1133.00,-0.0234
1132.00,-0.0236
1131.00,-0.0237
1130.00,-0.0238
1129.00,-0.0239
1128.00,-0.0239
1127.00,-0.0240
1126.00,-0.0241
1125.00,-0.0242
1124.00,-0.0244
1123.00,-0.0245
1122.00,-0.0247
1121.00,-0.0248
1120.00,-0.0249
1119.00,-0.0249
1118.00,-0.0250
1117.00,-0.0250
1116.00,-0.0250
1115.00,-0.0250
1114.00,-0.0250
1113.00,-0.0251
1112.00,-0.0252
1111.00,-0.0252
1110.00,-0.0253
1109.00,-0.0254
1108.00,-0.0254
1107.00,-0.0255
1106.00,-0.0255
1105.00,-0.0256
1104.00,-0.0256
1103.00,-0.0257
1102.00,-0.0257
1101.00,-0.0258
1100.00,-0.0258
1099.00,-0.0259
1098.00,-0.0259
1097.00,-0.0260
1096.00,-0.0260
1095.00,-0.0259
1094.00,-0.0258
1093.00,-0.0256
1092.00,-0.0254
1091.00,-0.0253
1090.00,-0.0250
1089.00,-0.0248
1088.00,-0.0245
1087.00,-0.0242
1086.00,-0.0238
1085.00,-0.0234
1084.00,-0.0230
1083.00,-0.0227
1082.00,-0.0223
1081.00,-0.0219
1080.00,-0.0215
1079.00,-0.0211
1078.00,-0.0206
1077.00,-0.0203
1076.00,-0.0199
1075.00,-0.0196
1074.00,-0.0193
1073.00,-0.0190
1072.00,-0.0188
1071.00,-0.0185
1070.00,-0.0182
1069.00,-0.0180
1068.00,-0.0177
1067.00,-0.0175
1066.00,-0.0173
1065.00,-0.0172
1064.00,-0.0173
1063.00,-0.0173
1062.00,-0.0174
1061.00,-0.0176
1060.00,-0.0178
1059.00,-0.0181
1058.00,-0.0184
1057.00,-0.0187
1056.00,-0.0191
1055.00,-0.0194
1054.00,-0.0196
1053.00,-0.0199
1052.00,-0.0202
1051.00,-0.0204
1050.00,-0.0205
1049.00,-0.0206
1048.00,-0.0208
1047.00,-0.0210
1046.00,-0.0213
1045.00,-0.0216
1044.00,-0.0219
1043.00,-0.0222
1042.00,-0.0224
1041.00,-0.0227
1040.00,-0.0230
1039.00,-0.0233
1038.00,-0.0235
1037.00,-0.0237
1036.00,-0.0239
1035.00,-0.0241
1034.00,-0.0244
1033.00,-0.0246
1032.00,-0.0249
1031.00,-0.0252
1030.00,-0.0255
1029.00,-0.0258
1028.00,-0.0261
1027.00,-0.0265
1026.00,-0.0269
1025.00,-0.0274
1024.00,-0.0279
1023.00,-0.0283
1022.00,-0.0287
1021.00,-0.0290
1020.00,-0.0294
1019.00,-0.0297
1018.00,-0.0300
1017.00,-0.0303
1016.00,-0.0307
1015.00,-0.0310
1014.00,-0.0313
1013.00,-0.0315
1012.00,-0.0318
1011.00,-0.0320
1010.00,-0.0323
1009.00,-0.0325
1008.00,-0.0327
1007.00,-0.0329
1006.00,-0.0330
1005.00,-0.0332
1004.00,-0.0333
1003.00,-0.0335
1002.00,-0.0337
1001.00,-0.0339
1000.00,-0.0341
999.00,-0.0343
998.00,-0.0345
997.00,-0.0346
996.00,-0.0347
995.00,-0.0348
994.00,-0.0348
993.00,-0.0348
992.00,-0.0348
991.00,-0.0349
990.00,-0.0350
989.00,-0.0350
988.00,-0.0351
987.00,-0.0352
986.00,-0.0352
985.00,-0.0352
984.00,-0.0352
983.00,-0.0352
982.00,-0.0352
981.00,-0.0352
980.00,-0.0353
979.00,-0.0353
978.00,-0.0354
977.00,-0.0355
976.00,-0.0357
975.00,-0.0358
974.00,-0.0359
973.00,-0.0361
972.00,-0.0363
971.00,-0.0364
970.00,-0.0365
969.00,-0.0366
968.00,-0.0367
967.00,-0.0368
966.00,-0.0368
965.00,-0.0367
964.00,-0.0367
963.00,-0.0367
962.00,-0.0367
961.00,-0.0368
960.00,-0.0370
959.00,-0.0372
958.00,-0.0374
957.00,-0.0375
956.00,-0.0377
955.00,-0.0379
954.00,-0.0380
953.00,-0.0382
952.00,-0.0383
951.00,-0.0384
950.00,-0.0384
949.00,-0.0384
948.00,-0.0385
947.00,-0.0385
946.00,-0.0385
945.00,-0.0384
944.00,-0.0384
943.00,-0.0384
942.00,-0.0383
941.00,-0.0382
940.00,-0.0382
939.00,-0.0381
938.00,-0.0380
937.00,-0.0378
936.00,-0.0377
935.00,-0.0375
934.00,-0.0374
933.00,-0.0372
932.00,-0.0371
931.00,-0.0370
930.00,-0.0369
929.00,-0.0369
928.00,-0.0370
927.00,-0.0371
926.00,-0.0373
925.00,-0.0375
924.00,-0.0378
923.00,-0.0380
922.00,-0.0383
921.00,-0.0386
920.00,-0.0389
919.00,-0.0391
918.00,-0.0393
917.00,-0.0394
916.00,-0.0396
915.00,-0.0398
914.00,-0.0399
913.00,-0.0401
912.00,-0.0402
911.00,-0.0403
910.00,-0.0403
909.00,-0.0402
908.00,-0.0402
907.00,-0.0401
906.00,-0.0400
905.00,-0.0399
904.00,-0.0398
903.00,-0.0397
902.00,-0.0396
901.00,-0.0396
900.00,-0.0396
899.00,-0.0395
898.00,-0.0394
897.00,-0.0394
896.00,-0.0393
895.00,-0.0393
894.00,-0.0394
893.00,-0.0394
892.00,-0.0395
891.00,-0.0396
890.00,-0.0396
889.00,-0.0396
888.00,-0.0397
887.00,-0.0396
886.00,-0.0395
885.00,-0.0394
884.00,-0.0394
883.00,-0.0394
882.00,-0.0394
881.00,-0.0394
880.00,-0.0394
879.00,-0.0393
878.00,-0.0391
877.00,-0.0390
876.00,-0.0389
875.00,-0.0388
874.00,-0.0388
873.00,-0.0388
872.00,-0.0389
871.00,-0.0390
870.00,-0.0392
869.00,-0.0393
868.00,-0.0395
867.00,-0.0397
866.00,-0.0399
865.00,-0.0401
864.00,-0.0402
863.00,-0.0404
862.00,-0.0406
861.00,-0.0407
860.00,-0.0409
859.00,-0.0410
858.00,-0.0411
857.00,-0.0411
856.00,-0.0412
855.00,-0.0413
854.00,-0.0413
853.00,-0.0413
852.00,-0.0414
851.00,-0.0414
850.00,-0.0415
849.00,-0.0416
848.00,-0.0416
847.00,-0.0417
846.00,-0.0417
845.00,-0.0417
844.00,-0.0418
843.00,-0.0419
842.00,-0.0419
841.00,-0.0419
840.00,-0.0419
839.00,-0.0418
838.00,-0.0417
837.00,-0.0416
836.00,-0.0416
835.00,-0.0415
834.00,-0.0415
833.00,-0.0414
832.00,-0.0413
831.00,-0.0412
830.00,-0.0410
829.00,-0.0409
828.00,-0.0409
827.00,-0.0408
826.00,-0.0408
825.00,-0.0408
824.00,-0.0409
823.00,-0.0410
822.00,-0.0411
821.00,-0.0411
820.00,-0.0410
819.00,-0.0409
818.00,-0.0407
817.00,-0.0407
816.00,-0.0406
815.00,-0.0406
814.00,-0.0406
813.00,-0.0405
812.00,-0.0404
811.00,-0.0403
810.00,-0.0401
809.00,-0.0400
808.00,-0.0399
807.00,-0.0399
806.00,-0.0398
805.00,-0.0397
804.00,-0.0397
803.00,-0.0396
802.00,-0.0396
801.00,-0.0395
800.00,-0.0395
799.00,-0.0395
798.00,-0.0395
797.00,-0.0395
796.00,-0.0395
795.00,-0.0395
794.00,-0.0394
793.00,-0.0392
792.00,-0.0392
791.00,-0.0392
790.00,-0.0392
789.00,-0.0391
788.00,-0.0390
787.00,-0.0389
786.00,-0.0389
785.00,-0.0389
784.00,-0.0389
783.00,-0.0390
782.00,-0.0391
781.00,-0.0391
780.00,-0.0392
779.00,-0.0391
778.00,-0.0390
777.00,-0.0389
776.00,-0.0387
775.00,-0.0385
774.00,-0.0384
773.00,-0.0384
772.00,-0.0386
771.00,-0.0389
770.00,-0.0393
769.00,-0.0397
768.00,-0.0398
767.00,-0.0393
766.00,-0.0386
765.00,-0.0378
764.00,-0.0372
763.00,-0.0368
762.00,-0.0365
761.00,-0.0362
760.00,-0.0360
759.00,-0.0358
758.00,-0.0355
757.00,-0.0353
756.00,-0.0350
755.00,-0.0349
754.00,-0.0346
753.00,-0.0343
752.00,-0.0340
751.00,-0.0336
750.00,-0.0333
749.00,-0.0330
748.00,-0.0328
747.00,-0.0326
746.00,-0.0324
745.00,-0.0323
744.00,-0.0322
743.00,-0.0321
742.00,-0.0319
741.00,-0.0318
740.00,-0.0318
739.00,-0.0318
738.00,-0.0317
737.00,-0.0317
736.00,-0.0316
735.00,-0.0315
734.00,-0.0313
733.00,-0.0311
732.00,-0.0308
731.00,-0.0306
730.00,-0.0303
729.00,-0.0300
728.00,-0.0298
727.00,-0.0295
726.00,-0.0292
725.00,-0.0289
724.00,-0.0285
723.00,-0.0280
722.00,-0.0275
721.00,-0.0270
720.00,-0.0265
719.00,-0.0261
718.00,-0.0256
717.00,-0.0251
716.00,-0.0245
715.00,-0.0239
714.00,-0.0233
713.00,-0.0226
712.00,-0.0220
711.00,-0.0214
710.00,-0.0208
709.00,-0.0201
708.00,-0.0195
707.00,-0.0188
706.00,-0.0180
705.00,-0.0171
704.00,-0.0163
703.00,-0.0155
702.00,-0.0148
701.00,-0.0142
700.00,-0.0138
699.00,-0.0135
698.00,-0.0134
697.00,-0.0133
696.00,-0.0133
695.00,-0.0133
694.00,-0.0133
693.00,-0.0133
692.00,-0.0134
691.00,-0.0135
690.00,-0.0135
689.00,-0.0135
688.00,-0.0134
687.00,-0.0134
686.00,-0.0132
685.00,-0.0131
684.00,-0.0130
683.00,-0.0129
682.00,-0.0129
681.00,-0.0128
680.00,-0.0128
679.00,-0.0128
678.00,-0.0127
677.00,-0.0126
676.00,-0.0127
675.00,-0.0127
674.00,-0.0128
673.00,-0.0129
672.00,-0.0131
671.00,-0.0132
670.00,-0.0133
669.00,-0.0134
668.00,-0.0136
667.00,-0.0134
666.00,-0.0131
665.00,-0.0129
664.00,-0.0129
663.00,-0.0128
662.00,-0.0127
661.00,-0.0125
660.00,-0.0124
659.00,-0.0124
658.00,-0.0124
657.00,-0.0123
656.00,-0.0123
655.00,-0.0122
654.00,-0.0121
653.00,-0.0120
652.00,-0.0120
651.00,-0.0119
650.00,-0.0117
649.00,-0.0115
648.00,-0.0114
647.00,-0.0112
646.00,-0.0111
645.00,-0.0109
644.00,-0.0108
643.00,-0.0106
642.00,-0.0103
641.00,-0.0101
640.00,-0.0099
639.00,-0.0097
638.00,-0.0095
637.00,-0.0093
636.00,-0.0092
635.00,-0.0090
634.00,-0.0088
633.00,-0.0087
632.00,-0.0088
631.00,-0.0089
630.00,-0.0088
629.00,-0.0086
628.00,-0.0085
627.00,-0.0083
626.00,-0.0081
625.00,-0.0080
624.00,-0.0081
623.00,-0.0082
622.00,-0.0083
621.00,-0.0083
620.00,-0.0083
619.00,-0.0084
618.00,-0.0084
617.00,-0.0084
616.00,-0.0086
615.00,-0.0088
614.00,-0.0089
613.00,-0.0090
612.00,-0.0093
611.00,-0.0095
610.00,-0.0095
609.00,-0.0095
608.00,-0.0095
607.00,-0.0095
606.00,-0.0095
605.00,-0.0097
604.00,-0.0099
603.00,-0.0100
602.00,-0.0100
601.00,-0.0100
600.00,-0.0102
599.00,-0.0105
598.00,-0.0106
597.00,-0.0107
596.00,-0.0108
595.00,-0.0108
594.00,-0.0107
593.00,-0.0106
592.00,-0.0105
591.00,-0.0104
590.00,-0.0102
589.00,-0.0100
588.00,-0.0100
587.00,-0.0100
586.00,-0.0100
585.00,-0.0101
584.00,-0.0102
583.00,-0.0102
582.00,-0.0101
581.00,-0.0099
580.00,-0.0098
579.00,-0.0097
578.00,-0.0097
577.00,-0.0097
576.00,-0.0097
575.00,-0.0096
574.00,-0.0094
573.00,-0.0093
572.00,-0.0095
571.00,-0.0097
570.00,-0.0098
569.00,-0.0099
568.00,-0.0100
567.00,-0.0099
566.00,-0.0096
565.00,-0.0093
564.00,-0.0093
563.00,-0.0094
562.00,-0.0094
561.00,-0.0093
560.00,-0.0092
559.00,-0.0091
558.00,-0.0090
557.00,-0.0089
556.00,-0.0088
555.00,-0.0088
554.00,-0.0086
553.00,-0.0087
552.00,-0.0088
551.00,-0.0089
550.00,-0.0089
549.00,-0.0088
548.00,-0.0090
547.00,-0.0091
546.00,-0.0092
545.00,-0.0093
544.00,-0.0095
543.00,-0.0098
542.00,-0.0098
541.00,-0.0096
540.00,-0.0096
539.00,-0.0095
538.00,-0.0094
537.00,-0.0094
536.00,-0.0096
535.00,-0.0097
534.00,-0.0097
533.00,-0.0095
532.00,-0.0094
531.00,-0.0093
530.00,-0.0093
529.00,-0.0095
528.00,-0.0097
527.00,-0.0097
526.00,-0.0095
525.00,-0.0094
524.00,-0.0095
523.00,-0.0096
522.00,-0.0098
521.00,-0.0099
520.00,-0.0101
519.00,-0.0100
518.00,-0.0098
517.00,-0.0097
516.00,-0.0098
515.00,-0.0099
514.00,-0.0100
513.00,-0.0104
512.00,-0.0110
511.00,-0.0115
510.00,-0.0117
509.00,-0.0118
508.00,-0.0118
507.00,-0.0117
506.00,-0.0116
505.00,-0.0115
504.00,-0.0116
503.00,-0.0116
502.00,-0.0114
501.00,-0.0113
500.00,-0.0115
499.00,-0.0116
498.00,-0.0116
497.00,-0.0115
496.00,-0.0117
495.00,-0.0118
494.00,-0.0119
493.00,-0.0119
492.00,-0.0120
491.00,-0.0120
490.00,-0.0120
489.00,-0.0122
488.00,-0.0125
487.00,-0.0126
486.00,-0.0124
485.00,-0.0125
484.00,-0.0132
483.00,-0.0140
482.00,-0.0144
481.00,-0.0146
480.00,-0.0146
479.00,-0.0144
478.00,-0.0137
477.00,-0.0132
476.00,-0.0132
475.00,-0.0136
474.00,-0.0139
473.00,-0.0141
472.00,-0.0144
471.00,-0.0142
470.00,-0.0135
469.00,-0.0130
468.00,-0.0130
467.00,-0.0133
466.00,-0.0135
465.00,-0.0136
464.00,-0.0137
463.00,-0.0138
462.00,-0.0137
461.00,-0.0136
460.00,-0.0137
459.00,-0.0136
458.00,-0.0133
457.00,-0.0133
456.00,-0.0139
455.00,-0.0143
454.00,-0.0140
453.00,-0.0136
452.00,-0.0135
451.00,-0.0136
450.00,-0.0135
449.00,-0.0135
448.00,-0.0139
447.00,-0.0141
446.00,-0.0141
445.00,-0.0143
444.00,-0.0148
443.00,-0.0154
442.00,-0.0156
441.00,-0.0159
440.00,-0.0165
439.00,-0.0169
438.00,-0.0169
437.00,-0.0169
436.00,-0.0173
435.00,-0.0177
434.00,-0.0176
433.00,-0.0179
432.00,-0.0188
431.00,-0.0199
430.00,-0.0203
429.00,-0.0204
428.00,-0.0207
427.00,-0.0209
426.00,-0.0209
425.00,-0.0210
424.00,-0.0215
423.00,-0.0216
422.00,-0.0211
421.00,-0.0206
420.00,-0.0208
419.00,-0.0206
418.00,-0.0195
417.00,-0.0188
416.00,-0.0191
415.00,-0.0196
414.00,-0.0200
413.00,-0.0210
412.00,-0.0230
411.00,-0.0245
410.00,-0.0245
409.00,-0.0243
408.00,-0.0250
407.00,-0.0258
406.00,-0.0256
405.00,-0.0253
404.00,-0.0260
403.00,-0.0271
402.00,-0.0270
401.00,-0.0266
400.00,-0.0268
