Created as New Dataset,Sample 483 By YargerLab Date Thursday, March 06 2025
cm-1,A
4000.00,-0.0203
3999.00,-0.0203
3998.00,-0.0203
3997.00,-0.0203
3996.00,-0.0203
3995.00,-0.0203
3994.00,-0.0203
3993.00,-0.0203
3992.00,-0.0203
3991.00,-0.0203
3990.00,-0.0204
3989.00,-0.0204
3988.00,-0.0204
3987.00,-0.0204
3986.00,-0.0204
3985.00,-0.0203
3984.00,-0.0203
3983.00,-0.0203
3982.00,-0.0203
3981.00,-0.0203
3980.00,-0.0203
3979.00,-0.0203
3978.00,-0.0203
3977.00,-0.0203
3976.00,-0.0203
3975.00,-0.0203
3974.00,-0.0203
3973.00,-0.0203
3972.00,-0.0204
3971.00,-0.0204
3970.00,-0.0204
3969.00,-0.0204
3968.00,-0.0204
3967.00,-0.0204
3966.00,-0.0205
3965.00,-0.0205
3964.00,-0.0205
3963.00,-0.0205
3962.00,-0.0205
3961.00,-0.0205
3960.00,-0.0205
3959.00,-0.0205
3958.00,-0.0205
3957.00,-0.0205
3956.00,-0.0205
3955.00,-0.0205
3954.00,-0.0206
3953.00,-0.0206
3952.00,-0.0206
3951.00,-0.0206
3950.00,-0.0205
3949.00,-0.0205
3948.00,-0.0205
3947.00,-0.0205
3946.00,-0.0205
3945.00,-0.0205
3944.00,-0.0206
3943.00,-0.0206
3942.00,-0.0206
3941.00,-0.0205
3940.00,-0.0205
3939.00,-0.0205
3938.00,-0.0205
3937.00,-0.0205
3936.00,-0.0205
3935.00,-0.0205
3934.00,-0.0206
3933.00,-0.0206
3932.00,-0.0206
3931.00,-0.0206
3930.00,-0.0206
3929.00,-0.0206
3928.00,-0.0206
3927.00,-0.0205
3926.00,-0.0205
3925.00,-0.0206
3924.00,-0.0206
3923.00,-0.0206
3922.00,-0.0206
3921.00,-0.0206
3920.00,-0.0206
3919.00,-0.0206
3918.00,-0.0207
3917.00,-0.0207
3916.00,-0.0207
3915.00,-0.0207
3914.00,-0.0207
3913.00,-0.0208
3912.00,-0.0208
3911.00,-0.0208
3910.00,-0.0208
3909.00,-0.0208
3908.00,-0.0208
3907.00,-0.0208
3906.00,-0.0207
3905.00,-0.0207
3904.00,-0.0207
3903.00,-0.0207
3902.00,-0.0208
3901.00,-0.0208
3900.00,-0.0208
3899.00,-0.0208
3898.00,-0.0209
3897.00,-0.0209
3896.00,-0.0209
3895.00,-0.0209
3894.00,-0.0209
3893.00,-0.0209
3892.00,-0.0209
3891.00,-0.0209
3890.00,-0.0209
3889.00,-0.0209
3888.00,-0.0209
3887.00,-0.0209
3886.00,-0.0210
3885.00,-0.0210
3884.00,-0.0210
3883.00,-0.0210
3882.00,-0.0209
3881.00,-0.0209
3880.00,-0.0209
3879.00,-0.0210
3878.00,-0.0210
3877.00,-0.0210
3876.00,-0.0210
3875.00,-0.0210
3874.00,-0.0210
3873.00,-0.0210
3872.00,-0.0210
3871.00,-0.0210
3870.00,-0.0210
3869.00,-0.0210
3868.00,-0.0210
3867.00,-0.0210
3866.00,-0.0210
3865.00,-0.0210
3864.00,-0.0211
3863.00,-0.0211
3862.00,-0.0210
3861.00,-0.0210
3860.00,-0.0210
3859.00,-0.0210
3858.00,-0.0210
3857.00,-0.0210
3856.00,-0.0209
3855.00,-0.0209
3854.00,-0.0209
3853.00,-0.0209
3852.00,-0.0209
3851.00,-0.0209
3850.00,-0.0209
3849.00,-0.0210
3848.00,-0.0210
3847.00,-0.0211
3846.00,-0.0212
3845.00,-0.0212
3844.00,-0.0212
3843.00,-0.0212
3842.00,-0.0211
3841.00,-0.0211
3840.00,-0.0210
3839.00,-0.0210
3838.00,-0.0210
3837.00,-0.0210
3836.00,-0.0211
3835.00,-0.0211
3834.00,-0.0211
3833.00,-0.0211
3832.00,-0.0212
3831.00,-0.0212
3830.00,-0.0212
3829.00,-0.0212
3828.00,-0.0212
3827.00,-0.0212
3826.00,-0.0212
3825.00,-0.0212
3824.00,-0.0212
3823.00,-0.0211
3822.00,-0.0211
3821.00,-0.0212
3820.00,-0.0212
3819.00,-0.0212
3818.00,-0.0212
3817.00,-0.0212
3816.00,-0.0213
3815.00,-0.0213
3814.00,-0.0213
3813.00,-0.0213
3812.00,-0.0213
3811.00,-0.0213
3810.00,-0.0213
3809.00,-0.0213
3808.00,-0.0213
3807.00,-0.0213
3806.00,-0.0213
3805.00,-0.0212
3804.00,-0.0212
3803.00,-0.0212
3802.00,-0.0212
3801.00,-0.0212
3800.00,-0.0212
3799.00,-0.0212
3798.00,-0.0212
3797.00,-0.0212
3796.00,-0.0213
3795.00,-0.0213
3794.00,-0.0214
3793.00,-0.0214
3792.00,-0.0214
3791.00,-0.0215
3790.00,-0.0215
3789.00,-0.0215
3788.00,-0.0215
3787.00,-0.0214
3786.00,-0.0214
3785.00,-0.0214
3784.00,-0.0214
3783.00,-0.0215
3782.00,-0.0215
3781.00,-0.0215
3780.00,-0.0215
3779.00,-0.0215
3778.00,-0.0215
3777.00,-0.0215
3776.00,-0.0215
3775.00,-0.0214
3774.00,-0.0214
3773.00,-0.0214
3772.00,-0.0214
3771.00,-0.0214
3770.00,-0.0215
3769.00,-0.0215
3768.00,-0.0215
3767.00,-0.0215
3766.00,-0.0215
3765.00,-0.0215
3764.00,-0.0215
3763.00,-0.0215
3762.00,-0.0214
3761.00,-0.0214
3760.00,-0.0214
3759.00,-0.0214
3758.00,-0.0215
3757.00,-0.0215
3756.00,-0.0215
3755.00,-0.0215
3754.00,-0.0214
3753.00,-0.0214
3752.00,-0.0214
3751.00,-0.0213
3750.00,-0.0214
3749.00,-0.0214
3748.00,-0.0213
3747.00,-0.0213
3746.00,-0.0213
3745.00,-0.0213
3744.00,-0.0214
3743.00,-0.0214
3742.00,-0.0214
3741.00,-0.0214
3740.00,-0.0214
3739.00,-0.0214
3738.00,-0.0214
3737.00,-0.0214
3736.00,-0.0214
3735.00,-0.0214
3734.00,-0.0214
3733.00,-0.0214
3732.00,-0.0214
3731.00,-0.0215
3730.00,-0.0215
3729.00,-0.0216
3728.00,-0.0215
3727.00,-0.0215
3726.00,-0.0215
3725.00,-0.0215
3724.00,-0.0215
3723.00,-0.0215
3722.00,-0.0215
3721.00,-0.0216
3720.00,-0.0216
3719.00,-0.0216
3718.00,-0.0216
3717.00,-0.0216
3716.00,-0.0216
3715.00,-0.0216
3714.00,-0.0216
3713.00,-0.0216
3712.00,-0.0216
3711.00,-0.0216
3710.00,-0.0216
3709.00,-0.0216
3708.00,-0.0216
3707.00,-0.0217
3706.00,-0.0217
3705.00,-0.0217
3704.00,-0.0217
3703.00,-0.0217
3702.00,-0.0217
3701.00,-0.0217
3700.00,-0.0217
3699.00,-0.0216
3698.00,-0.0216
3697.00,-0.0216
3696.00,-0.0217
3695.00,-0.0217
3694.00,-0.0217
3693.00,-0.0217
3692.00,-0.0217
3691.00,-0.0217
3690.00,-0.0217
3689.00,-0.0217
3688.00,-0.0217
3687.00,-0.0217
3686.00,-0.0217
3685.00,-0.0218
3684.00,-0.0218
3683.00,-0.0219
3682.00,-0.0220
3681.00,-0.0221
3680.00,-0.0221
3679.00,-0.0221
3678.00,-0.0221
3677.00,-0.0221
3676.00,-0.0222
3675.00,-0.0223
3674.00,-0.0224
3673.00,-0.0224
3672.00,-0.0224
3671.00,-0.0225
3670.00,-0.0225
3669.00,-0.0226
3668.00,-0.0225
3667.00,-0.0225
3666.00,-0.0225
3665.00,-0.0225
3664.00,-0.0225
3663.00,-0.0226
3662.00,-0.0226
3661.00,-0.0226
3660.00,-0.0225
3659.00,-0.0225
3658.00,-0.0225
3657.00,-0.0225
3656.00,-0.0224
3655.00,-0.0224
3654.00,-0.0224
3653.00,-0.0223
3652.00,-0.0222
3651.00,-0.0221
3650.00,-0.0221
3649.00,-0.0221
3648.00,-0.0221
3647.00,-0.0220
3646.00,-0.0220
3645.00,-0.0219
3644.00,-0.0219
3643.00,-0.0218
3642.00,-0.0217
3641.00,-0.0217
3640.00,-0.0217
3639.00,-0.0217
3638.00,-0.0217
3637.00,-0.0217
3636.00,-0.0216
3635.00,-0.0215
3634.00,-0.0214
3633.00,-0.0213
3632.00,-0.0212
3631.00,-0.0210
3630.00,-0.0209
3629.00,-0.0208
3628.00,-0.0208
3627.00,-0.0207
3626.00,-0.0207
3625.00,-0.0207
3624.00,-0.0207
3623.00,-0.0207
3622.00,-0.0207
3621.00,-0.0206
3620.00,-0.0206
3619.00,-0.0205
3618.00,-0.0204
3617.00,-0.0203
3616.00,-0.0203
3615.00,-0.0202
3614.00,-0.0202
3613.00,-0.0202
3612.00,-0.0202
3611.00,-0.0202
3610.00,-0.0203
3609.00,-0.0203
3608.00,-0.0203
3607.00,-0.0203
3606.00,-0.0202
3605.00,-0.0201
3604.00,-0.0200
3603.00,-0.0200
3602.00,-0.0199
3601.00,-0.0199
3600.00,-0.0199
3599.00,-0.0198
3598.00,-0.0198
3597.00,-0.0198
3596.00,-0.0197
3595.00,-0.0197
3594.00,-0.0197
3593.00,-0.0197
3592.00,-0.0196
3591.00,-0.0195
3590.00,-0.0194
3589.00,-0.0194
3588.00,-0.0193
3587.00,-0.0193
3586.00,-0.0194
3585.00,-0.0194
3584.00,-0.0194
3583.00,-0.0193
3582.00,-0.0193
3581.00,-0.0192
3580.00,-0.0191
3579.00,-0.0191
3578.00,-0.0190
3577.00,-0.0190
3576.00,-0.0190
3575.00,-0.0190
3574.00,-0.0189
3573.00,-0.0189
3572.00,-0.0188
3571.00,-0.0188
3570.00,-0.0187
3569.00,-0.0187
3568.00,-0.0187
3567.00,-0.0187
3566.00,-0.0187
3565.00,-0.0186
3564.00,-0.0186
3563.00,-0.0186
3562.00,-0.0186
3561.00,-0.0186
3560.00,-0.0185
3559.00,-0.0184
3558.00,-0.0184
3557.00,-0.0183
3556.00,-0.0182
3555.00,-0.0182
3554.00,-0.0181
3553.00,-0.0181
3552.00,-0.0180
3551.00,-0.0180
3550.00,-0.0179
3549.00,-0.0178
3548.00,-0.0178
3547.00,-0.0177
3546.00,-0.0177
3545.00,-0.0177
3544.00,-0.0177
3543.00,-0.0176
3542.00,-0.0176
3541.00,-0.0176
3540.00,-0.0176
3539.00,-0.0176
3538.00,-0.0175
3537.00,-0.0175
3536.00,-0.0175
3535.00,-0.0175
3534.00,-0.0174
3533.00,-0.0174
3532.00,-0.0173
3531.00,-0.0173
3530.00,-0.0172
3529.00,-0.0171
3528.00,-0.0171
3527.00,-0.0170
3526.00,-0.0169
3525.00,-0.0169
3524.00,-0.0168
3523.00,-0.0168
3522.00,-0.0168
3521.00,-0.0168
3520.00,-0.0168
3519.00,-0.0167
3518.00,-0.0167
3517.00,-0.0166
3516.00,-0.0166
3515.00,-0.0165
3514.00,-0.0165
3513.00,-0.0164
3512.00,-0.0164
3511.00,-0.0164
3510.00,-0.0163
3509.00,-0.0163
3508.00,-0.0162
3507.00,-0.0162
3506.00,-0.0161
3505.00,-0.0161
3504.00,-0.0160
3503.00,-0.0160
3502.00,-0.0159
3501.00,-0.0159
3500.00,-0.0158
3499.00,-0.0157
3498.00,-0.0157
3497.00,-0.0156
3496.00,-0.0155
3495.00,-0.0155
3494.00,-0.0154
3493.00,-0.0153
3492.00,-0.0153
3491.00,-0.0153
3490.00,-0.0152
3489.00,-0.0152
3488.00,-0.0152
3487.00,-0.0151
3486.00,-0.0151
3485.00,-0.0150
3484.00,-0.0149
3483.00,-0.0148
3482.00,-0.0148
3481.00,-0.0147
3480.00,-0.0146
3479.00,-0.0146
3478.00,-0.0145
3477.00,-0.0144
3476.00,-0.0144
3475.00,-0.0143
3474.00,-0.0143
3473.00,-0.0142
3472.00,-0.0142
3471.00,-0.0141
3470.00,-0.0141
3469.00,-0.0140
3468.00,-0.0140
3467.00,-0.0140
3466.00,-0.0139
3465.00,-0.0139
3464.00,-0.0138
3463.00,-0.0138
3462.00,-0.0137
3461.00,-0.0137
3460.00,-0.0136
3459.00,-0.0136
3458.00,-0.0135
3457.00,-0.0135
3456.00,-0.0134
3455.00,-0.0133
3454.00,-0.0133
3453.00,-0.0132
3452.00,-0.0132
3451.00,-0.0131
3450.00,-0.0130
3449.00,-0.0130
3448.00,-0.0129
3447.00,-0.0129
3446.00,-0.0128
3445.00,-0.0127
3444.00,-0.0127
3443.00,-0.0127
3442.00,-0.0126
3441.00,-0.0126
3440.00,-0.0125
3439.00,-0.0124
3438.00,-0.0124
3437.00,-0.0123
3436.00,-0.0122
3435.00,-0.0122
3434.00,-0.0121
3433.00,-0.0121
3432.00,-0.0120
3431.00,-0.0119
3430.00,-0.0118
3429.00,-0.0118
3428.00,-0.0117
3427.00,-0.0117
3426.00,-0.0116
3425.00,-0.0116
3424.00,-0.0115
3423.00,-0.0115
3422.00,-0.0115
3421.00,-0.0114
3420.00,-0.0113
3419.00,-0.0112
3418.00,-0.0111
3417.00,-0.0110
3416.00,-0.0110
3415.00,-0.0110
3414.00,-0.0110
3413.00,-0.0109
3412.00,-0.0109
3411.00,-0.0108
3410.00,-0.0107
3409.00,-0.0107
3408.00,-0.0106
3407.00,-0.0106
3406.00,-0.0105
3405.00,-0.0104
3404.00,-0.0104
3403.00,-0.0103
3402.00,-0.0103
3401.00,-0.0102
3400.00,-0.0101
3399.00,-0.0101
3398.00,-0.0101
3397.00,-0.0100
3396.00,-0.0099
3395.00,-0.0099
3394.00,-0.0098
3393.00,-0.0098
3392.00,-0.0097
3391.00,-0.0097
3390.00,-0.0096
3389.00,-0.0096
3388.00,-0.0095
3387.00,-0.0094
3386.00,-0.0093
3385.00,-0.0093
3384.00,-0.0092
3383.00,-0.0092
3382.00,-0.0091
3381.00,-0.0090
3380.00,-0.0090
3379.00,-0.0089
3378.00,-0.0088
3377.00,-0.0087
3376.00,-0.0086
3375.00,-0.0086
3374.00,-0.0085
3373.00,-0.0084
3372.00,-0.0083
3371.00,-0.0082
3370.00,-0.0080
3369.00,-0.0079
3368.00,-0.0079
3367.00,-0.0078
3366.00,-0.0077
3365.00,-0.0076
3364.00,-0.0075
3363.00,-0.0074
3362.00,-0.0073
3361.00,-0.0072
3360.00,-0.0071
3359.00,-0.0070
3358.00,-0.0068
3357.00,-0.0067
3356.00,-0.0066
3355.00,-0.0065
3354.00,-0.0064
3353.00,-0.0062
3352.00,-0.0061
3351.00,-0.0059
3350.00,-0.0058
3349.00,-0.0057
3348.00,-0.0055
3347.00,-0.0054
3346.00,-0.0052
3345.00,-0.0051
3344.00,-0.0049
3343.00,-0.0048
3342.00,-0.0046
3341.00,-0.0045
3340.00,-0.0044
3339.00,-0.0042
3338.00,-0.0041
3337.00,-0.0039
3336.00,-0.0037
3335.00,-0.0036
3334.00,-0.0034
3333.00,-0.0033
3332.00,-0.0032
3331.00,-0.0030
3330.00,-0.0029
3329.00,-0.0027
3328.00,-0.0025
3327.00,-0.0022
3326.00,-0.0020
3325.00,-0.0018
3324.00,-0.0017
3323.00,-0.0015
3322.00,-0.0013
3321.00,-0.0011
3320.00,-0.0008
3319.00,-0.0006
3318.00,-0.0004
3317.00,-0.0002
3316.00,-0.0000
3315.00,0.0001
3314.00,0.0003
3313.00,0.0005
3312.00,0.0007
3311.00,0.0009
3310.00,0.0011
3309.00,0.0014
3308.00,0.0016
3307.00,0.0018
3306.00,0.0021
3305.00,0.0023
3304.00,0.0026
3303.00,0.0028
3302.00,0.0031
3301.00,0.0033
3300.00,0.0035
3299.00,0.0038
3298.00,0.0040
3297.00,0.0042
3296.00,0.0044
3295.00,0.0047
3294.00,0.0049
3293.00,0.0051
3292.00,0.0053
3291.00,0.0055
3290.00,0.0057
3289.00,0.0059
3288.00,0.0061
3287.00,0.0063
3286.00,0.0064
3285.00,0.0065
3284.00,0.0066
3283.00,0.0067
3282.00,0.0069
3281.00,0.0070
3280.00,0.0071
3279.00,0.0072
3278.00,0.0072
3277.00,0.0073
3276.00,0.0073
3275.00,0.0073
3274.00,0.0073
3273.00,0.0072
3272.00,0.0072
3271.00,0.0071
3270.00,0.0070
3269.00,0.0069
3268.00,0.0068
3267.00,0.0067
3266.00,0.0065
3265.00,0.0064
3264.00,0.0062
3263.00,0.0060
3262.00,0.0058
3261.00,0.0056
3260.00,0.0054
3259.00,0.0051
3258.00,0.0049
3257.00,0.0047
3256.00,0.0045
3255.00,0.0043
3254.00,0.0040
3253.00,0.0038
3252.00,0.0035
3251.00,0.0033
3250.00,0.0030
3249.00,0.0028
3248.00,0.0026
3247.00,0.0023
3246.00,0.0021
3245.00,0.0019
3244.00,0.0016
3243.00,0.0014
3242.00,0.0012
3241.00,0.0011
3240.00,0.0009
3239.00,0.0007
3238.00,0.0005
3237.00,0.0003
3236.00,0.0002
3235.00,-0.0000
3234.00,-0.0002
3233.00,-0.0004
3232.00,-0.0006
3231.00,-0.0008
3230.00,-0.0009
3229.00,-0.0010
3228.00,-0.0012
3227.00,-0.0013
3226.00,-0.0015
3225.00,-0.0017
3224.00,-0.0018
3223.00,-0.0020
3222.00,-0.0021
3221.00,-0.0023
3220.00,-0.0024
3219.00,-0.0025
3218.00,-0.0026
3217.00,-0.0028
3216.00,-0.0029
3215.00,-0.0030
3214.00,-0.0032
3213.00,-0.0033
3212.00,-0.0034
3211.00,-0.0035
3210.00,-0.0036
3209.00,-0.0038
3208.00,-0.0039
3207.00,-0.0040
3206.00,-0.0042
3205.00,-0.0043
3204.00,-0.0044
3203.00,-0.0045
3202.00,-0.0047
3201.00,-0.0048
3200.00,-0.0050
3199.00,-0.0051
3198.00,-0.0052
3197.00,-0.0053
3196.00,-0.0054
3195.00,-0.0055
3194.00,-0.0057
3193.00,-0.0058
3192.00,-0.0060
3191.00,-0.0061
3190.00,-0.0063
3189.00,-0.0064
3188.00,-0.0066
3187.00,-0.0067
3186.00,-0.0068
3185.00,-0.0070
3184.00,-0.0071
3183.00,-0.0073
3182.00,-0.0074
3181.00,-0.0076
3180.00,-0.0077
3179.00,-0.0078
3178.00,-0.0080
3177.00,-0.0081
3176.00,-0.0082
3175.00,-0.0084
3174.00,-0.0085
3173.00,-0.0087
3172.00,-0.0088
3171.00,-0.0090
3170.00,-0.0091
3169.00,-0.0093
3168.00,-0.0094
3167.00,-0.0095
3166.00,-0.0097
3165.00,-0.0098
3164.00,-0.0099
3163.00,-0.0101
3162.00,-0.0102
3161.00,-0.0103
3160.00,-0.0104
3159.00,-0.0105
3158.00,-0.0107
3157.00,-0.0108
3156.00,-0.0109
3155.00,-0.0110
3154.00,-0.0111
3153.00,-0.0112
3152.00,-0.0113
3151.00,-0.0114
3150.00,-0.0115
3149.00,-0.0116
3148.00,-0.0117
3147.00,-0.0118
3146.00,-0.0119
3145.00,-0.0120
3144.00,-0.0121
3143.00,-0.0122
3142.00,-0.0123
3141.00,-0.0124
3140.00,-0.0126
3139.00,-0.0127
3138.00,-0.0128
3137.00,-0.0129
3136.00,-0.0130
3135.00,-0.0130
3134.00,-0.0131
3133.00,-0.0131
3132.00,-0.0132
3131.00,-0.0132
3130.00,-0.0133
3129.00,-0.0134
3128.00,-0.0134
3127.00,-0.0135
3126.00,-0.0135
3125.00,-0.0135
3124.00,-0.0135
3123.00,-0.0136
3122.00,-0.0137
3121.00,-0.0138
3120.00,-0.0139
3119.00,-0.0139
3118.00,-0.0140
3117.00,-0.0140
3116.00,-0.0141
3115.00,-0.0141
3114.00,-0.0141
3113.00,-0.0141
3112.00,-0.0140
3111.00,-0.0140
3110.00,-0.0140
3109.00,-0.0140
3108.00,-0.0141
3107.00,-0.0141
3106.00,-0.0141
3105.00,-0.0141
3104.00,-0.0141
3103.00,-0.0141
3102.00,-0.0141
3101.00,-0.0141
3100.00,-0.0141
3099.00,-0.0141
3098.00,-0.0141
3097.00,-0.0140
3096.00,-0.0140
3095.00,-0.0139
3094.00,-0.0139
3093.00,-0.0139
3092.00,-0.0139
3091.00,-0.0138
3090.00,-0.0138
3089.00,-0.0138
3088.00,-0.0138
3087.00,-0.0138
3086.00,-0.0137
3085.00,-0.0137
3084.00,-0.0137
3083.00,-0.0138
3082.00,-0.0138
3081.00,-0.0138
3080.00,-0.0137
3079.00,-0.0137
3078.00,-0.0137
3077.00,-0.0137
3076.00,-0.0137
3075.00,-0.0137
3074.00,-0.0136
3073.00,-0.0136
3072.00,-0.0136
3071.00,-0.0136
3070.00,-0.0137
3069.00,-0.0137
3068.00,-0.0137
3067.00,-0.0137
3066.00,-0.0137
3065.00,-0.0137
3064.00,-0.0137
3063.00,-0.0137
3062.00,-0.0137
3061.00,-0.0138
3060.00,-0.0138
3059.00,-0.0139
3058.00,-0.0140
3057.00,-0.0141
3056.00,-0.0141
3055.00,-0.0142
3054.00,-0.0143
3053.00,-0.0144
3052.00,-0.0144
3051.00,-0.0145
3050.00,-0.0146
3049.00,-0.0146
3048.00,-0.0147
3047.00,-0.0147
3046.00,-0.0148
3045.00,-0.0148
3044.00,-0.0149
3043.00,-0.0150
3042.00,-0.0150
3041.00,-0.0151
3040.00,-0.0151
3039.00,-0.0152
3038.00,-0.0152
3037.00,-0.0153
3036.00,-0.0153
3035.00,-0.0153
3034.00,-0.0154
3033.00,-0.0154
3032.00,-0.0154
3031.00,-0.0155
3030.00,-0.0155
3029.00,-0.0156
3028.00,-0.0157
3027.00,-0.0158
3026.00,-0.0159
3025.00,-0.0160
3024.00,-0.0161
3023.00,-0.0163
3022.00,-0.0164
3021.00,-0.0165
3020.00,-0.0165
3019.00,-0.0164
3018.00,-0.0162
3017.00,-0.0159
3016.00,-0.0158
3015.00,-0.0160
3014.00,-0.0164
3013.00,-0.0169
3012.00,-0.0174
3011.00,-0.0178
3010.00,-0.0181
3009.00,-0.0184
3008.00,-0.0186
3007.00,-0.0189
3006.00,-0.0191
3005.00,-0.0194
3004.00,-0.0197
3003.00,-0.0199
3002.00,-0.0202
3001.00,-0.0204
3000.00,-0.0207
2999.00,-0.0209
2998.00,-0.0211
2997.00,-0.0213
2996.00,-0.0214
2995.00,-0.0215
2994.00,-0.0216
2993.00,-0.0218
2992.00,-0.0219
2991.00,-0.0220
2990.00,-0.0220
2989.00,-0.0221
2988.00,-0.0222
2987.00,-0.0223
2986.00,-0.0227
2985.00,-0.0232
2984.00,-0.0240
2983.00,-0.0247
2982.00,-0.0253
2981.00,-0.0254
2980.00,-0.0250
2979.00,-0.0242
2978.00,-0.0231
2977.00,-0.0219
2976.00,-0.0210
2975.00,-0.0206
2974.00,-0.0207
2973.00,-0.0211
2972.00,-0.0215
2971.00,-0.0215
2970.00,-0.0212
2969.00,-0.0207
2968.00,-0.0201
2967.00,-0.0196
2966.00,-0.0191
2965.00,-0.0187
2964.00,-0.0184
2963.00,-0.0181
2962.00,-0.0178
2961.00,-0.0175
2960.00,-0.0173
2959.00,-0.0171
2958.00,-0.0169
2957.00,-0.0168
2956.00,-0.0167
2955.00,-0.0166
2954.00,-0.0165
2953.00,-0.0164
2952.00,-0.0163
2951.00,-0.0162
2950.00,-0.0162
2949.00,-0.0160
2948.00,-0.0159
2947.00,-0.0157
2946.00,-0.0154
2945.00,-0.0152
2944.00,-0.0149
2943.00,-0.0146
2942.00,-0.0144
2941.00,-0.0141
2940.00,-0.0138
2939.00,-0.0135
2938.00,-0.0132
2937.00,-0.0128
2936.00,-0.0125
2935.00,-0.0121
2934.00,-0.0118
2933.00,-0.0115
2932.00,-0.0113
2931.00,-0.0111
2930.00,-0.0109
2929.00,-0.0106
2928.00,-0.0104
2927.00,-0.0102
2926.00,-0.0101
2925.00,-0.0101
2924.00,-0.0102
2923.00,-0.0103
2922.00,-0.0104
2921.00,-0.0106
2920.00,-0.0109
2919.00,-0.0112
2918.00,-0.0115
2917.00,-0.0119
2916.00,-0.0124
2915.00,-0.0128
2914.00,-0.0133
2913.00,-0.0137
2912.00,-0.0141
2911.00,-0.0146
2910.00,-0.0150
2909.00,-0.0154
2908.00,-0.0157
2907.00,-0.0159
2906.00,-0.0161
2905.00,-0.0163
2904.00,-0.0165
2903.00,-0.0168
2902.00,-0.0169
2901.00,-0.0171
2900.00,-0.0173
2899.00,-0.0174
2898.00,-0.0176
2897.00,-0.0178
2896.00,-0.0179
2895.00,-0.0181
2894.00,-0.0183
2893.00,-0.0185
2892.00,-0.0187
2891.00,-0.0188
2890.00,-0.0189
2889.00,-0.0190
2888.00,-0.0191
2887.00,-0.0191
2886.00,-0.0191
2885.00,-0.0191
2884.00,-0.0191
2883.00,-0.0190
2882.00,-0.0189
2881.00,-0.0187
2880.00,-0.0185
2879.00,-0.0183
2878.00,-0.0181
2877.00,-0.0179
2876.00,-0.0178
2875.00,-0.0177
2874.00,-0.0176
2873.00,-0.0176
2872.00,-0.0176
2871.00,-0.0176
2870.00,-0.0176
2869.00,-0.0177
2868.00,-0.0177
2867.00,-0.0177
2866.00,-0.0177
2865.00,-0.0177
2864.00,-0.0176
2863.00,-0.0175
2862.00,-0.0173
2861.00,-0.0171
2860.00,-0.0169
2859.00,-0.0167
2858.00,-0.0165
2857.00,-0.0162
2856.00,-0.0160
2855.00,-0.0159
2854.00,-0.0158
2853.00,-0.0158
2852.00,-0.0159
2851.00,-0.0161
2850.00,-0.0163
2849.00,-0.0166
2848.00,-0.0170
2847.00,-0.0175
2846.00,-0.0179
2845.00,-0.0183
2844.00,-0.0186
2843.00,-0.0190
2842.00,-0.0192
2841.00,-0.0195
2840.00,-0.0197
2839.00,-0.0199
2838.00,-0.0201
2837.00,-0.0202
2836.00,-0.0203
2835.00,-0.0204
2834.00,-0.0205
2833.00,-0.0206
2832.00,-0.0206
2831.00,-0.0207
2830.00,-0.0208
2829.00,-0.0209
2828.00,-0.0209
2827.00,-0.0210
2826.00,-0.0210
2825.00,-0.0211
2824.00,-0.0212
2823.00,-0.0213
2822.00,-0.0213
2821.00,-0.0214
2820.00,-0.0215
2819.00,-0.0215
2818.00,-0.0216
2817.00,-0.0216
2816.00,-0.0216
2815.00,-0.0217
2814.00,-0.0217
2813.00,-0.0217
2812.00,-0.0217
2811.00,-0.0218
2810.00,-0.0218
2809.00,-0.0218
2808.00,-0.0219
2807.00,-0.0219
2806.00,-0.0220
2805.00,-0.0220
2804.00,-0.0221
2803.00,-0.0221
2802.00,-0.0221
2801.00,-0.0221
2800.00,-0.0221
2799.00,-0.0222
2798.00,-0.0222
2797.00,-0.0222
2796.00,-0.0223
2795.00,-0.0223
2794.00,-0.0223
2793.00,-0.0224
2792.00,-0.0224
2791.00,-0.0224
2790.00,-0.0224
2789.00,-0.0225
2788.00,-0.0225
2787.00,-0.0225
2786.00,-0.0226
2785.00,-0.0226
2784.00,-0.0226
2783.00,-0.0227
2782.00,-0.0227
2781.00,-0.0227
2780.00,-0.0227
2779.00,-0.0227
2778.00,-0.0228
2777.00,-0.0228
2776.00,-0.0228
2775.00,-0.0229
2774.00,-0.0229
2773.00,-0.0230
2772.00,-0.0230
2771.00,-0.0231
2770.00,-0.0231
2769.00,-0.0231
2768.00,-0.0231
2767.00,-0.0232
2766.00,-0.0232
2765.00,-0.0232
2764.00,-0.0232
2763.00,-0.0232
2762.00,-0.0232
2761.00,-0.0232
2760.00,-0.0233
2759.00,-0.0233
2758.00,-0.0233
2757.00,-0.0234
2756.00,-0.0234
2755.00,-0.0235
2754.00,-0.0235
2753.00,-0.0235
2752.00,-0.0236
2751.00,-0.0236
2750.00,-0.0236
2749.00,-0.0237
2748.00,-0.0237
2747.00,-0.0237
2746.00,-0.0237
2745.00,-0.0237
2744.00,-0.0238
2743.00,-0.0238
2742.00,-0.0238
2741.00,-0.0238
2740.00,-0.0238
2739.00,-0.0238
2738.00,-0.0239
2737.00,-0.0239
2736.00,-0.0239
2735.00,-0.0239
2734.00,-0.0240
2733.00,-0.0240
2732.00,-0.0240
2731.00,-0.0240
2730.00,-0.0241
2729.00,-0.0241
2728.00,-0.0241
2727.00,-0.0241
2726.00,-0.0242
2725.00,-0.0242
2724.00,-0.0242
2723.00,-0.0243
2722.00,-0.0243
2721.00,-0.0244
2720.00,-0.0244
2719.00,-0.0244
2718.00,-0.0244
2717.00,-0.0245
2716.00,-0.0245
2715.00,-0.0245
2714.00,-0.0246
2713.00,-0.0246
2712.00,-0.0246
2711.00,-0.0246
2710.00,-0.0246
2709.00,-0.0246
2708.00,-0.0246
2707.00,-0.0247
2706.00,-0.0247
2705.00,-0.0248
2704.00,-0.0248
2703.00,-0.0248
2702.00,-0.0249
2701.00,-0.0249
2700.00,-0.0249
2699.00,-0.0250
2698.00,-0.0250
2697.00,-0.0249
2696.00,-0.0249
2695.00,-0.0249
2694.00,-0.0250
2693.00,-0.0250
2692.00,-0.0250
2691.00,-0.0250
2690.00,-0.0250
2689.00,-0.0251
2688.00,-0.0251
2687.00,-0.0252
2686.00,-0.0252
2685.00,-0.0253
2684.00,-0.0253
2683.00,-0.0253
2682.00,-0.0253
2681.00,-0.0253
2680.00,-0.0253
2679.00,-0.0253
2678.00,-0.0254
2677.00,-0.0254
2676.00,-0.0254
2675.00,-0.0254
2674.00,-0.0254
2673.00,-0.0255
2672.00,-0.0255
2671.00,-0.0255
2670.00,-0.0255
2669.00,-0.0255
2668.00,-0.0255
2667.00,-0.0256
2666.00,-0.0256
2665.00,-0.0256
2664.00,-0.0256
2663.00,-0.0257
2662.00,-0.0257
2661.00,-0.0257
2660.00,-0.0257
2659.00,-0.0257
2658.00,-0.0257
2657.00,-0.0258
2656.00,-0.0258
2655.00,-0.0258
2654.00,-0.0258
2653.00,-0.0258
2652.00,-0.0258
2651.00,-0.0258
2650.00,-0.0258
2649.00,-0.0258
2648.00,-0.0258
2647.00,-0.0259
2646.00,-0.0259
2645.00,-0.0259
2644.00,-0.0259
2643.00,-0.0259
2642.00,-0.0259
2641.00,-0.0259
2640.00,-0.0260
2639.00,-0.0260
2638.00,-0.0260
2637.00,-0.0259
2636.00,-0.0259
2635.00,-0.0259
2634.00,-0.0259
2633.00,-0.0259
2632.00,-0.0259
2631.00,-0.0259
2630.00,-0.0259
2629.00,-0.0260
2628.00,-0.0260
2627.00,-0.0260
2626.00,-0.0261
2625.00,-0.0261
2624.00,-0.0261
2623.00,-0.0261
2622.00,-0.0261
2621.00,-0.0260
2620.00,-0.0261
2619.00,-0.0261
2618.00,-0.0261
2617.00,-0.0261
2616.00,-0.0261
2615.00,-0.0261
2614.00,-0.0261
2613.00,-0.0261
2612.00,-0.0261
2611.00,-0.0261
2610.00,-0.0262
2609.00,-0.0262
2608.00,-0.0262
2607.00,-0.0262
2606.00,-0.0262
2605.00,-0.0263
2604.00,-0.0263
2603.00,-0.0263
2602.00,-0.0262
2601.00,-0.0262
2600.00,-0.0262
2599.00,-0.0262
2598.00,-0.0262
2597.00,-0.0263
2596.00,-0.0263
2595.00,-0.0263
2594.00,-0.0264
2593.00,-0.0264
2592.00,-0.0264
2591.00,-0.0263
2590.00,-0.0263
2589.00,-0.0264
2588.00,-0.0264
2587.00,-0.0265
2586.00,-0.0265
2585.00,-0.0265
2584.00,-0.0265
2583.00,-0.0266
2582.00,-0.0266
2581.00,-0.0266
2580.00,-0.0267
2579.00,-0.0266
2578.00,-0.0266
2577.00,-0.0266
2576.00,-0.0266
2575.00,-0.0266
2574.00,-0.0267
2573.00,-0.0267
2572.00,-0.0267
2571.00,-0.0268
2570.00,-0.0268
2569.00,-0.0268
2568.00,-0.0268
2567.00,-0.0268
2566.00,-0.0268
2565.00,-0.0268
2564.00,-0.0268
2563.00,-0.0268
2562.00,-0.0269
2561.00,-0.0269
2560.00,-0.0269
2559.00,-0.0269
2558.00,-0.0269
2557.00,-0.0269
2556.00,-0.0269
2555.00,-0.0270
2554.00,-0.0270
2553.00,-0.0271
2552.00,-0.0271
2551.00,-0.0272
2550.00,-0.0272
2549.00,-0.0272
2548.00,-0.0271
2547.00,-0.0272
2546.00,-0.0272
2545.00,-0.0272
2544.00,-0.0273
2543.00,-0.0273
2542.00,-0.0273
2541.00,-0.0273
2540.00,-0.0273
2539.00,-0.0272
2538.00,-0.0272
2537.00,-0.0272
2536.00,-0.0272
2535.00,-0.0272
2534.00,-0.0273
2533.00,-0.0273
2532.00,-0.0273
2531.00,-0.0273
2530.00,-0.0274
2529.00,-0.0274
2528.00,-0.0274
2527.00,-0.0274
2526.00,-0.0274
2525.00,-0.0275
2524.00,-0.0275
2523.00,-0.0275
2522.00,-0.0275
2521.00,-0.0276
2520.00,-0.0276
2519.00,-0.0277
2518.00,-0.0277
2517.00,-0.0276
2516.00,-0.0276
2515.00,-0.0276
2514.00,-0.0277
2513.00,-0.0277
2512.00,-0.0278
2511.00,-0.0278
2510.00,-0.0277
2509.00,-0.0277
2508.00,-0.0276
2507.00,-0.0276
2506.00,-0.0276
2505.00,-0.0276
2504.00,-0.0276
2503.00,-0.0276
2502.00,-0.0277
2501.00,-0.0278
2500.00,-0.0279
2499.00,-0.0279
2498.00,-0.0279
2497.00,-0.0279
2496.00,-0.0278
2495.00,-0.0278
2494.00,-0.0278
2493.00,-0.0278
2492.00,-0.0278
2491.00,-0.0279
2490.00,-0.0280
2489.00,-0.0280
2488.00,-0.0280
2487.00,-0.0280
2486.00,-0.0280
2485.00,-0.0280
2484.00,-0.0281
2483.00,-0.0281
2482.00,-0.0281
2481.00,-0.0280
2480.00,-0.0280
2479.00,-0.0280
2478.00,-0.0281
2477.00,-0.0281
2476.00,-0.0281
2475.00,-0.0281
2474.00,-0.0281
2473.00,-0.0282
2472.00,-0.0282
2471.00,-0.0282
2470.00,-0.0282
2469.00,-0.0282
2468.00,-0.0281
2467.00,-0.0281
2466.00,-0.0281
2465.00,-0.0282
2464.00,-0.0282
2463.00,-0.0283
2462.00,-0.0284
2461.00,-0.0284
2460.00,-0.0285
2459.00,-0.0285
2458.00,-0.0284
2457.00,-0.0284
2456.00,-0.0283
2455.00,-0.0283
2454.00,-0.0284
2453.00,-0.0284
2452.00,-0.0285
2451.00,-0.0285
2450.00,-0.0285
2449.00,-0.0285
2448.00,-0.0285
2447.00,-0.0285
2446.00,-0.0286
2445.00,-0.0286
2444.00,-0.0286
2443.00,-0.0287
2442.00,-0.0287
2441.00,-0.0287
2440.00,-0.0287
2439.00,-0.0287
2438.00,-0.0287
2437.00,-0.0287
2436.00,-0.0287
2435.00,-0.0287
2434.00,-0.0287
2433.00,-0.0288
2432.00,-0.0288
2431.00,-0.0288
2430.00,-0.0289
2429.00,-0.0289
2428.00,-0.0289
2427.00,-0.0290
2426.00,-0.0290
2425.00,-0.0290
2424.00,-0.0290
2423.00,-0.0290
2422.00,-0.0290
2421.00,-0.0290
2420.00,-0.0290
2419.00,-0.0290
2418.00,-0.0290
2417.00,-0.0290
2416.00,-0.0290
2415.00,-0.0291
2414.00,-0.0291
2413.00,-0.0291
2412.00,-0.0291
2411.00,-0.0291
2410.00,-0.0291
2409.00,-0.0291
2408.00,-0.0291
2407.00,-0.0291
2406.00,-0.0291
2405.00,-0.0292
2404.00,-0.0292
2403.00,-0.0293
2402.00,-0.0293
2401.00,-0.0293
2400.00,-0.0294
2399.00,-0.0294
2398.00,-0.0294
2397.00,-0.0294
2396.00,-0.0294
2395.00,-0.0295
2394.00,-0.0295
2393.00,-0.0295
2392.00,-0.0295
2391.00,-0.0296
2390.00,-0.0296
2389.00,-0.0296
2388.00,-0.0296
2387.00,-0.0296
2386.00,-0.0296
2385.00,-0.0296
2384.00,-0.0296
2383.00,-0.0296
2382.00,-0.0296
2381.00,-0.0296
2380.00,-0.0296
2379.00,-0.0296
2378.00,-0.0296
2377.00,-0.0295
2376.00,-0.0295
2375.00,-0.0295
2374.00,-0.0295
2373.00,-0.0296
2372.00,-0.0296
2371.00,-0.0297
2370.00,-0.0297
2369.00,-0.0298
2368.00,-0.0297
2367.00,-0.0297
2366.00,-0.0296
2365.00,-0.0295
2364.00,-0.0294
2363.00,-0.0295
2362.00,-0.0296
2361.00,-0.0297
2360.00,-0.0297
2359.00,-0.0298
2358.00,-0.0298
2357.00,-0.0298
2356.00,-0.0298
2355.00,-0.0299
2354.00,-0.0299
2353.00,-0.0299
2352.00,-0.0299
2351.00,-0.0299
2350.00,-0.0299
2349.00,-0.0299
2348.00,-0.0299
2347.00,-0.0300
2346.00,-0.0300
2345.00,-0.0300
2344.00,-0.0299
2343.00,-0.0299
2342.00,-0.0299
2341.00,-0.0300
2340.00,-0.0300
2339.00,-0.0301
2338.00,-0.0301
2337.00,-0.0301
2336.00,-0.0301
2335.00,-0.0302
2334.00,-0.0302
2333.00,-0.0302
2332.00,-0.0302
2331.00,-0.0303
2330.00,-0.0303
2329.00,-0.0303
2328.00,-0.0303
2327.00,-0.0303
2326.00,-0.0304
2325.00,-0.0304
2324.00,-0.0304
2323.00,-0.0305
2322.00,-0.0305
2321.00,-0.0305
2320.00,-0.0305
2319.00,-0.0306
2318.00,-0.0306
2317.00,-0.0306
2316.00,-0.0306
2315.00,-0.0305
2314.00,-0.0305
2313.00,-0.0305
2312.00,-0.0304
2311.00,-0.0304
2310.00,-0.0304
2309.00,-0.0305
2308.00,-0.0305
2307.00,-0.0305
2306.00,-0.0305
2305.00,-0.0306
2304.00,-0.0306
2303.00,-0.0306
2302.00,-0.0306
2301.00,-0.0307
2300.00,-0.0307
2299.00,-0.0307
2298.00,-0.0307
2297.00,-0.0307
2296.00,-0.0307
2295.00,-0.0307
2294.00,-0.0307
2293.00,-0.0308
2292.00,-0.0308
2291.00,-0.0308
2290.00,-0.0308
2289.00,-0.0308
2288.00,-0.0308
2287.00,-0.0308
2286.00,-0.0308
2285.00,-0.0309
2284.00,-0.0309
2283.00,-0.0309
2282.00,-0.0309
2281.00,-0.0308
2280.00,-0.0308
2279.00,-0.0308
2278.00,-0.0308
2277.00,-0.0309
2276.00,-0.0309
2275.00,-0.0309
2274.00,-0.0308
2273.00,-0.0308
2272.00,-0.0308
2271.00,-0.0308
2270.00,-0.0308
2269.00,-0.0309
2268.00,-0.0309
2267.00,-0.0309
2266.00,-0.0309
2265.00,-0.0309
2264.00,-0.0310
2263.00,-0.0311
2262.00,-0.0312
2261.00,-0.0312
2260.00,-0.0312
2259.00,-0.0312
2258.00,-0.0312
2257.00,-0.0312
2256.00,-0.0312
2255.00,-0.0312
2254.00,-0.0311
2253.00,-0.0311
2252.00,-0.0311
2251.00,-0.0312
2250.00,-0.0312
2249.00,-0.0312
2248.00,-0.0312
2247.00,-0.0312
2246.00,-0.0313
2245.00,-0.0313
2244.00,-0.0313
2243.00,-0.0313
2242.00,-0.0314
2241.00,-0.0314
2240.00,-0.0315
2239.00,-0.0315
2238.00,-0.0315
2237.00,-0.0315
2236.00,-0.0316
2235.00,-0.0317
2234.00,-0.0317
2233.00,-0.0318
2232.00,-0.0317
2231.00,-0.0316
2230.00,-0.0316
2229.00,-0.0316
2228.00,-0.0317
2227.00,-0.0318
2226.00,-0.0319
2225.00,-0.0319
2224.00,-0.0319
2223.00,-0.0318
2222.00,-0.0318
2221.00,-0.0318
2220.00,-0.0319
2219.00,-0.0319
2218.00,-0.0319
2217.00,-0.0319
2216.00,-0.0319
2215.00,-0.0318
2214.00,-0.0317
2213.00,-0.0316
2212.00,-0.0315
2211.00,-0.0315
2210.00,-0.0316
2209.00,-0.0316
2208.00,-0.0315
2207.00,-0.0314
2206.00,-0.0314
2205.00,-0.0316
2204.00,-0.0317
2203.00,-0.0318
2202.00,-0.0318
2201.00,-0.0318
2200.00,-0.0319
2199.00,-0.0320
2198.00,-0.0321
2197.00,-0.0320
2196.00,-0.0318
2195.00,-0.0317
2194.00,-0.0317
2193.00,-0.0317
2192.00,-0.0318
2191.00,-0.0318
2190.00,-0.0320
2189.00,-0.0321
2188.00,-0.0322
2187.00,-0.0321
2186.00,-0.0320
2185.00,-0.0318
2184.00,-0.0318
2183.00,-0.0319
2182.00,-0.0320
2181.00,-0.0322
2180.00,-0.0322
2179.00,-0.0321
2178.00,-0.0320
2177.00,-0.0319
2176.00,-0.0319
2175.00,-0.0320
2174.00,-0.0320
2173.00,-0.0320
2172.00,-0.0321
2171.00,-0.0322
2170.00,-0.0323
2169.00,-0.0324
2168.00,-0.0324
2167.00,-0.0325
2166.00,-0.0326
2165.00,-0.0327
2164.00,-0.0328
2163.00,-0.0327
2162.00,-0.0326
2161.00,-0.0325
2160.00,-0.0324
2159.00,-0.0324
2158.00,-0.0325
2157.00,-0.0326
2156.00,-0.0325
2155.00,-0.0324
2154.00,-0.0323
2153.00,-0.0323
2152.00,-0.0325
2151.00,-0.0326
2150.00,-0.0328
2149.00,-0.0329
2148.00,-0.0329
2147.00,-0.0328
2146.00,-0.0326
2145.00,-0.0326
2144.00,-0.0325
2143.00,-0.0325
2142.00,-0.0326
2141.00,-0.0326
2140.00,-0.0326
2139.00,-0.0327
2138.00,-0.0329
2137.00,-0.0330
2136.00,-0.0330
2135.00,-0.0329
2134.00,-0.0328
2133.00,-0.0327
2132.00,-0.0328
2131.00,-0.0329
2130.00,-0.0330
2129.00,-0.0331
2128.00,-0.0331
2127.00,-0.0331
2126.00,-0.0332
2125.00,-0.0332
2124.00,-0.0333
2123.00,-0.0332
2122.00,-0.0331
2121.00,-0.0330
2120.00,-0.0329
2119.00,-0.0329
2118.00,-0.0330
2117.00,-0.0331
2116.00,-0.0333
2115.00,-0.0333
2114.00,-0.0334
2113.00,-0.0333
2112.00,-0.0332
2111.00,-0.0331
2110.00,-0.0331
2109.00,-0.0330
2108.00,-0.0330
2107.00,-0.0331
2106.00,-0.0331
2105.00,-0.0331
2104.00,-0.0331
2103.00,-0.0331
2102.00,-0.0331
2101.00,-0.0332
2100.00,-0.0333
2099.00,-0.0335
2098.00,-0.0335
2097.00,-0.0335
2096.00,-0.0336
2095.00,-0.0336
2094.00,-0.0336
2093.00,-0.0336
2092.00,-0.0336
2091.00,-0.0336
2090.00,-0.0336
2089.00,-0.0336
2088.00,-0.0335
2087.00,-0.0335
2086.00,-0.0336
2085.00,-0.0337
2084.00,-0.0338
2083.00,-0.0337
2082.00,-0.0337
2081.00,-0.0337
2080.00,-0.0338
2079.00,-0.0338
2078.00,-0.0338
2077.00,-0.0338
2076.00,-0.0337
2075.00,-0.0337
2074.00,-0.0337
2073.00,-0.0338
2072.00,-0.0339
2071.00,-0.0338
2070.00,-0.0338
2069.00,-0.0337
2068.00,-0.0338
2067.00,-0.0339
2066.00,-0.0340
2065.00,-0.0340
2064.00,-0.0340
2063.00,-0.0340
2062.00,-0.0341
2061.00,-0.0342
2060.00,-0.0342
2059.00,-0.0342
2058.00,-0.0342
2057.00,-0.0342
2056.00,-0.0342
2055.00,-0.0343
2054.00,-0.0345
2053.00,-0.0346
2052.00,-0.0346
2051.00,-0.0345
2050.00,-0.0343
2049.00,-0.0342
2048.00,-0.0342
2047.00,-0.0343
2046.00,-0.0344
2045.00,-0.0346
2044.00,-0.0347
2043.00,-0.0348
2042.00,-0.0347
2041.00,-0.0345
2040.00,-0.0343
2039.00,-0.0342
2038.00,-0.0342
2037.00,-0.0343
2036.00,-0.0344
2035.00,-0.0345
2034.00,-0.0346
2033.00,-0.0346
2032.00,-0.0346
2031.00,-0.0344
2030.00,-0.0343
2029.00,-0.0342
2028.00,-0.0344
2027.00,-0.0346
2026.00,-0.0349
2025.00,-0.0351
2024.00,-0.0352
2023.00,-0.0352
2022.00,-0.0353
2021.00,-0.0354
2020.00,-0.0354
2019.00,-0.0354
2018.00,-0.0353
2017.00,-0.0353
2016.00,-0.0353
2015.00,-0.0354
2014.00,-0.0354
2013.00,-0.0354
2012.00,-0.0353
2011.00,-0.0352
2010.00,-0.0352
2009.00,-0.0351
2008.00,-0.0351
2007.00,-0.0350
2006.00,-0.0349
2005.00,-0.0348
2004.00,-0.0348
2003.00,-0.0350
2002.00,-0.0351
2001.00,-0.0352
2000.00,-0.0352
1999.00,-0.0352
1998.00,-0.0353
1997.00,-0.0353
1996.00,-0.0354
1995.00,-0.0354
1994.00,-0.0354
1993.00,-0.0354
1992.00,-0.0354
1991.00,-0.0354
1990.00,-0.0355
1989.00,-0.0355
1988.00,-0.0355
1987.00,-0.0355
1986.00,-0.0354
1985.00,-0.0353
1984.00,-0.0352
1983.00,-0.0351
1982.00,-0.0351
1981.00,-0.0351
1980.00,-0.0350
1979.00,-0.0350
1978.00,-0.0351
1977.00,-0.0354
1976.00,-0.0356
1975.00,-0.0357
1974.00,-0.0357
1973.00,-0.0356
1972.00,-0.0357
1971.00,-0.0359
1970.00,-0.0361
1969.00,-0.0363
1968.00,-0.0362
1967.00,-0.0361
1966.00,-0.0360
1965.00,-0.0359
1964.00,-0.0360
1963.00,-0.0361
1962.00,-0.0362
1961.00,-0.0363
1960.00,-0.0362
1959.00,-0.0362
1958.00,-0.0363
1957.00,-0.0365
1956.00,-0.0366
1955.00,-0.0366
1954.00,-0.0366
1953.00,-0.0365
1952.00,-0.0365
1951.00,-0.0366
1950.00,-0.0366
1949.00,-0.0367
1948.00,-0.0366
1947.00,-0.0366
1946.00,-0.0366
1945.00,-0.0366
1944.00,-0.0366
1943.00,-0.0366
1942.00,-0.0366
1941.00,-0.0367
1940.00,-0.0367
1939.00,-0.0367
1938.00,-0.0367
1937.00,-0.0367
1936.00,-0.0368
1935.00,-0.0368
1934.00,-0.0369
1933.00,-0.0370
1932.00,-0.0370
1931.00,-0.0370
1930.00,-0.0370
1929.00,-0.0370
1928.00,-0.0371
1927.00,-0.0371
1926.00,-0.0371
1925.00,-0.0371
1924.00,-0.0371
1923.00,-0.0371
1922.00,-0.0371
1921.00,-0.0371
1920.00,-0.0372
1919.00,-0.0372
1918.00,-0.0372
1917.00,-0.0372
1916.00,-0.0372
1915.00,-0.0373
1914.00,-0.0373
1913.00,-0.0374
1912.00,-0.0374
1911.00,-0.0374
1910.00,-0.0374
1909.00,-0.0375
1908.00,-0.0375
1907.00,-0.0376
1906.00,-0.0377
1905.00,-0.0377
1904.00,-0.0377
1903.00,-0.0377
1902.00,-0.0377
1901.00,-0.0378
1900.00,-0.0378
1899.00,-0.0379
1898.00,-0.0379
1897.00,-0.0379
1896.00,-0.0379
1895.00,-0.0379
1894.00,-0.0379
1893.00,-0.0379
1892.00,-0.0378
1891.00,-0.0379
1890.00,-0.0379
1889.00,-0.0380
1888.00,-0.0380
1887.00,-0.0380
1886.00,-0.0380
1885.00,-0.0380
1884.00,-0.0380
1883.00,-0.0380
1882.00,-0.0380
1881.00,-0.0380
1880.00,-0.0381
1879.00,-0.0381
1878.00,-0.0382
1877.00,-0.0382
1876.00,-0.0383
1875.00,-0.0383
1874.00,-0.0383
1873.00,-0.0383
1872.00,-0.0383
1871.00,-0.0383
1870.00,-0.0383
1869.00,-0.0384
1868.00,-0.0384
1867.00,-0.0385
1866.00,-0.0386
1865.00,-0.0387
1864.00,-0.0388
1863.00,-0.0388
1862.00,-0.0388
1861.00,-0.0388
1860.00,-0.0388
1859.00,-0.0389
1858.00,-0.0390
1857.00,-0.0390
1856.00,-0.0390
1855.00,-0.0389
1854.00,-0.0389
1853.00,-0.0390
1852.00,-0.0390
1851.00,-0.0391
1850.00,-0.0391
1849.00,-0.0391
1848.00,-0.0391
1847.00,-0.0391
1846.00,-0.0391
1845.00,-0.0392
1844.00,-0.0392
1843.00,-0.0393
1842.00,-0.0394
1841.00,-0.0395
1840.00,-0.0395
1839.00,-0.0395
1838.00,-0.0395
1837.00,-0.0396
1836.00,-0.0396
1835.00,-0.0396
1834.00,-0.0396
1833.00,-0.0396
1832.00,-0.0396
1831.00,-0.0395
1830.00,-0.0395
1829.00,-0.0395
1828.00,-0.0395
1827.00,-0.0396
1826.00,-0.0397
1825.00,-0.0398
1824.00,-0.0398
1823.00,-0.0398
1822.00,-0.0398
1821.00,-0.0398
1820.00,-0.0398
1819.00,-0.0398
1818.00,-0.0398
1817.00,-0.0399
1816.00,-0.0400
1815.00,-0.0400
1814.00,-0.0400
1813.00,-0.0401
1812.00,-0.0401
1811.00,-0.0401
1810.00,-0.0401
1809.00,-0.0402
1808.00,-0.0402
1807.00,-0.0402
1806.00,-0.0403
1805.00,-0.0403
1804.00,-0.0403
1803.00,-0.0403
1802.00,-0.0404
1801.00,-0.0404
1800.00,-0.0404
1799.00,-0.0404
1798.00,-0.0404
1797.00,-0.0405
1796.00,-0.0405
1795.00,-0.0404
1794.00,-0.0404
1793.00,-0.0404
1792.00,-0.0405
1791.00,-0.0406
1790.00,-0.0407
1789.00,-0.0408
1788.00,-0.0408
1787.00,-0.0407
1786.00,-0.0407
1785.00,-0.0407
1784.00,-0.0408
1783.00,-0.0409
1782.00,-0.0409
1781.00,-0.0410
1780.00,-0.0410
1779.00,-0.0410
1778.00,-0.0411
1777.00,-0.0410
1776.00,-0.0410
1775.00,-0.0409
1774.00,-0.0408
1773.00,-0.0407
1772.00,-0.0406
1771.00,-0.0406
1770.00,-0.0407
1769.00,-0.0409
1768.00,-0.0410
1767.00,-0.0410
1766.00,-0.0410
1765.00,-0.0409
1764.00,-0.0408
1763.00,-0.0407
1762.00,-0.0407
1761.00,-0.0406
1760.00,-0.0406
1759.00,-0.0405
1758.00,-0.0404
1757.00,-0.0403
1756.00,-0.0402
1755.00,-0.0400
1754.00,-0.0399
1753.00,-0.0397
1752.00,-0.0395
1751.00,-0.0394
1750.00,-0.0393
1749.00,-0.0392
1748.00,-0.0392
1747.00,-0.0391
1746.00,-0.0391
1745.00,-0.0391
1744.00,-0.0391
1743.00,-0.0390
1742.00,-0.0390
1741.00,-0.0390
1740.00,-0.0390
1739.00,-0.0391
1738.00,-0.0392
1737.00,-0.0392
1736.00,-0.0392
1735.00,-0.0392
1734.00,-0.0393
1733.00,-0.0394
1732.00,-0.0397
1731.00,-0.0400
1730.00,-0.0402
1729.00,-0.0403
1728.00,-0.0402
1727.00,-0.0402
1726.00,-0.0402
1725.00,-0.0402
1724.00,-0.0401
1723.00,-0.0401
1722.00,-0.0401
1721.00,-0.0400
1720.00,-0.0398
1719.00,-0.0396
1718.00,-0.0394
1717.00,-0.0392
1716.00,-0.0392
1715.00,-0.0391
1714.00,-0.0391
1713.00,-0.0389
1712.00,-0.0386
1711.00,-0.0382
1710.00,-0.0378
1709.00,-0.0373
1708.00,-0.0368
1707.00,-0.0361
1706.00,-0.0353
1705.00,-0.0343
1704.00,-0.0332
1703.00,-0.0322
1702.00,-0.0309
1701.00,-0.0290
1700.00,-0.0268
1699.00,-0.0251
1698.00,-0.0242
1697.00,-0.0236
1696.00,-0.0229
1695.00,-0.0222
1694.00,-0.0218
1693.00,-0.0216
1692.00,-0.0214
1691.00,-0.0209
1690.00,-0.0203
1689.00,-0.0196
1688.00,-0.0189
1687.00,-0.0182
1686.00,-0.0172
1685.00,-0.0160
1684.00,-0.0146
1683.00,-0.0135
1682.00,-0.0129
1681.00,-0.0123
1680.00,-0.0115
1679.00,-0.0105
1678.00,-0.0096
1677.00,-0.0086
1676.00,-0.0074
1675.00,-0.0061
1674.00,-0.0050
1673.00,-0.0040
1672.00,-0.0032
1671.00,-0.0022
1670.00,-0.0010
1669.00,0.0003
1668.00,0.0015
1667.00,0.0025
1666.00,0.0034
1665.00,0.0043
1664.00,0.0054
1663.00,0.0067
1662.00,0.0080
1661.00,0.0091
1660.00,0.0101
1659.00,0.0110
1658.00,0.0119
1657.00,0.0128
1656.00,0.0135
1655.00,0.0143
1654.00,0.0153
1653.00,0.0167
1652.00,0.0180
1651.00,0.0185
1650.00,0.0184
1649.00,0.0183
1648.00,0.0185
1647.00,0.0190
1646.00,0.0195
1645.00,0.0198
1644.00,0.0199
1643.00,0.0198
1642.00,0.0198
1641.00,0.0199
1640.00,0.0201
1639.00,0.0203
1638.00,0.0204
1637.00,0.0206
1636.00,0.0211
1635.00,0.0216
1634.00,0.0221
1633.00,0.0222
1632.00,0.0224
1631.00,0.0226
1630.00,0.0230
1629.00,0.0236
1628.00,0.0244
1627.00,0.0251
1626.00,0.0257
1625.00,0.0263
1624.00,0.0270
1623.00,0.0278
1622.00,0.0284
1621.00,0.0288
1620.00,0.0289
1619.00,0.0288
1618.00,0.0286
1617.00,0.0284
1616.00,0.0280
1615.00,0.0274
1614.00,0.0263
1613.00,0.0249
1612.00,0.0233
1611.00,0.0217
1610.00,0.0199
1609.00,0.0180
1608.00,0.0160
1607.00,0.0140
1606.00,0.0121
1605.00,0.0101
1604.00,0.0082
1603.00,0.0064
1602.00,0.0046
1601.00,0.0029
1600.00,0.0013
1599.00,-0.0003
1598.00,-0.0017
1597.00,-0.0032
1596.00,-0.0046
1595.00,-0.0059
1594.00,-0.0072
1593.00,-0.0084
1592.00,-0.0096
1591.00,-0.0108
1590.00,-0.0118
1589.00,-0.0127
1588.00,-0.0136
1587.00,-0.0144
1586.00,-0.0150
1585.00,-0.0157
1584.00,-0.0162
1583.00,-0.0167
1582.00,-0.0171
1581.00,-0.0174
1580.00,-0.0176
1579.00,-0.0177
1578.00,-0.0178
1577.00,-0.0177
1576.00,-0.0175
1575.00,-0.0174
1574.00,-0.0174
1573.00,-0.0174
1572.00,-0.0173
1571.00,-0.0170
1570.00,-0.0164
1569.00,-0.0158
1568.00,-0.0153
1567.00,-0.0148
1566.00,-0.0143
1565.00,-0.0136
1564.00,-0.0129
1563.00,-0.0122
1562.00,-0.0114
1561.00,-0.0105
1560.00,-0.0092
1559.00,-0.0075
1558.00,-0.0059
1557.00,-0.0049
1556.00,-0.0043
1555.00,-0.0036
1554.00,-0.0026
1553.00,-0.0015
1552.00,-0.0006
1551.00,0.0004
1550.00,0.0014
1549.00,0.0025
1548.00,0.0035
1547.00,0.0043
1546.00,0.0052
1545.00,0.0062
1544.00,0.0071
1543.00,0.0080
1542.00,0.0089
1541.00,0.0099
1540.00,0.0110
1539.00,0.0120
1538.00,0.0126
1537.00,0.0128
1536.00,0.0129
1535.00,0.0132
1534.00,0.0138
1533.00,0.0146
1532.00,0.0152
1531.00,0.0156
1530.00,0.0160
1529.00,0.0164
1528.00,0.0169
1527.00,0.0174
1526.00,0.0180
1525.00,0.0186
1524.00,0.0191
1523.00,0.0195
1522.00,0.0202
1521.00,0.0210
1520.00,0.0217
1519.00,0.0221
1518.00,0.0224
1517.00,0.0228
1516.00,0.0231
1515.00,0.0232
1514.00,0.0231
1513.00,0.0228
1512.00,0.0224
1511.00,0.0219
1510.00,0.0214
1509.00,0.0208
1508.00,0.0200
1507.00,0.0192
1506.00,0.0185
1505.00,0.0176
1504.00,0.0165
1503.00,0.0152
1502.00,0.0140
1501.00,0.0128
1500.00,0.0116
1499.00,0.0105
1498.00,0.0093
1497.00,0.0080
1496.00,0.0066
1495.00,0.0051
1494.00,0.0037
1493.00,0.0023
1492.00,0.0009
1491.00,-0.0005
1490.00,-0.0019
1489.00,-0.0033
1488.00,-0.0046
1487.00,-0.0058
1486.00,-0.0069
1485.00,-0.0080
1484.00,-0.0089
1483.00,-0.0097
1482.00,-0.0105
1481.00,-0.0112
1480.00,-0.0119
1479.00,-0.0124
1478.00,-0.0129
1477.00,-0.0133
1476.00,-0.0135
1475.00,-0.0137
1474.00,-0.0138
1473.00,-0.0137
1472.00,-0.0134
1471.00,-0.0131
1470.00,-0.0129
1469.00,-0.0129
1468.00,-0.0128
1467.00,-0.0128
1466.00,-0.0128
1465.00,-0.0129
1464.00,-0.0129
1463.00,-0.0129
1462.00,-0.0128
1461.00,-0.0126
1460.00,-0.0123
1459.00,-0.0118
1458.00,-0.0111
1457.00,-0.0103
1456.00,-0.0097
1455.00,-0.0094
1454.00,-0.0094
1453.00,-0.0094
1452.00,-0.0094
1451.00,-0.0094
1450.00,-0.0094
1449.00,-0.0094
1448.00,-0.0095
1447.00,-0.0096
1446.00,-0.0098
1445.00,-0.0101
1444.00,-0.0104
1443.00,-0.0108
1442.00,-0.0112
1441.00,-0.0116
1440.00,-0.0120
1439.00,-0.0124
1438.00,-0.0128
1437.00,-0.0132
1436.00,-0.0136
1435.00,-0.0140
1434.00,-0.0144
1433.00,-0.0148
1432.00,-0.0151
1431.00,-0.0153
1430.00,-0.0155
1429.00,-0.0157
1428.00,-0.0158
1427.00,-0.0159
1426.00,-0.0160
1425.00,-0.0160
1424.00,-0.0160
1423.00,-0.0160
1422.00,-0.0159
1421.00,-0.0159
1420.00,-0.0158
1419.00,-0.0156
1418.00,-0.0155
1417.00,-0.0154
1416.00,-0.0152
1415.00,-0.0148
1414.00,-0.0143
1413.00,-0.0139
1412.00,-0.0138
1411.00,-0.0140
1410.00,-0.0144
1409.00,-0.0146
1408.00,-0.0148
1407.00,-0.0149
1406.00,-0.0149
1405.00,-0.0150
1404.00,-0.0151
1403.00,-0.0152
1402.00,-0.0154
1401.00,-0.0157
1400.00,-0.0160
1399.00,-0.0163
1398.00,-0.0166
1397.00,-0.0169
1396.00,-0.0172
1395.00,-0.0175
1394.00,-0.0178
1393.00,-0.0180
1392.00,-0.0182
1391.00,-0.0184
1390.00,-0.0184
1389.00,-0.0185
1388.00,-0.0185
1387.00,-0.0186
1386.00,-0.0188
1385.00,-0.0189
1384.00,-0.0191
1383.00,-0.0193
1382.00,-0.0194
1381.00,-0.0194
1380.00,-0.0194
1379.00,-0.0193
1378.00,-0.0192
1377.00,-0.0191
1376.00,-0.0190
1375.00,-0.0189
1374.00,-0.0187
1373.00,-0.0185
1372.00,-0.0184
1371.00,-0.0183
1370.00,-0.0182
1369.00,-0.0182
1368.00,-0.0184
1367.00,-0.0186
1366.00,-0.0188
1365.00,-0.0191
1364.00,-0.0194
1363.00,-0.0197
1362.00,-0.0199
1361.00,-0.0202
1360.00,-0.0204
1359.00,-0.0206
1358.00,-0.0207
1357.00,-0.0208
1356.00,-0.0210
1355.00,-0.0211
1354.00,-0.0211
1353.00,-0.0212
1352.00,-0.0213
1351.00,-0.0213
1350.00,-0.0213
1349.00,-0.0213
1348.00,-0.0213
1347.00,-0.0212
1346.00,-0.0212
1345.00,-0.0212
1344.00,-0.0211
1343.00,-0.0210
1342.00,-0.0210
1341.00,-0.0210
1340.00,-0.0211
1339.00,-0.0212
1338.00,-0.0212
1337.00,-0.0213
1336.00,-0.0214
1335.00,-0.0215
1334.00,-0.0215
1333.00,-0.0215
1332.00,-0.0215
1331.00,-0.0216
1330.00,-0.0216
1329.00,-0.0216
1328.00,-0.0217
1327.00,-0.0217
1326.00,-0.0218
1325.00,-0.0218
1324.00,-0.0219
1323.00,-0.0219
1322.00,-0.0219
1321.00,-0.0219
1320.00,-0.0219
1319.00,-0.0219
1318.00,-0.0218
1317.00,-0.0218
1316.00,-0.0218
1315.00,-0.0218
1314.00,-0.0218
1313.00,-0.0217
1312.00,-0.0217
1311.00,-0.0217
1310.00,-0.0217
1309.00,-0.0216
1308.00,-0.0216
1307.00,-0.0216
1306.00,-0.0217
1305.00,-0.0217
1304.00,-0.0217
1303.00,-0.0218
1302.00,-0.0219
1301.00,-0.0220
1300.00,-0.0220
1299.00,-0.0221
1298.00,-0.0221
1297.00,-0.0221
1296.00,-0.0222
1295.00,-0.0222
1294.00,-0.0223
1293.00,-0.0223
1292.00,-0.0223
1291.00,-0.0224
1290.00,-0.0224
1289.00,-0.0225
1288.00,-0.0225
1287.00,-0.0225
1286.00,-0.0226
1285.00,-0.0226
1284.00,-0.0227
1283.00,-0.0227
1282.00,-0.0227
1281.00,-0.0228
1280.00,-0.0229
1279.00,-0.0229
1278.00,-0.0229
1277.00,-0.0230
1276.00,-0.0230
1275.00,-0.0231
1274.00,-0.0231
1273.00,-0.0232
1272.00,-0.0232
1271.00,-0.0232
1270.00,-0.0232
1269.00,-0.0232
1268.00,-0.0232
1267.00,-0.0231
1266.00,-0.0229
1265.00,-0.0227
1264.00,-0.0225
1263.00,-0.0223
1262.00,-0.0220
1261.00,-0.0218
1260.00,-0.0215
1259.00,-0.0213
1258.00,-0.0211
1257.00,-0.0209
1256.00,-0.0208
1255.00,-0.0207
1254.00,-0.0205
1253.00,-0.0203
1252.00,-0.0201
1251.00,-0.0198
1250.00,-0.0194
1249.00,-0.0191
1248.00,-0.0188
1247.00,-0.0185
1246.00,-0.0182
1245.00,-0.0179
1244.00,-0.0177
1243.00,-0.0175
1242.00,-0.0173
1241.00,-0.0172
1240.00,-0.0170
1239.00,-0.0169
1238.00,-0.0168
1237.00,-0.0167
1236.00,-0.0166
1235.00,-0.0165
1234.00,-0.0165
1233.00,-0.0165
1232.00,-0.0166
1231.00,-0.0167
1230.00,-0.0167
1229.00,-0.0168
1228.00,-0.0169
1227.00,-0.0171
1226.00,-0.0172
1225.00,-0.0173
1224.00,-0.0174
1223.00,-0.0176
1222.00,-0.0178
1221.00,-0.0181
1220.00,-0.0184
1219.00,-0.0187
1218.00,-0.0190
1217.00,-0.0193
1216.00,-0.0197
1215.00,-0.0200
1214.00,-0.0203
1213.00,-0.0206
1212.00,-0.0210
1211.00,-0.0214
1210.00,-0.0218
1209.00,-0.0222
1208.00,-0.0226
1207.00,-0.0230
1206.00,-0.0234
1205.00,-0.0238
1204.00,-0.0243
1203.00,-0.0247
1202.00,-0.0251
1201.00,-0.0256
1200.00,-0.0260
1199.00,-0.0263
1198.00,-0.0267
1197.00,-0.0271
1196.00,-0.0275
1195.00,-0.0278
1194.00,-0.0281
1193.00,-0.0283
1192.00,-0.0286
1191.00,-0.0289
1190.00,-0.0291
1189.00,-0.0294
1188.00,-0.0296
1187.00,-0.0298
1186.00,-0.0300
1185.00,-0.0302
1184.00,-0.0304
1183.00,-0.0305
1182.00,-0.0306
1181.00,-0.0306
1180.00,-0.0306
1179.00,-0.0306
1178.00,-0.0304
1177.00,-0.0302
1176.00,-0.0300
1175.00,-0.0297
1174.00,-0.0294
1173.00,-0.0291
1172.00,-0.0289
1171.00,-0.0287
1170.00,-0.0286
1169.00,-0.0286
1168.00,-0.0286
1167.00,-0.0285
1166.00,-0.0283
1165.00,-0.0283
1164.00,-0.0283
1163.00,-0.0284
1162.00,-0.0285
1161.00,-0.0287
1160.00,-0.0288
1159.00,-0.0290
1158.00,-0.0292
1157.00,-0.0295
1156.00,-0.0298
1155.00,-0.0300
1154.00,-0.0302
1153.00,-0.0303
1152.00,-0.0304
1151.00,-0.0304
1150.00,-0.0302
1149.00,-0.0298
1148.00,-0.0290
1147.00,-0.0280
1146.00,-0.0266
1145.00,-0.0252
1144.00,-0.0237
1143.00,-0.0221
1142.00,-0.0205
1141.00,-0.0191
1140.00,-0.0183
1139.00,-0.0182
1138.00,-0.0187
1137.00,-0.0195
1136.00,-0.0203
1135.00,-0.0211
1134.00,-0.0218
1133.00,-0.0226
1132.00,-0.0233
1131.00,-0.0241
1130.00,-0.0247
1129.00,-0.0254
1128.00,-0.0261
1127.00,-0.0268
1126.00,-0.0275
1125.00,-0.0282
1124.00,-0.0291
1123.00,-0.0298
1122.00,-0.0304
1121.00,-0.0310
1120.00,-0.0315
1119.00,-0.0319
1118.00,-0.0322
1117.00,-0.0325
1116.00,-0.0328
1115.00,-0.0330
1114.00,-0.0332
1113.00,-0.0334
1112.00,-0.0336
1111.00,-0.0337
1110.00,-0.0338
1109.00,-0.0339
1108.00,-0.0339
1107.00,-0.0340
1106.00,-0.0340
1105.00,-0.0340
1104.00,-0.0341
1103.00,-0.0342
1102.00,-0.0343
1101.00,-0.0343
1100.00,-0.0343
1099.00,-0.0342
1098.00,-0.0342
1097.00,-0.0342
1096.00,-0.0343
1095.00,-0.0343
1094.00,-0.0342
1093.00,-0.0341
1092.00,-0.0340
1091.00,-0.0338
1090.00,-0.0336
1089.00,-0.0334
1088.00,-0.0332
1087.00,-0.0329
1086.00,-0.0326
1085.00,-0.0322
1084.00,-0.0318
1083.00,-0.0314
1082.00,-0.0309
1081.00,-0.0305
1080.00,-0.0302
1079.00,-0.0298
1078.00,-0.0294
1077.00,-0.0291
1076.00,-0.0288
1075.00,-0.0286
1074.00,-0.0283
1073.00,-0.0281
1072.00,-0.0278
1071.00,-0.0275
1070.00,-0.0272
1069.00,-0.0269
1068.00,-0.0266
1067.00,-0.0264
1066.00,-0.0261
1065.00,-0.0258
1064.00,-0.0256
1063.00,-0.0255
1062.00,-0.0253
1061.00,-0.0252
1060.00,-0.0252
1059.00,-0.0253
1058.00,-0.0254
1057.00,-0.0256
1056.00,-0.0258
1055.00,-0.0259
1054.00,-0.0260
1053.00,-0.0261
1052.00,-0.0263
1051.00,-0.0264
1050.00,-0.0266
1049.00,-0.0268
1048.00,-0.0271
1047.00,-0.0274
1046.00,-0.0276
1045.00,-0.0279
1044.00,-0.0281
1043.00,-0.0284
1042.00,-0.0286
1041.00,-0.0288
1040.00,-0.0290
1039.00,-0.0292
1038.00,-0.0293
1037.00,-0.0294
1036.00,-0.0296
1035.00,-0.0298
1034.00,-0.0299
1033.00,-0.0300
1032.00,-0.0301
1031.00,-0.0303
1030.00,-0.0304
1029.00,-0.0306
1028.00,-0.0310
1027.00,-0.0314
1026.00,-0.0317
1025.00,-0.0320
1024.00,-0.0323
1023.00,-0.0326
1022.00,-0.0329
1021.00,-0.0333
1020.00,-0.0336
1019.00,-0.0339
1018.00,-0.0342
1017.00,-0.0345
1016.00,-0.0348
1015.00,-0.0352
1014.00,-0.0356
1013.00,-0.0360
1012.00,-0.0364
1011.00,-0.0368
1010.00,-0.0371
1009.00,-0.0375
1008.00,-0.0379
1007.00,-0.0383
1006.00,-0.0386
1005.00,-0.0390
1004.00,-0.0393
1003.00,-0.0397
1002.00,-0.0399
1001.00,-0.0401
1000.00,-0.0404
999.00,-0.0407
998.00,-0.0409
997.00,-0.0411
996.00,-0.0414
995.00,-0.0416
994.00,-0.0418
993.00,-0.0420
992.00,-0.0422
991.00,-0.0423
990.00,-0.0424
989.00,-0.0425
988.00,-0.0426
987.00,-0.0428
986.00,-0.0429
985.00,-0.0430
984.00,-0.0432
983.00,-0.0434
982.00,-0.0436
981.00,-0.0438
980.00,-0.0440
979.00,-0.0442
978.00,-0.0444
977.00,-0.0445
976.00,-0.0448
975.00,-0.0450
974.00,-0.0452
973.00,-0.0454
972.00,-0.0456
971.00,-0.0457
970.00,-0.0457
969.00,-0.0457
968.00,-0.0457
967.00,-0.0457
966.00,-0.0455
965.00,-0.0454
964.00,-0.0453
963.00,-0.0452
962.00,-0.0452
961.00,-0.0453
960.00,-0.0455
959.00,-0.0458
958.00,-0.0461
957.00,-0.0464
956.00,-0.0467
955.00,-0.0469
954.00,-0.0471
953.00,-0.0473
952.00,-0.0475
951.00,-0.0477
950.00,-0.0478
949.00,-0.0479
948.00,-0.0481
947.00,-0.0482
946.00,-0.0482
945.00,-0.0483
944.00,-0.0484
943.00,-0.0486
942.00,-0.0487
941.00,-0.0488
940.00,-0.0489
939.00,-0.0488
938.00,-0.0488
937.00,-0.0487
936.00,-0.0488
935.00,-0.0487
934.00,-0.0487
933.00,-0.0486
932.00,-0.0485
931.00,-0.0485
930.00,-0.0484
929.00,-0.0484
928.00,-0.0485
927.00,-0.0486
926.00,-0.0487
925.00,-0.0488
924.00,-0.0490
923.00,-0.0492
922.00,-0.0493
921.00,-0.0495
920.00,-0.0498
919.00,-0.0500
918.00,-0.0502
917.00,-0.0504
916.00,-0.0506
915.00,-0.0508
914.00,-0.0509
913.00,-0.0510
912.00,-0.0511
911.00,-0.0511
910.00,-0.0511
909.00,-0.0512
908.00,-0.0513
907.00,-0.0514
906.00,-0.0515
905.00,-0.0516
904.00,-0.0517
903.00,-0.0518
902.00,-0.0518
901.00,-0.0518
900.00,-0.0519
899.00,-0.0520
898.00,-0.0521
897.00,-0.0522
896.00,-0.0524
895.00,-0.0525
894.00,-0.0526
893.00,-0.0527
892.00,-0.0528
891.00,-0.0530
890.00,-0.0531
889.00,-0.0533
888.00,-0.0535
887.00,-0.0537
886.00,-0.0538
885.00,-0.0540
884.00,-0.0541
883.00,-0.0543
882.00,-0.0543
881.00,-0.0543
880.00,-0.0544
879.00,-0.0545
878.00,-0.0545
877.00,-0.0545
876.00,-0.0545
875.00,-0.0546
874.00,-0.0547
873.00,-0.0548
872.00,-0.0550
871.00,-0.0551
870.00,-0.0550
869.00,-0.0550
868.00,-0.0551
867.00,-0.0553
866.00,-0.0555
865.00,-0.0556
864.00,-0.0558
863.00,-0.0559
862.00,-0.0560
861.00,-0.0560
860.00,-0.0561
859.00,-0.0562
858.00,-0.0562
857.00,-0.0562
856.00,-0.0563
855.00,-0.0563
854.00,-0.0564
853.00,-0.0564
852.00,-0.0566
851.00,-0.0567
850.00,-0.0567
849.00,-0.0568
848.00,-0.0569
847.00,-0.0570
846.00,-0.0570
845.00,-0.0570
844.00,-0.0571
843.00,-0.0572
842.00,-0.0572
841.00,-0.0573
840.00,-0.0573
839.00,-0.0573
838.00,-0.0572
837.00,-0.0571
836.00,-0.0572
835.00,-0.0572
834.00,-0.0570
833.00,-0.0568
832.00,-0.0566
831.00,-0.0565
830.00,-0.0563
829.00,-0.0561
828.00,-0.0561
827.00,-0.0561
826.00,-0.0560
825.00,-0.0560
824.00,-0.0560
823.00,-0.0561
822.00,-0.0561
821.00,-0.0560
820.00,-0.0560
819.00,-0.0559
818.00,-0.0557
817.00,-0.0556
816.00,-0.0555
815.00,-0.0555
814.00,-0.0554
813.00,-0.0553
812.00,-0.0552
811.00,-0.0551
810.00,-0.0550
809.00,-0.0549
808.00,-0.0549
807.00,-0.0547
806.00,-0.0545
805.00,-0.0543
804.00,-0.0542
803.00,-0.0541
802.00,-0.0540
801.00,-0.0539
800.00,-0.0539
799.00,-0.0539
798.00,-0.0539
797.00,-0.0538
796.00,-0.0538
795.00,-0.0538
794.00,-0.0537
793.00,-0.0537
792.00,-0.0538
791.00,-0.0537
790.00,-0.0536
789.00,-0.0534
788.00,-0.0532
787.00,-0.0531
786.00,-0.0529
785.00,-0.0528
784.00,-0.0528
783.00,-0.0528
782.00,-0.0527
781.00,-0.0526
780.00,-0.0525
779.00,-0.0524
778.00,-0.0522
777.00,-0.0520
776.00,-0.0518
775.00,-0.0516
774.00,-0.0514
773.00,-0.0512
772.00,-0.0511
771.00,-0.0509
770.00,-0.0507
769.00,-0.0505
768.00,-0.0505
767.00,-0.0504
766.00,-0.0503
765.00,-0.0502
764.00,-0.0502
763.00,-0.0501
762.00,-0.0500
761.00,-0.0498
760.00,-0.0497
759.00,-0.0496
758.00,-0.0494
757.00,-0.0492
756.00,-0.0491
755.00,-0.0490
754.00,-0.0489
753.00,-0.0487
752.00,-0.0485
751.00,-0.0483
750.00,-0.0482
749.00,-0.0481
748.00,-0.0482
747.00,-0.0482
746.00,-0.0481
745.00,-0.0481
744.00,-0.0480
743.00,-0.0479
742.00,-0.0478
741.00,-0.0477
740.00,-0.0477
739.00,-0.0476
738.00,-0.0474
737.00,-0.0473
736.00,-0.0472
735.00,-0.0471
734.00,-0.0468
733.00,-0.0465
732.00,-0.0463
731.00,-0.0461
730.00,-0.0458
729.00,-0.0455
728.00,-0.0452
727.00,-0.0447
726.00,-0.0442
725.00,-0.0437
724.00,-0.0433
723.00,-0.0429
722.00,-0.0424
721.00,-0.0420
720.00,-0.0415
719.00,-0.0410
718.00,-0.0405
717.00,-0.0402
716.00,-0.0399
715.00,-0.0396
714.00,-0.0392
713.00,-0.0387
712.00,-0.0382
711.00,-0.0377
710.00,-0.0371
709.00,-0.0367
708.00,-0.0362
707.00,-0.0357
706.00,-0.0351
705.00,-0.0345
704.00,-0.0340
703.00,-0.0335
702.00,-0.0330
701.00,-0.0325
700.00,-0.0322
699.00,-0.0319
698.00,-0.0317
697.00,-0.0315
696.00,-0.0316
695.00,-0.0317
694.00,-0.0318
693.00,-0.0319
692.00,-0.0320
691.00,-0.0320
690.00,-0.0319
689.00,-0.0318
688.00,-0.0319
687.00,-0.0321
686.00,-0.0322
685.00,-0.0323
684.00,-0.0323
683.00,-0.0322
682.00,-0.0320
681.00,-0.0318
680.00,-0.0317
679.00,-0.0315
678.00,-0.0312
677.00,-0.0310
676.00,-0.0309
675.00,-0.0309
674.00,-0.0307
673.00,-0.0306
672.00,-0.0306
671.00,-0.0305
670.00,-0.0304
669.00,-0.0303
668.00,-0.0304
667.00,-0.0305
666.00,-0.0304
665.00,-0.0302
664.00,-0.0301
663.00,-0.0300
662.00,-0.0298
661.00,-0.0297
660.00,-0.0297
659.00,-0.0297
658.00,-0.0296
657.00,-0.0296
656.00,-0.0297
655.00,-0.0298
654.00,-0.0297
653.00,-0.0297
652.00,-0.0297
651.00,-0.0296
650.00,-0.0293
649.00,-0.0290
648.00,-0.0290
647.00,-0.0289
646.00,-0.0288
645.00,-0.0286
644.00,-0.0285
643.00,-0.0284
642.00,-0.0282
641.00,-0.0281
640.00,-0.0279
639.00,-0.0277
638.00,-0.0274
637.00,-0.0272
636.00,-0.0271
635.00,-0.0270
634.00,-0.0268
633.00,-0.0266
632.00,-0.0265
631.00,-0.0264
630.00,-0.0263
629.00,-0.0262
628.00,-0.0263
627.00,-0.0262
626.00,-0.0260
625.00,-0.0260
624.00,-0.0261
623.00,-0.0262
622.00,-0.0261
621.00,-0.0259
620.00,-0.0259
619.00,-0.0260
618.00,-0.0260
617.00,-0.0260
616.00,-0.0261
615.00,-0.0261
614.00,-0.0260
613.00,-0.0260
612.00,-0.0262
611.00,-0.0265
610.00,-0.0266
609.00,-0.0267
608.00,-0.0268
607.00,-0.0270
606.00,-0.0270
605.00,-0.0270
604.00,-0.0270
603.00,-0.0271
602.00,-0.0270
601.00,-0.0268
600.00,-0.0269
599.00,-0.0269
598.00,-0.0269
597.00,-0.0269
596.00,-0.0271
595.00,-0.0272
594.00,-0.0271
593.00,-0.0270
592.00,-0.0271
591.00,-0.0272
590.00,-0.0271
589.00,-0.0271
588.00,-0.0270
587.00,-0.0270
586.00,-0.0268
585.00,-0.0268
584.00,-0.0268
583.00,-0.0268
582.00,-0.0265
581.00,-0.0262
580.00,-0.0263
579.00,-0.0264
578.00,-0.0264
577.00,-0.0263
576.00,-0.0262
575.00,-0.0260
574.00,-0.0258
573.00,-0.0256
572.00,-0.0256
571.00,-0.0255
570.00,-0.0254
569.00,-0.0254
568.00,-0.0257
567.00,-0.0259
566.00,-0.0259
565.00,-0.0258
564.00,-0.0256
563.00,-0.0254
562.00,-0.0250
561.00,-0.0247
560.00,-0.0248
559.00,-0.0251
558.00,-0.0252
557.00,-0.0253
556.00,-0.0254
555.00,-0.0253
554.00,-0.0251
553.00,-0.0251
552.00,-0.0255
551.00,-0.0257
550.00,-0.0256
549.00,-0.0253
548.00,-0.0252
547.00,-0.0251
546.00,-0.0249
545.00,-0.0250
544.00,-0.0252
543.00,-0.0253
542.00,-0.0252
541.00,-0.0251
540.00,-0.0252
539.00,-0.0253
538.00,-0.0253
537.00,-0.0253
536.00,-0.0255
535.00,-0.0255
534.00,-0.0253
533.00,-0.0251
532.00,-0.0251
531.00,-0.0252
530.00,-0.0252
529.00,-0.0252
528.00,-0.0254
527.00,-0.0255
526.00,-0.0254
525.00,-0.0251
524.00,-0.0250
523.00,-0.0247
522.00,-0.0243
521.00,-0.0242
520.00,-0.0246
519.00,-0.0251
518.00,-0.0254
517.00,-0.0255
516.00,-0.0258
515.00,-0.0258
514.00,-0.0254
513.00,-0.0251
512.00,-0.0252
511.00,-0.0254
510.00,-0.0254
509.00,-0.0255
508.00,-0.0259
507.00,-0.0261
506.00,-0.0261
505.00,-0.0260
504.00,-0.0260
503.00,-0.0259
502.00,-0.0257
501.00,-0.0257
500.00,-0.0263
499.00,-0.0267
498.00,-0.0267
497.00,-0.0265
496.00,-0.0267
495.00,-0.0270
494.00,-0.0273
493.00,-0.0275
492.00,-0.0277
491.00,-0.0277
490.00,-0.0274
489.00,-0.0275
488.00,-0.0279
487.00,-0.0281
486.00,-0.0278
485.00,-0.0275
484.00,-0.0274
483.00,-0.0274
482.00,-0.0274
481.00,-0.0277
480.00,-0.0285
479.00,-0.0290
478.00,-0.0288
477.00,-0.0285
476.00,-0.0286
475.00,-0.0287
474.00,-0.0282
473.00,-0.0277
472.00,-0.0276
471.00,-0.0273
470.00,-0.0266
469.00,-0.0263
468.00,-0.0266
467.00,-0.0270
466.00,-0.0267
465.00,-0.0264
464.00,-0.0264
463.00,-0.0265
462.00,-0.0261
461.00,-0.0258
460.00,-0.0260
459.00,-0.0264
458.00,-0.0266
457.00,-0.0268
456.00,-0.0270
455.00,-0.0270
454.00,-0.0266
453.00,-0.0266
452.00,-0.0271
451.00,-0.0274
450.00,-0.0271
449.00,-0.0269
448.00,-0.0272
447.00,-0.0276
446.00,-0.0277
445.00,-0.0279
444.00,-0.0287
443.00,-0.0292
442.00,-0.0291
441.00,-0.0293
440.00,-0.0301
439.00,-0.0307
438.00,-0.0307
437.00,-0.0309
436.00,-0.0319
435.00,-0.0329
434.00,-0.0333
433.00,-0.0335
432.00,-0.0339
431.00,-0.0341
430.00,-0.0337
429.00,-0.0336
428.00,-0.0345
427.00,-0.0356
426.00,-0.0359
425.00,-0.0357
424.00,-0.0360
423.00,-0.0361
422.00,-0.0354
421.00,-0.0346
420.00,-0.0346
419.00,-0.0349
418.00,-0.0351
417.00,-0.0360
416.00,-0.0372
415.00,-0.0371
414.00,-0.0355
413.00,-0.0343
412.00,-0.0349
411.00,-0.0360
410.00,-0.0363
409.00,-0.0365
408.00,-0.0375
407.00,-0.0377
406.00,-0.0361
405.00,-0.0346
404.00,-0.0352
403.00,-0.0367
402.00,-0.0374
401.00,-0.0386
400.00,-0.0414
