Created as New Dataset,Sample 362 By YargerLab Date Friday, November 14 2025
cm-1,A
4000.00,0.0343
3999.00,0.0343
3998.00,0.0343
3997.00,0.0343
3996.00,0.0343
3995.00,0.0343
3994.00,0.0343
3993.00,0.0343
3992.00,0.0343
3991.00,0.0343
3990.00,0.0343
3989.00,0.0344
3988.00,0.0344
3987.00,0.0344
3986.00,0.0344
3985.00,0.0344
3984.00,0.0343
3983.00,0.0343
3982.00,0.0343
3981.00,0.0342
3980.00,0.0342
3979.00,0.0342
3978.00,0.0342
3977.00,0.0342
3976.00,0.0342
3975.00,0.0342
3974.00,0.0341
3973.00,0.0341
3972.00,0.0341
3971.00,0.0340
3970.00,0.0340
3969.00,0.0340
3968.00,0.0339
3967.00,0.0339
3966.00,0.0339
3965.00,0.0339
3964.00,0.0339
3963.00,0.0339
3962.00,0.0339
3961.00,0.0339
3960.00,0.0339
3959.00,0.0339
3958.00,0.0339
3957.00,0.0338
3956.00,0.0338
3955.00,0.0338
3954.00,0.0338
3953.00,0.0338
3952.00,0.0338
3951.00,0.0338
3950.00,0.0338
3949.00,0.0338
3948.00,0.0338
3947.00,0.0338
3946.00,0.0338
3945.00,0.0338
3944.00,0.0338
3943.00,0.0337
3942.00,0.0337
3941.00,0.0336
3940.00,0.0336
3939.00,0.0336
3938.00,0.0337
3937.00,0.0337
3936.00,0.0337
3935.00,0.0337
3934.00,0.0337
3933.00,0.0337
3932.00,0.0337
3931.00,0.0337
3930.00,0.0337
3929.00,0.0337
3928.00,0.0337
3927.00,0.0337
3926.00,0.0337
3925.00,0.0336
3924.00,0.0336
3923.00,0.0336
3922.00,0.0336
3921.00,0.0337
3920.00,0.0337
3919.00,0.0337
3918.00,0.0337
3917.00,0.0337
3916.00,0.0336
3915.00,0.0336
3914.00,0.0335
3913.00,0.0335
3912.00,0.0335
3911.00,0.0335
3910.00,0.0334
3909.00,0.0334
3908.00,0.0334
3907.00,0.0335
3906.00,0.0335
3905.00,0.0336
3904.00,0.0337
3903.00,0.0338
3902.00,0.0338
3901.00,0.0338
3900.00,0.0337
3899.00,0.0336
3898.00,0.0335
3897.00,0.0334
3896.00,0.0334
3895.00,0.0333
3894.00,0.0333
3893.00,0.0332
3892.00,0.0331
3891.00,0.0330
3890.00,0.0330
3889.00,0.0330
3888.00,0.0331
3887.00,0.0332
3886.00,0.0331
3885.00,0.0331
3884.00,0.0330
3883.00,0.0331
3882.00,0.0331
3881.00,0.0331
3880.00,0.0330
3879.00,0.0329
3878.00,0.0329
3877.00,0.0329
3876.00,0.0329
3875.00,0.0328
3874.00,0.0327
3873.00,0.0327
3872.00,0.0327
3871.00,0.0327
3870.00,0.0327
3869.00,0.0326
3868.00,0.0326
3867.00,0.0327
3866.00,0.0327
3865.00,0.0327
3864.00,0.0326
3863.00,0.0325
3862.00,0.0325
3861.00,0.0324
3860.00,0.0324
3859.00,0.0323
3858.00,0.0322
3857.00,0.0321
3856.00,0.0320
3855.00,0.0320
3854.00,0.0321
3853.00,0.0321
3852.00,0.0322
3851.00,0.0323
3850.00,0.0323
3849.00,0.0323
3848.00,0.0322
3847.00,0.0322
3846.00,0.0321
3845.00,0.0321
3844.00,0.0321
3843.00,0.0321
3842.00,0.0322
3841.00,0.0322
3840.00,0.0323
3839.00,0.0323
3838.00,0.0323
3837.00,0.0323
3836.00,0.0323
3835.00,0.0322
3834.00,0.0322
3833.00,0.0322
3832.00,0.0322
3831.00,0.0321
3830.00,0.0321
3829.00,0.0321
3828.00,0.0321
3827.00,0.0320
3826.00,0.0320
3825.00,0.0320
3824.00,0.0321
3823.00,0.0322
3822.00,0.0322
3821.00,0.0322
3820.00,0.0321
3819.00,0.0321
3818.00,0.0321
3817.00,0.0321
3816.00,0.0320
3815.00,0.0319
3814.00,0.0318
3813.00,0.0318
3812.00,0.0317
3811.00,0.0316
3810.00,0.0316
3809.00,0.0316
3808.00,0.0316
3807.00,0.0316
3806.00,0.0316
3805.00,0.0317
3804.00,0.0317
3803.00,0.0318
3802.00,0.0318
3801.00,0.0318
3800.00,0.0317
3799.00,0.0317
3798.00,0.0318
3797.00,0.0318
3796.00,0.0317
3795.00,0.0316
3794.00,0.0315
3793.00,0.0315
3792.00,0.0314
3791.00,0.0314
3790.00,0.0313
3789.00,0.0313
3788.00,0.0314
3787.00,0.0314
3786.00,0.0314
3785.00,0.0314
3784.00,0.0314
3783.00,0.0314
3782.00,0.0314
3781.00,0.0315
3780.00,0.0315
3779.00,0.0314
3778.00,0.0314
3777.00,0.0314
3776.00,0.0314
3775.00,0.0313
3774.00,0.0313
3773.00,0.0313
3772.00,0.0314
3771.00,0.0314
3770.00,0.0315
3769.00,0.0315
3768.00,0.0315
3767.00,0.0315
3766.00,0.0315
3765.00,0.0314
3764.00,0.0314
3763.00,0.0314
3762.00,0.0315
3761.00,0.0316
3760.00,0.0316
3759.00,0.0316
3758.00,0.0316
3757.00,0.0316
3756.00,0.0316
3755.00,0.0316
3754.00,0.0316
3753.00,0.0317
3752.00,0.0317
3751.00,0.0318
3750.00,0.0318
3749.00,0.0318
3748.00,0.0318
3747.00,0.0319
3746.00,0.0319
3745.00,0.0319
3744.00,0.0317
3743.00,0.0316
3742.00,0.0316
3741.00,0.0317
3740.00,0.0317
3739.00,0.0317
3738.00,0.0317
3737.00,0.0318
3736.00,0.0318
3735.00,0.0317
3734.00,0.0317
3733.00,0.0317
3732.00,0.0317
3731.00,0.0316
3730.00,0.0316
3729.00,0.0315
3728.00,0.0315
3727.00,0.0315
3726.00,0.0314
3725.00,0.0314
3724.00,0.0314
3723.00,0.0314
3722.00,0.0314
3721.00,0.0314
3720.00,0.0314
3719.00,0.0313
3718.00,0.0313
3717.00,0.0314
3716.00,0.0314
3715.00,0.0315
3714.00,0.0316
3713.00,0.0316
3712.00,0.0317
3711.00,0.0317
3710.00,0.0317
3709.00,0.0317
3708.00,0.0317
3707.00,0.0317
3706.00,0.0317
3705.00,0.0317
3704.00,0.0317
3703.00,0.0317
3702.00,0.0317
3701.00,0.0318
3700.00,0.0318
3699.00,0.0319
3698.00,0.0320
3697.00,0.0320
3696.00,0.0321
3695.00,0.0321
3694.00,0.0322
3693.00,0.0324
3692.00,0.0325
3691.00,0.0326
3690.00,0.0328
3689.00,0.0329
3688.00,0.0331
3687.00,0.0332
3686.00,0.0333
3685.00,0.0334
3684.00,0.0335
3683.00,0.0336
3682.00,0.0338
3681.00,0.0339
3680.00,0.0341
3679.00,0.0343
3678.00,0.0345
3677.00,0.0349
3676.00,0.0352
3675.00,0.0354
3674.00,0.0356
3673.00,0.0358
3672.00,0.0361
3671.00,0.0363
3670.00,0.0364
3669.00,0.0365
3668.00,0.0366
3667.00,0.0368
3666.00,0.0370
3665.00,0.0371
3664.00,0.0372
3663.00,0.0374
3662.00,0.0376
3661.00,0.0378
3660.00,0.0380
3659.00,0.0383
3658.00,0.0385
3657.00,0.0388
3656.00,0.0391
3655.00,0.0393
3654.00,0.0396
3653.00,0.0399
3652.00,0.0401
3651.00,0.0404
3650.00,0.0406
3649.00,0.0408
3648.00,0.0410
3647.00,0.0411
3646.00,0.0412
3645.00,0.0412
3644.00,0.0412
3643.00,0.0413
3642.00,0.0413
3641.00,0.0413
3640.00,0.0414
3639.00,0.0415
3638.00,0.0416
3637.00,0.0417
3636.00,0.0418
3635.00,0.0419
3634.00,0.0419
3633.00,0.0420
3632.00,0.0421
3631.00,0.0422
3630.00,0.0423
3629.00,0.0423
3628.00,0.0423
3627.00,0.0424
3626.00,0.0424
3625.00,0.0425
3624.00,0.0425
3623.00,0.0425
3622.00,0.0424
3621.00,0.0424
3620.00,0.0424
3619.00,0.0423
3618.00,0.0423
3617.00,0.0423
3616.00,0.0424
3615.00,0.0424
3614.00,0.0424
3613.00,0.0424
3612.00,0.0423
3611.00,0.0423
3610.00,0.0424
3609.00,0.0424
3608.00,0.0423
3607.00,0.0422
3606.00,0.0421
3605.00,0.0420
3604.00,0.0419
3603.00,0.0419
3602.00,0.0418
3601.00,0.0418
3600.00,0.0417
3599.00,0.0417
3598.00,0.0418
3597.00,0.0418
3596.00,0.0418
3595.00,0.0418
3594.00,0.0417
3593.00,0.0418
3592.00,0.0418
3591.00,0.0419
3590.00,0.0420
3589.00,0.0420
3588.00,0.0421
3587.00,0.0420
3586.00,0.0420
3585.00,0.0420
3584.00,0.0421
3583.00,0.0421
3582.00,0.0421
3581.00,0.0421
3580.00,0.0421
3579.00,0.0422
3578.00,0.0422
3577.00,0.0423
3576.00,0.0424
3575.00,0.0425
3574.00,0.0426
3573.00,0.0426
3572.00,0.0427
3571.00,0.0429
3570.00,0.0431
3569.00,0.0433
3568.00,0.0434
3567.00,0.0435
3566.00,0.0435
3565.00,0.0435
3564.00,0.0436
3563.00,0.0436
3562.00,0.0435
3561.00,0.0435
3560.00,0.0436
3559.00,0.0436
3558.00,0.0437
3557.00,0.0437
3556.00,0.0437
3555.00,0.0437
3554.00,0.0437
3553.00,0.0437
3552.00,0.0437
3551.00,0.0438
3550.00,0.0438
3549.00,0.0438
3548.00,0.0437
3547.00,0.0437
3546.00,0.0436
3545.00,0.0435
3544.00,0.0435
3543.00,0.0435
3542.00,0.0435
3541.00,0.0436
3540.00,0.0436
3539.00,0.0436
3538.00,0.0436
3537.00,0.0436
3536.00,0.0436
3535.00,0.0437
3534.00,0.0437
3533.00,0.0438
3532.00,0.0438
3531.00,0.0439
3530.00,0.0439
3529.00,0.0440
3528.00,0.0440
3527.00,0.0440
3526.00,0.0441
3525.00,0.0441
3524.00,0.0441
3523.00,0.0442
3522.00,0.0443
3521.00,0.0444
3520.00,0.0445
3519.00,0.0445
3518.00,0.0446
3517.00,0.0446
3516.00,0.0447
3515.00,0.0447
3514.00,0.0448
3513.00,0.0450
3512.00,0.0451
3511.00,0.0452
3510.00,0.0454
3509.00,0.0455
3508.00,0.0457
3507.00,0.0459
3506.00,0.0461
3505.00,0.0462
3504.00,0.0464
3503.00,0.0466
3502.00,0.0468
3501.00,0.0470
3500.00,0.0472
3499.00,0.0474
3498.00,0.0476
3497.00,0.0478
3496.00,0.0480
3495.00,0.0482
3494.00,0.0484
3493.00,0.0486
3492.00,0.0487
3491.00,0.0488
3490.00,0.0489
3489.00,0.0490
3488.00,0.0490
3487.00,0.0491
3486.00,0.0491
3485.00,0.0492
3484.00,0.0491
3483.00,0.0490
3482.00,0.0489
3481.00,0.0487
3480.00,0.0486
3479.00,0.0485
3478.00,0.0485
3477.00,0.0484
3476.00,0.0483
3475.00,0.0482
3474.00,0.0481
3473.00,0.0479
3472.00,0.0477
3471.00,0.0475
3470.00,0.0473
3469.00,0.0472
3468.00,0.0471
3467.00,0.0471
3466.00,0.0471
3465.00,0.0472
3464.00,0.0472
3463.00,0.0472
3462.00,0.0471
3461.00,0.0470
3460.00,0.0470
3459.00,0.0470
3458.00,0.0470
3457.00,0.0471
3456.00,0.0471
3455.00,0.0471
3454.00,0.0471
3453.00,0.0472
3452.00,0.0472
3451.00,0.0472
3450.00,0.0472
3449.00,0.0472
3448.00,0.0471
3447.00,0.0471
3446.00,0.0471
3445.00,0.0472
3444.00,0.0472
3443.00,0.0472
3442.00,0.0472
3441.00,0.0472
3440.00,0.0470
3439.00,0.0469
3438.00,0.0467
3437.00,0.0466
3436.00,0.0466
3435.00,0.0466
3434.00,0.0467
3433.00,0.0468
3432.00,0.0468
3431.00,0.0468
3430.00,0.0469
3429.00,0.0469
3428.00,0.0471
3427.00,0.0472
3426.00,0.0473
3425.00,0.0473
3424.00,0.0473
3423.00,0.0472
3422.00,0.0472
3421.00,0.0472
3420.00,0.0472
3419.00,0.0472
3418.00,0.0472
3417.00,0.0472
3416.00,0.0471
3415.00,0.0470
3414.00,0.0469
3413.00,0.0468
3412.00,0.0468
3411.00,0.0468
3410.00,0.0468
3409.00,0.0469
3408.00,0.0469
3407.00,0.0470
3406.00,0.0470
3405.00,0.0469
3404.00,0.0467
3403.00,0.0465
3402.00,0.0463
3401.00,0.0462
3400.00,0.0463
3399.00,0.0464
3398.00,0.0466
3397.00,0.0466
3396.00,0.0466
3395.00,0.0465
3394.00,0.0465
3393.00,0.0464
3392.00,0.0464
3391.00,0.0465
3390.00,0.0467
3389.00,0.0468
3388.00,0.0469
3387.00,0.0470
3386.00,0.0470
3385.00,0.0470
3384.00,0.0470
3383.00,0.0469
3382.00,0.0469
3381.00,0.0469
3380.00,0.0469
3379.00,0.0469
3378.00,0.0468
3377.00,0.0468
3376.00,0.0468
3375.00,0.0468
3374.00,0.0468
3373.00,0.0467
3372.00,0.0465
3371.00,0.0464
3370.00,0.0463
3369.00,0.0462
3368.00,0.0462
3367.00,0.0463
3366.00,0.0464
3365.00,0.0465
3364.00,0.0465
3363.00,0.0465
3362.00,0.0465
3361.00,0.0465
3360.00,0.0464
3359.00,0.0465
3358.00,0.0465
3357.00,0.0465
3356.00,0.0465
3355.00,0.0464
3354.00,0.0463
3353.00,0.0462
3352.00,0.0461
3351.00,0.0461
3350.00,0.0461
3349.00,0.0461
3348.00,0.0461
3347.00,0.0461
3346.00,0.0460
3345.00,0.0460
3344.00,0.0459
3343.00,0.0459
3342.00,0.0459
3341.00,0.0458
3340.00,0.0458
3339.00,0.0458
3338.00,0.0458
3337.00,0.0458
3336.00,0.0458
3335.00,0.0458
3334.00,0.0458
3333.00,0.0457
3332.00,0.0457
3331.00,0.0456
3330.00,0.0456
3329.00,0.0455
3328.00,0.0454
3327.00,0.0454
3326.00,0.0454
3325.00,0.0454
3324.00,0.0454
3323.00,0.0454
3322.00,0.0454
3321.00,0.0454
3320.00,0.0454
3319.00,0.0454
3318.00,0.0453
3317.00,0.0453
3316.00,0.0452
3315.00,0.0452
3314.00,0.0451
3313.00,0.0451
3312.00,0.0450
3311.00,0.0449
3310.00,0.0448
3309.00,0.0447
3308.00,0.0446
3307.00,0.0446
3306.00,0.0446
3305.00,0.0446
3304.00,0.0447
3303.00,0.0448
3302.00,0.0449
3301.00,0.0449
3300.00,0.0449
3299.00,0.0448
3298.00,0.0447
3297.00,0.0447
3296.00,0.0446
3295.00,0.0446
3294.00,0.0445
3293.00,0.0445
3292.00,0.0445
3291.00,0.0445
3290.00,0.0445
3289.00,0.0445
3288.00,0.0445
3287.00,0.0445
3286.00,0.0445
3285.00,0.0445
3284.00,0.0445
3283.00,0.0445
3282.00,0.0444
3281.00,0.0444
3280.00,0.0444
3279.00,0.0443
3278.00,0.0443
3277.00,0.0442
3276.00,0.0442
3275.00,0.0441
3274.00,0.0440
3273.00,0.0439
3272.00,0.0438
3271.00,0.0438
3270.00,0.0438
3269.00,0.0439
3268.00,0.0439
3267.00,0.0439
3266.00,0.0439
3265.00,0.0439
3264.00,0.0438
3263.00,0.0438
3262.00,0.0438
3261.00,0.0438
3260.00,0.0437
3259.00,0.0437
3258.00,0.0436
3257.00,0.0435
3256.00,0.0435
3255.00,0.0435
3254.00,0.0435
3253.00,0.0435
3252.00,0.0435
3251.00,0.0435
3250.00,0.0434
3249.00,0.0433
3248.00,0.0432
3247.00,0.0431
3246.00,0.0431
3245.00,0.0431
3244.00,0.0432
3243.00,0.0432
3242.00,0.0431
3241.00,0.0431
3240.00,0.0430
3239.00,0.0430
3238.00,0.0429
3237.00,0.0428
3236.00,0.0427
3235.00,0.0426
3234.00,0.0426
3233.00,0.0426
3232.00,0.0426
3231.00,0.0426
3230.00,0.0427
3229.00,0.0427
3228.00,0.0426
3227.00,0.0426
3226.00,0.0426
3225.00,0.0425
3224.00,0.0425
3223.00,0.0424
3222.00,0.0424
3221.00,0.0423
3220.00,0.0423
3219.00,0.0423
3218.00,0.0422
3217.00,0.0422
3216.00,0.0422
3215.00,0.0422
3214.00,0.0422
3213.00,0.0422
3212.00,0.0422
3211.00,0.0421
3210.00,0.0421
3209.00,0.0421
3208.00,0.0420
3207.00,0.0420
3206.00,0.0419
3205.00,0.0419
3204.00,0.0419
3203.00,0.0419
3202.00,0.0418
3201.00,0.0418
3200.00,0.0417
3199.00,0.0417
3198.00,0.0417
3197.00,0.0416
3196.00,0.0416
3195.00,0.0415
3194.00,0.0415
3193.00,0.0415
3192.00,0.0414
3191.00,0.0414
3190.00,0.0413
3189.00,0.0412
3188.00,0.0412
3187.00,0.0411
3186.00,0.0411
3185.00,0.0410
3184.00,0.0410
3183.00,0.0409
3182.00,0.0409
3181.00,0.0409
3180.00,0.0409
3179.00,0.0408
3178.00,0.0407
3177.00,0.0406
3176.00,0.0405
3175.00,0.0405
3174.00,0.0404
3173.00,0.0404
3172.00,0.0403
3171.00,0.0403
3170.00,0.0402
3169.00,0.0402
3168.00,0.0401
3167.00,0.0401
3166.00,0.0400
3165.00,0.0400
3164.00,0.0399
3163.00,0.0399
3162.00,0.0398
3161.00,0.0398
3160.00,0.0398
3159.00,0.0397
3158.00,0.0397
3157.00,0.0396
3156.00,0.0396
3155.00,0.0395
3154.00,0.0394
3153.00,0.0394
3152.00,0.0394
3151.00,0.0394
3150.00,0.0395
3149.00,0.0396
3148.00,0.0396
3147.00,0.0397
3146.00,0.0397
3145.00,0.0397
3144.00,0.0398
3143.00,0.0398
3142.00,0.0398
3141.00,0.0398
3140.00,0.0398
3139.00,0.0399
3138.00,0.0400
3137.00,0.0401
3136.00,0.0402
3135.00,0.0403
3134.00,0.0404
3133.00,0.0404
3132.00,0.0405
3131.00,0.0406
3130.00,0.0407
3129.00,0.0408
3128.00,0.0410
3127.00,0.0411
3126.00,0.0412
3125.00,0.0413
3124.00,0.0415
3123.00,0.0416
3122.00,0.0417
3121.00,0.0418
3120.00,0.0419
3119.00,0.0421
3118.00,0.0423
3117.00,0.0425
3116.00,0.0427
3115.00,0.0430
3114.00,0.0432
3113.00,0.0434
3112.00,0.0436
3111.00,0.0437
3110.00,0.0438
3109.00,0.0440
3108.00,0.0441
3107.00,0.0443
3106.00,0.0445
3105.00,0.0447
3104.00,0.0449
3103.00,0.0451
3102.00,0.0452
3101.00,0.0454
3100.00,0.0455
3099.00,0.0456
3098.00,0.0457
3097.00,0.0458
3096.00,0.0458
3095.00,0.0458
3094.00,0.0457
3093.00,0.0456
3092.00,0.0455
3091.00,0.0455
3090.00,0.0454
3089.00,0.0453
3088.00,0.0453
3087.00,0.0452
3086.00,0.0452
3085.00,0.0453
3084.00,0.0454
3083.00,0.0454
3082.00,0.0455
3081.00,0.0456
3080.00,0.0456
3079.00,0.0457
3078.00,0.0458
3077.00,0.0459
3076.00,0.0460
3075.00,0.0460
3074.00,0.0460
3073.00,0.0460
3072.00,0.0460
3071.00,0.0459
3070.00,0.0457
3069.00,0.0456
3068.00,0.0455
3067.00,0.0454
3066.00,0.0453
3065.00,0.0452
3064.00,0.0451
3063.00,0.0449
3062.00,0.0448
3061.00,0.0447
3060.00,0.0446
3059.00,0.0445
3058.00,0.0444
3057.00,0.0444
3056.00,0.0444
3055.00,0.0444
3054.00,0.0444
3053.00,0.0444
3052.00,0.0444
3051.00,0.0444
3050.00,0.0444
3049.00,0.0444
3048.00,0.0443
3047.00,0.0441
3046.00,0.0439
3045.00,0.0437
3044.00,0.0435
3043.00,0.0433
3042.00,0.0431
3041.00,0.0430
3040.00,0.0428
3039.00,0.0427
3038.00,0.0424
3037.00,0.0422
3036.00,0.0419
3035.00,0.0416
3034.00,0.0414
3033.00,0.0413
3032.00,0.0411
3031.00,0.0409
3030.00,0.0407
3029.00,0.0405
3028.00,0.0403
3027.00,0.0400
3026.00,0.0397
3025.00,0.0394
3024.00,0.0392
3023.00,0.0391
3022.00,0.0389
3021.00,0.0387
3020.00,0.0385
3019.00,0.0383
3018.00,0.0381
3017.00,0.0379
3016.00,0.0377
3015.00,0.0375
3014.00,0.0374
3013.00,0.0374
3012.00,0.0374
3011.00,0.0375
3010.00,0.0377
3009.00,0.0378
3008.00,0.0380
3007.00,0.0380
3006.00,0.0380
3005.00,0.0380
3004.00,0.0380
3003.00,0.0380
3002.00,0.0379
3001.00,0.0378
3000.00,0.0377
2999.00,0.0376
2998.00,0.0375
2997.00,0.0374
2996.00,0.0373
2995.00,0.0372
2994.00,0.0371
2993.00,0.0370
2992.00,0.0369
2991.00,0.0370
2990.00,0.0370
2989.00,0.0370
2988.00,0.0370
2987.00,0.0369
2986.00,0.0368
2985.00,0.0366
2984.00,0.0365
2983.00,0.0363
2982.00,0.0361
2981.00,0.0360
2980.00,0.0359
2979.00,0.0359
2978.00,0.0358
2977.00,0.0357
2976.00,0.0357
2975.00,0.0356
2974.00,0.0356
2973.00,0.0356
2972.00,0.0356
2971.00,0.0356
2970.00,0.0356
2969.00,0.0355
2968.00,0.0355
2967.00,0.0355
2966.00,0.0354
2965.00,0.0354
2964.00,0.0353
2963.00,0.0353
2962.00,0.0352
2961.00,0.0352
2960.00,0.0352
2959.00,0.0352
2958.00,0.0352
2957.00,0.0352
2956.00,0.0351
2955.00,0.0351
2954.00,0.0350
2953.00,0.0349
2952.00,0.0349
2951.00,0.0349
2950.00,0.0349
2949.00,0.0348
2948.00,0.0348
2947.00,0.0347
2946.00,0.0346
2945.00,0.0346
2944.00,0.0347
2943.00,0.0347
2942.00,0.0348
2941.00,0.0349
2940.00,0.0349
2939.00,0.0349
2938.00,0.0350
2937.00,0.0350
2936.00,0.0350
2935.00,0.0350
2934.00,0.0350
2933.00,0.0350
2932.00,0.0350
2931.00,0.0350
2930.00,0.0350
2929.00,0.0350
2928.00,0.0350
2927.00,0.0351
2926.00,0.0351
2925.00,0.0350
2924.00,0.0350
2923.00,0.0349
2922.00,0.0349
2921.00,0.0348
2920.00,0.0347
2919.00,0.0346
2918.00,0.0344
2917.00,0.0343
2916.00,0.0342
2915.00,0.0341
2914.00,0.0340
2913.00,0.0339
2912.00,0.0339
2911.00,0.0340
2910.00,0.0339
2909.00,0.0339
2908.00,0.0339
2907.00,0.0338
2906.00,0.0337
2905.00,0.0336
2904.00,0.0336
2903.00,0.0335
2902.00,0.0335
2901.00,0.0334
2900.00,0.0334
2899.00,0.0333
2898.00,0.0333
2897.00,0.0332
2896.00,0.0332
2895.00,0.0332
2894.00,0.0332
2893.00,0.0332
2892.00,0.0332
2891.00,0.0331
2890.00,0.0331
2889.00,0.0331
2888.00,0.0331
2887.00,0.0331
2886.00,0.0330
2885.00,0.0330
2884.00,0.0330
2883.00,0.0330
2882.00,0.0330
2881.00,0.0330
2880.00,0.0330
2879.00,0.0330
2878.00,0.0330
2877.00,0.0329
2876.00,0.0328
2875.00,0.0328
2874.00,0.0327
2873.00,0.0327
2872.00,0.0328
2871.00,0.0328
2870.00,0.0328
2869.00,0.0327
2868.00,0.0327
2867.00,0.0326
2866.00,0.0326
2865.00,0.0325
2864.00,0.0325
2863.00,0.0324
2862.00,0.0324
2861.00,0.0324
2860.00,0.0324
2859.00,0.0324
2858.00,0.0325
2857.00,0.0325
2856.00,0.0325
2855.00,0.0325
2854.00,0.0325
2853.00,0.0325
2852.00,0.0325
2851.00,0.0324
2850.00,0.0323
2849.00,0.0323
2848.00,0.0322
2847.00,0.0321
2846.00,0.0321
2845.00,0.0320
2844.00,0.0320
2843.00,0.0319
2842.00,0.0318
2841.00,0.0316
2840.00,0.0315
2839.00,0.0315
2838.00,0.0315
2837.00,0.0315
2836.00,0.0315
2835.00,0.0314
2834.00,0.0314
2833.00,0.0314
2832.00,0.0314
2831.00,0.0314
2830.00,0.0314
2829.00,0.0314
2828.00,0.0313
2827.00,0.0313
2826.00,0.0312
2825.00,0.0312
2824.00,0.0311
2823.00,0.0310
2822.00,0.0309
2821.00,0.0309
2820.00,0.0308
2819.00,0.0308
2818.00,0.0308
2817.00,0.0307
2816.00,0.0307
2815.00,0.0306
2814.00,0.0306
2813.00,0.0305
2812.00,0.0305
2811.00,0.0304
2810.00,0.0304
2809.00,0.0303
2808.00,0.0303
2807.00,0.0303
2806.00,0.0303
2805.00,0.0303
2804.00,0.0302
2803.00,0.0302
2802.00,0.0302
2801.00,0.0302
2800.00,0.0301
2799.00,0.0301
2798.00,0.0301
2797.00,0.0302
2796.00,0.0302
2795.00,0.0303
2794.00,0.0304
2793.00,0.0305
2792.00,0.0306
2791.00,0.0307
2790.00,0.0309
2789.00,0.0311
2788.00,0.0313
2787.00,0.0314
2786.00,0.0316
2785.00,0.0317
2784.00,0.0319
2783.00,0.0319
2782.00,0.0320
2781.00,0.0320
2780.00,0.0320
2779.00,0.0319
2778.00,0.0318
2777.00,0.0317
2776.00,0.0315
2775.00,0.0314
2774.00,0.0312
2773.00,0.0311
2772.00,0.0310
2771.00,0.0309
2770.00,0.0307
2769.00,0.0306
2768.00,0.0305
2767.00,0.0303
2766.00,0.0302
2765.00,0.0301
2764.00,0.0301
2763.00,0.0300
2762.00,0.0299
2761.00,0.0299
2760.00,0.0298
2759.00,0.0298
2758.00,0.0297
2757.00,0.0297
2756.00,0.0296
2755.00,0.0296
2754.00,0.0296
2753.00,0.0295
2752.00,0.0295
2751.00,0.0294
2750.00,0.0294
2749.00,0.0293
2748.00,0.0293
2747.00,0.0293
2746.00,0.0293
2745.00,0.0294
2744.00,0.0294
2743.00,0.0293
2742.00,0.0293
2741.00,0.0293
2740.00,0.0292
2739.00,0.0292
2738.00,0.0291
2737.00,0.0291
2736.00,0.0291
2735.00,0.0290
2734.00,0.0290
2733.00,0.0290
2732.00,0.0289
2731.00,0.0289
2730.00,0.0289
2729.00,0.0288
2728.00,0.0288
2727.00,0.0287
2726.00,0.0287
2725.00,0.0287
2724.00,0.0286
2723.00,0.0286
2722.00,0.0286
2721.00,0.0286
2720.00,0.0286
2719.00,0.0286
2718.00,0.0285
2717.00,0.0285
2716.00,0.0285
2715.00,0.0284
2714.00,0.0284
2713.00,0.0283
2712.00,0.0283
2711.00,0.0283
2710.00,0.0282
2709.00,0.0282
2708.00,0.0282
2707.00,0.0281
2706.00,0.0281
2705.00,0.0281
2704.00,0.0280
2703.00,0.0280
2702.00,0.0280
2701.00,0.0279
2700.00,0.0279
2699.00,0.0278
2698.00,0.0278
2697.00,0.0277
2696.00,0.0277
2695.00,0.0277
2694.00,0.0276
2693.00,0.0275
2692.00,0.0275
2691.00,0.0275
2690.00,0.0274
2689.00,0.0274
2688.00,0.0274
2687.00,0.0274
2686.00,0.0273
2685.00,0.0273
2684.00,0.0273
2683.00,0.0273
2682.00,0.0272
2681.00,0.0272
2680.00,0.0272
2679.00,0.0272
2678.00,0.0272
2677.00,0.0272
2676.00,0.0272
2675.00,0.0273
2674.00,0.0272
2673.00,0.0272
2672.00,0.0273
2671.00,0.0273
2670.00,0.0273
2669.00,0.0273
2668.00,0.0273
2667.00,0.0273
2666.00,0.0273
2665.00,0.0273
2664.00,0.0273
2663.00,0.0273
2662.00,0.0273
2661.00,0.0273
2660.00,0.0272
2659.00,0.0272
2658.00,0.0271
2657.00,0.0271
2656.00,0.0270
2655.00,0.0270
2654.00,0.0270
2653.00,0.0269
2652.00,0.0269
2651.00,0.0269
2650.00,0.0268
2649.00,0.0268
2648.00,0.0267
2647.00,0.0267
2646.00,0.0266
2645.00,0.0266
2644.00,0.0266
2643.00,0.0266
2642.00,0.0265
2641.00,0.0265
2640.00,0.0264
2639.00,0.0264
2638.00,0.0264
2637.00,0.0263
2636.00,0.0263
2635.00,0.0263
2634.00,0.0263
2633.00,0.0263
2632.00,0.0263
2631.00,0.0263
2630.00,0.0263
2629.00,0.0263
2628.00,0.0263
2627.00,0.0263
2626.00,0.0263
2625.00,0.0263
2624.00,0.0263
2623.00,0.0263
2622.00,0.0263
2621.00,0.0263
2620.00,0.0263
2619.00,0.0263
2618.00,0.0262
2617.00,0.0263
2616.00,0.0263
2615.00,0.0263
2614.00,0.0263
2613.00,0.0263
2612.00,0.0262
2611.00,0.0263
2610.00,0.0263
2609.00,0.0263
2608.00,0.0264
2607.00,0.0264
2606.00,0.0264
2605.00,0.0264
2604.00,0.0264
2603.00,0.0264
2602.00,0.0265
2601.00,0.0265
2600.00,0.0265
2599.00,0.0266
2598.00,0.0266
2597.00,0.0266
2596.00,0.0267
2595.00,0.0267
2594.00,0.0267
2593.00,0.0268
2592.00,0.0268
2591.00,0.0269
2590.00,0.0269
2589.00,0.0270
2588.00,0.0270
2587.00,0.0269
2586.00,0.0269
2585.00,0.0269
2584.00,0.0268
2583.00,0.0268
2582.00,0.0267
2581.00,0.0267
2580.00,0.0267
2579.00,0.0267
2578.00,0.0266
2577.00,0.0265
2576.00,0.0265
2575.00,0.0264
2574.00,0.0263
2573.00,0.0263
2572.00,0.0262
2571.00,0.0262
2570.00,0.0262
2569.00,0.0261
2568.00,0.0261
2567.00,0.0260
2566.00,0.0260
2565.00,0.0260
2564.00,0.0259
2563.00,0.0259
2562.00,0.0259
2561.00,0.0258
2560.00,0.0258
2559.00,0.0257
2558.00,0.0256
2557.00,0.0256
2556.00,0.0255
2555.00,0.0255
2554.00,0.0255
2553.00,0.0255
2552.00,0.0255
2551.00,0.0255
2550.00,0.0255
2549.00,0.0255
2548.00,0.0255
2547.00,0.0255
2546.00,0.0255
2545.00,0.0255
2544.00,0.0255
2543.00,0.0255
2542.00,0.0255
2541.00,0.0255
2540.00,0.0255
2539.00,0.0255
2538.00,0.0256
2537.00,0.0256
2536.00,0.0256
2535.00,0.0257
2534.00,0.0257
2533.00,0.0257
2532.00,0.0258
2531.00,0.0258
2530.00,0.0259
2529.00,0.0259
2528.00,0.0259
2527.00,0.0259
2526.00,0.0260
2525.00,0.0260
2524.00,0.0260
2523.00,0.0260
2522.00,0.0261
2521.00,0.0262
2520.00,0.0262
2519.00,0.0263
2518.00,0.0263
2517.00,0.0264
2516.00,0.0264
2515.00,0.0265
2514.00,0.0265
2513.00,0.0265
2512.00,0.0265
2511.00,0.0265
2510.00,0.0265
2509.00,0.0265
2508.00,0.0266
2507.00,0.0266
2506.00,0.0266
2505.00,0.0266
2504.00,0.0266
2503.00,0.0265
2502.00,0.0265
2501.00,0.0265
2500.00,0.0265
2499.00,0.0265
2498.00,0.0265
2497.00,0.0265
2496.00,0.0265
2495.00,0.0265
2494.00,0.0265
2493.00,0.0264
2492.00,0.0264
2491.00,0.0264
2490.00,0.0264
2489.00,0.0264
2488.00,0.0264
2487.00,0.0264
2486.00,0.0264
2485.00,0.0264
2484.00,0.0265
2483.00,0.0265
2482.00,0.0264
2481.00,0.0264
2480.00,0.0264
2479.00,0.0264
2478.00,0.0264
2477.00,0.0264
2476.00,0.0264
2475.00,0.0264
2474.00,0.0263
2473.00,0.0263
2472.00,0.0262
2471.00,0.0262
2470.00,0.0262
2469.00,0.0261
2468.00,0.0261
2467.00,0.0261
2466.00,0.0261
2465.00,0.0261
2464.00,0.0262
2463.00,0.0262
2462.00,0.0262
2461.00,0.0262
2460.00,0.0261
2459.00,0.0261
2458.00,0.0261
2457.00,0.0261
2456.00,0.0261
2455.00,0.0261
2454.00,0.0261
2453.00,0.0261
2452.00,0.0261
2451.00,0.0261
2450.00,0.0261
2449.00,0.0261
2448.00,0.0260
2447.00,0.0259
2446.00,0.0259
2445.00,0.0259
2444.00,0.0259
2443.00,0.0259
2442.00,0.0258
2441.00,0.0258
2440.00,0.0257
2439.00,0.0256
2438.00,0.0255
2437.00,0.0255
2436.00,0.0254
2435.00,0.0253
2434.00,0.0252
2433.00,0.0252
2432.00,0.0251
2431.00,0.0251
2430.00,0.0250
2429.00,0.0249
2428.00,0.0249
2427.00,0.0249
2426.00,0.0248
2425.00,0.0248
2424.00,0.0247
2423.00,0.0246
2422.00,0.0245
2421.00,0.0244
2420.00,0.0244
2419.00,0.0243
2418.00,0.0244
2417.00,0.0244
2416.00,0.0244
2415.00,0.0244
2414.00,0.0244
2413.00,0.0244
2412.00,0.0243
2411.00,0.0243
2410.00,0.0243
2409.00,0.0242
2408.00,0.0242
2407.00,0.0241
2406.00,0.0241
2405.00,0.0241
2404.00,0.0241
2403.00,0.0241
2402.00,0.0241
2401.00,0.0241
2400.00,0.0241
2399.00,0.0240
2398.00,0.0240
2397.00,0.0240
2396.00,0.0240
2395.00,0.0239
2394.00,0.0238
2393.00,0.0238
2392.00,0.0237
2391.00,0.0237
2390.00,0.0235
2389.00,0.0234
2388.00,0.0232
2387.00,0.0230
2386.00,0.0229
2385.00,0.0227
2384.00,0.0225
2383.00,0.0223
2382.00,0.0221
2381.00,0.0220
2380.00,0.0219
2379.00,0.0218
2378.00,0.0218
2377.00,0.0217
2376.00,0.0217
2375.00,0.0217
2374.00,0.0217
2373.00,0.0217
2372.00,0.0217
2371.00,0.0217
2370.00,0.0216
2369.00,0.0215
2368.00,0.0214
2367.00,0.0213
2366.00,0.0213
2365.00,0.0212
2364.00,0.0212
2363.00,0.0211
2362.00,0.0211
2361.00,0.0210
2360.00,0.0210
2359.00,0.0209
2358.00,0.0209
2357.00,0.0208
2356.00,0.0209
2355.00,0.0209
2354.00,0.0209
2353.00,0.0208
2352.00,0.0207
2351.00,0.0206
2350.00,0.0207
2349.00,0.0207
2348.00,0.0207
2347.00,0.0206
2346.00,0.0204
2345.00,0.0203
2344.00,0.0203
2343.00,0.0204
2342.00,0.0204
2341.00,0.0204
2340.00,0.0204
2339.00,0.0205
2338.00,0.0204
2337.00,0.0204
2336.00,0.0203
2335.00,0.0202
2334.00,0.0201
2333.00,0.0201
2332.00,0.0201
2331.00,0.0201
2330.00,0.0202
2329.00,0.0204
2328.00,0.0207
2327.00,0.0209
2326.00,0.0210
2325.00,0.0210
2324.00,0.0209
2323.00,0.0208
2322.00,0.0207
2321.00,0.0206
2320.00,0.0206
2319.00,0.0206
2318.00,0.0206
2317.00,0.0206
2316.00,0.0206
2315.00,0.0205
2314.00,0.0205
2313.00,0.0204
2312.00,0.0204
2311.00,0.0205
2310.00,0.0205
2309.00,0.0206
2308.00,0.0206
2307.00,0.0207
2306.00,0.0208
2305.00,0.0208
2304.00,0.0209
2303.00,0.0209
2302.00,0.0210
2301.00,0.0210
2300.00,0.0211
2299.00,0.0212
2298.00,0.0213
2297.00,0.0214
2296.00,0.0214
2295.00,0.0215
2294.00,0.0215
2293.00,0.0215
2292.00,0.0216
2291.00,0.0216
2290.00,0.0217
2289.00,0.0218
2288.00,0.0218
2287.00,0.0218
2286.00,0.0218
2285.00,0.0217
2284.00,0.0217
2283.00,0.0216
2282.00,0.0215
2281.00,0.0213
2280.00,0.0213
2279.00,0.0212
2278.00,0.0211
2277.00,0.0210
2276.00,0.0210
2275.00,0.0209
2274.00,0.0208
2273.00,0.0207
2272.00,0.0207
2271.00,0.0206
2270.00,0.0206
2269.00,0.0205
2268.00,0.0203
2267.00,0.0202
2266.00,0.0200
2265.00,0.0199
2264.00,0.0198
2263.00,0.0197
2262.00,0.0196
2261.00,0.0195
2260.00,0.0195
2259.00,0.0194
2258.00,0.0193
2257.00,0.0192
2256.00,0.0190
2255.00,0.0189
2254.00,0.0188
2253.00,0.0188
2252.00,0.0188
2251.00,0.0188
2250.00,0.0188
2249.00,0.0187
2248.00,0.0187
2247.00,0.0187
2246.00,0.0187
2245.00,0.0187
2244.00,0.0186
2243.00,0.0185
2242.00,0.0184
2241.00,0.0183
2240.00,0.0184
2239.00,0.0184
2238.00,0.0183
2237.00,0.0183
2236.00,0.0182
2235.00,0.0182
2234.00,0.0181
2233.00,0.0180
2232.00,0.0180
2231.00,0.0181
2230.00,0.0182
2229.00,0.0182
2228.00,0.0183
2227.00,0.0182
2226.00,0.0182
2225.00,0.0182
2224.00,0.0182
2223.00,0.0182
2222.00,0.0181
2221.00,0.0181
2220.00,0.0180
2219.00,0.0180
2218.00,0.0180
2217.00,0.0181
2216.00,0.0182
2215.00,0.0182
2214.00,0.0182
2213.00,0.0183
2212.00,0.0183
2211.00,0.0183
2210.00,0.0183
2209.00,0.0183
2208.00,0.0183
2207.00,0.0184
2206.00,0.0183
2205.00,0.0182
2204.00,0.0181
2203.00,0.0179
2202.00,0.0176
2201.00,0.0175
2200.00,0.0174
2199.00,0.0174
2198.00,0.0174
2197.00,0.0175
2196.00,0.0175
2195.00,0.0174
2194.00,0.0173
2193.00,0.0172
2192.00,0.0172
2191.00,0.0172
2190.00,0.0171
2189.00,0.0170
2188.00,0.0170
2187.00,0.0168
2186.00,0.0165
2185.00,0.0162
2184.00,0.0158
2183.00,0.0156
2182.00,0.0154
2181.00,0.0153
2180.00,0.0155
2179.00,0.0155
2178.00,0.0154
2177.00,0.0152
2176.00,0.0152
2175.00,0.0152
2174.00,0.0151
2173.00,0.0151
2172.00,0.0151
2171.00,0.0151
2170.00,0.0151
2169.00,0.0150
2168.00,0.0151
2167.00,0.0152
2166.00,0.0152
2165.00,0.0152
2164.00,0.0151
2163.00,0.0148
2162.00,0.0142
2161.00,0.0132
2160.00,0.0122
2159.00,0.0115
2158.00,0.0114
2157.00,0.0118
2156.00,0.0124
2155.00,0.0128
2154.00,0.0130
2153.00,0.0132
2152.00,0.0133
2151.00,0.0134
2150.00,0.0134
2149.00,0.0134
2148.00,0.0134
2147.00,0.0134
2146.00,0.0134
2145.00,0.0135
2144.00,0.0137
2143.00,0.0138
2142.00,0.0138
2141.00,0.0138
2140.00,0.0138
2139.00,0.0138
2138.00,0.0137
2137.00,0.0136
2136.00,0.0135
2135.00,0.0136
2134.00,0.0137
2133.00,0.0140
2132.00,0.0142
2131.00,0.0144
2130.00,0.0144
2129.00,0.0145
2128.00,0.0146
2127.00,0.0146
2126.00,0.0147
2125.00,0.0147
2124.00,0.0148
2123.00,0.0148
2122.00,0.0148
2121.00,0.0148
2120.00,0.0148
2119.00,0.0149
2118.00,0.0150
2117.00,0.0150
2116.00,0.0151
2115.00,0.0152
2114.00,0.0152
2113.00,0.0152
2112.00,0.0152
2111.00,0.0152
2110.00,0.0152
2109.00,0.0152
2108.00,0.0152
2107.00,0.0152
2106.00,0.0152
2105.00,0.0151
2104.00,0.0151
2103.00,0.0150
2102.00,0.0150
2101.00,0.0150
2100.00,0.0150
2099.00,0.0150
2098.00,0.0148
2097.00,0.0147
2096.00,0.0146
2095.00,0.0145
2094.00,0.0145
2093.00,0.0146
2092.00,0.0147
2091.00,0.0148
2090.00,0.0148
2089.00,0.0149
2088.00,0.0149
2087.00,0.0150
2086.00,0.0150
2085.00,0.0151
2084.00,0.0151
2083.00,0.0151
2082.00,0.0151
2081.00,0.0150
2080.00,0.0149
2079.00,0.0147
2078.00,0.0146
2077.00,0.0144
2076.00,0.0144
2075.00,0.0143
2074.00,0.0142
2073.00,0.0142
2072.00,0.0142
2071.00,0.0142
2070.00,0.0142
2069.00,0.0141
2068.00,0.0141
2067.00,0.0141
2066.00,0.0141
2065.00,0.0141
2064.00,0.0141
2063.00,0.0141
2062.00,0.0140
2061.00,0.0140
2060.00,0.0141
2059.00,0.0141
2058.00,0.0141
2057.00,0.0142
2056.00,0.0144
2055.00,0.0146
2054.00,0.0148
2053.00,0.0152
2052.00,0.0153
2051.00,0.0151
2050.00,0.0146
2049.00,0.0142
2048.00,0.0140
2047.00,0.0139
2046.00,0.0138
2045.00,0.0138
2044.00,0.0139
2043.00,0.0139
2042.00,0.0137
2041.00,0.0136
2040.00,0.0135
2039.00,0.0134
2038.00,0.0132
2037.00,0.0130
2036.00,0.0129
2035.00,0.0127
2034.00,0.0124
2033.00,0.0122
2032.00,0.0122
2031.00,0.0123
2030.00,0.0124
2029.00,0.0125
2028.00,0.0126
2027.00,0.0126
2026.00,0.0125
2025.00,0.0125
2024.00,0.0126
2023.00,0.0126
2022.00,0.0125
2021.00,0.0124
2020.00,0.0125
2019.00,0.0126
2018.00,0.0126
2017.00,0.0126
2016.00,0.0127
2015.00,0.0126
2014.00,0.0126
2013.00,0.0126
2012.00,0.0128
2011.00,0.0129
2010.00,0.0128
2009.00,0.0126
2008.00,0.0124
2007.00,0.0122
2006.00,0.0120
2005.00,0.0121
2004.00,0.0123
2003.00,0.0125
2002.00,0.0126
2001.00,0.0125
2000.00,0.0125
1999.00,0.0124
1998.00,0.0123
1997.00,0.0122
1996.00,0.0122
1995.00,0.0122
1994.00,0.0121
1993.00,0.0122
1992.00,0.0123
1991.00,0.0123
1990.00,0.0122
1989.00,0.0121
1988.00,0.0121
1987.00,0.0120
1986.00,0.0119
1985.00,0.0119
1984.00,0.0122
1983.00,0.0124
1982.00,0.0125
1981.00,0.0126
1980.00,0.0124
1979.00,0.0120
1978.00,0.0115
1977.00,0.0112
1976.00,0.0111
1975.00,0.0110
1974.00,0.0109
1973.00,0.0108
1972.00,0.0108
1971.00,0.0108
1970.00,0.0107
1969.00,0.0107
1968.00,0.0110
1967.00,0.0111
1966.00,0.0110
1965.00,0.0110
1964.00,0.0111
1963.00,0.0112
1962.00,0.0113
1961.00,0.0114
1960.00,0.0116
1959.00,0.0118
1958.00,0.0118
1957.00,0.0120
1956.00,0.0123
1955.00,0.0125
1954.00,0.0126
1953.00,0.0128
1952.00,0.0131
1951.00,0.0132
1950.00,0.0133
1949.00,0.0133
1948.00,0.0134
1947.00,0.0134
1946.00,0.0133
1945.00,0.0133
1944.00,0.0134
1943.00,0.0132
1942.00,0.0129
1941.00,0.0127
1940.00,0.0127
1939.00,0.0129
1938.00,0.0129
1937.00,0.0129
1936.00,0.0129
1935.00,0.0127
1934.00,0.0125
1933.00,0.0124
1932.00,0.0123
1931.00,0.0123
1930.00,0.0122
1929.00,0.0121
1928.00,0.0121
1927.00,0.0121
1926.00,0.0121
1925.00,0.0121
1924.00,0.0122
1923.00,0.0121
1922.00,0.0119
1921.00,0.0120
1920.00,0.0121
1919.00,0.0122
1918.00,0.0121
1917.00,0.0119
1916.00,0.0119
1915.00,0.0120
1914.00,0.0121
1913.00,0.0121
1912.00,0.0123
1911.00,0.0123
1910.00,0.0123
1909.00,0.0122
1908.00,0.0122
1907.00,0.0122
1906.00,0.0122
1905.00,0.0123
1904.00,0.0124
1903.00,0.0125
1902.00,0.0126
1901.00,0.0127
1900.00,0.0127
1899.00,0.0128
1898.00,0.0128
1897.00,0.0128
1896.00,0.0129
1895.00,0.0129
1894.00,0.0128
1893.00,0.0128
1892.00,0.0128
1891.00,0.0127
1890.00,0.0125
1889.00,0.0123
1888.00,0.0122
1887.00,0.0122
1886.00,0.0122
1885.00,0.0121
1884.00,0.0119
1883.00,0.0118
1882.00,0.0116
1881.00,0.0115
1880.00,0.0113
1879.00,0.0112
1878.00,0.0111
1877.00,0.0109
1876.00,0.0108
1875.00,0.0107
1874.00,0.0106
1873.00,0.0106
1872.00,0.0106
1871.00,0.0106
1870.00,0.0105
1869.00,0.0104
1868.00,0.0102
1867.00,0.0100
1866.00,0.0098
1865.00,0.0097
1864.00,0.0096
1863.00,0.0095
1862.00,0.0094
1861.00,0.0093
1860.00,0.0093
1859.00,0.0093
1858.00,0.0093
1857.00,0.0093
1856.00,0.0094
1855.00,0.0094
1854.00,0.0094
1853.00,0.0094
1852.00,0.0095
1851.00,0.0096
1850.00,0.0096
1849.00,0.0096
1848.00,0.0097
1847.00,0.0098
1846.00,0.0098
1845.00,0.0097
1844.00,0.0095
1843.00,0.0094
1842.00,0.0095
1841.00,0.0098
1840.00,0.0101
1839.00,0.0103
1838.00,0.0104
1837.00,0.0105
1836.00,0.0106
1835.00,0.0107
1834.00,0.0109
1833.00,0.0112
1832.00,0.0116
1831.00,0.0119
1830.00,0.0120
1829.00,0.0120
1828.00,0.0121
1827.00,0.0122
1826.00,0.0123
1825.00,0.0122
1824.00,0.0121
1823.00,0.0121
1822.00,0.0122
1821.00,0.0122
1820.00,0.0123
1819.00,0.0122
1818.00,0.0121
1817.00,0.0121
1816.00,0.0121
1815.00,0.0122
1814.00,0.0123
1813.00,0.0125
1812.00,0.0126
1811.00,0.0127
1810.00,0.0126
1809.00,0.0127
1808.00,0.0128
1807.00,0.0131
1806.00,0.0134
1805.00,0.0139
1804.00,0.0144
1803.00,0.0150
1802.00,0.0157
1801.00,0.0167
1800.00,0.0180
1799.00,0.0195
1798.00,0.0212
1797.00,0.0231
1796.00,0.0250
1795.00,0.0269
1794.00,0.0287
1793.00,0.0304
1792.00,0.0319
1791.00,0.0331
1790.00,0.0343
1789.00,0.0359
1788.00,0.0380
1787.00,0.0408
1786.00,0.0444
1785.00,0.0491
1784.00,0.0547
1783.00,0.0611
1782.00,0.0682
1781.00,0.0757
1780.00,0.0832
1779.00,0.0898
1778.00,0.0951
1777.00,0.0985
1776.00,0.0997
1775.00,0.0981
1774.00,0.0934
1773.00,0.0854
1772.00,0.0755
1771.00,0.0662
1770.00,0.0590
1769.00,0.0534
1768.00,0.0490
1767.00,0.0458
1766.00,0.0439
1765.00,0.0428
1764.00,0.0422
1763.00,0.0416
1762.00,0.0410
1761.00,0.0406
1760.00,0.0407
1759.00,0.0411
1758.00,0.0417
1757.00,0.0424
1756.00,0.0433
1755.00,0.0445
1754.00,0.0461
1753.00,0.0481
1752.00,0.0506
1751.00,0.0540
1750.00,0.0582
1749.00,0.0635
1748.00,0.0698
1747.00,0.0771
1746.00,0.0855
1745.00,0.0951
1744.00,0.1057
1743.00,0.1170
1742.00,0.1287
1741.00,0.1410
1740.00,0.1542
1739.00,0.1672
1738.00,0.1785
1737.00,0.1881
1736.00,0.1979
1735.00,0.2098
1734.00,0.2239
1733.00,0.2372
1732.00,0.2483
1731.00,0.2585
1730.00,0.2690
1729.00,0.2799
1728.00,0.2909
1727.00,0.3018
1726.00,0.3130
1725.00,0.3246
1724.00,0.3366
1723.00,0.3485
1722.00,0.3599
1721.00,0.3703
1720.00,0.3806
1719.00,0.3918
1718.00,0.4043
1717.00,0.4157
1716.00,0.4242
1715.00,0.4304
1714.00,0.4350
1713.00,0.4376
1712.00,0.4377
1711.00,0.4361
1710.00,0.4327
1709.00,0.4275
1708.00,0.4203
1707.00,0.4116
1706.00,0.4015
1705.00,0.3902
1704.00,0.3789
1703.00,0.3686
1702.00,0.3585
1701.00,0.3466
1700.00,0.3333
1699.00,0.3215
1698.00,0.3122
1697.00,0.3031
1696.00,0.2926
1695.00,0.2819
1694.00,0.2730
1693.00,0.2654
1692.00,0.2581
1691.00,0.2506
1690.00,0.2432
1689.00,0.2359
1688.00,0.2291
1687.00,0.2227
1686.00,0.2166
1685.00,0.2103
1684.00,0.2036
1683.00,0.1975
1682.00,0.1923
1681.00,0.1875
1680.00,0.1827
1679.00,0.1781
1678.00,0.1739
1677.00,0.1698
1676.00,0.1658
1675.00,0.1620
1674.00,0.1587
1673.00,0.1558
1672.00,0.1530
1671.00,0.1503
1670.00,0.1477
1669.00,0.1450
1668.00,0.1423
1667.00,0.1400
1666.00,0.1379
1665.00,0.1359
1664.00,0.1339
1663.00,0.1320
1662.00,0.1302
1661.00,0.1284
1660.00,0.1267
1659.00,0.1251
1658.00,0.1235
1657.00,0.1218
1656.00,0.1199
1655.00,0.1180
1654.00,0.1165
1653.00,0.1150
1652.00,0.1136
1651.00,0.1128
1650.00,0.1124
1649.00,0.1116
1648.00,0.1103
1647.00,0.1087
1646.00,0.1068
1645.00,0.1050
1644.00,0.1034
1643.00,0.1020
1642.00,0.1008
1641.00,0.0994
1640.00,0.0982
1639.00,0.0971
1638.00,0.0961
1637.00,0.0952
1636.00,0.0943
1635.00,0.0935
1634.00,0.0927
1633.00,0.0922
1632.00,0.0918
1631.00,0.0914
1630.00,0.0912
1629.00,0.0910
1628.00,0.0910
1627.00,0.0909
1626.00,0.0909
1625.00,0.0909
1624.00,0.0910
1623.00,0.0911
1622.00,0.0911
1621.00,0.0909
1620.00,0.0907
1619.00,0.0905
1618.00,0.0903
1617.00,0.0903
1616.00,0.0903
1615.00,0.0902
1614.00,0.0903
1613.00,0.0902
1612.00,0.0902
1611.00,0.0903
1610.00,0.0905
1609.00,0.0907
1608.00,0.0909
1607.00,0.0912
1606.00,0.0916
1605.00,0.0922
1604.00,0.0929
1603.00,0.0939
1602.00,0.0951
1601.00,0.0963
1600.00,0.0975
1599.00,0.0986
1598.00,0.0993
1597.00,0.0994
1596.00,0.0989
1595.00,0.0978
1594.00,0.0961
1593.00,0.0940
1592.00,0.0916
1591.00,0.0890
1590.00,0.0864
1589.00,0.0837
1588.00,0.0809
1587.00,0.0782
1586.00,0.0755
1585.00,0.0729
1584.00,0.0705
1583.00,0.0682
1582.00,0.0661
1581.00,0.0642
1580.00,0.0624
1579.00,0.0609
1578.00,0.0594
1577.00,0.0578
1576.00,0.0561
1575.00,0.0546
1574.00,0.0537
1573.00,0.0530
1572.00,0.0524
1571.00,0.0517
1570.00,0.0510
1569.00,0.0502
1568.00,0.0494
1567.00,0.0489
1566.00,0.0486
1565.00,0.0483
1564.00,0.0480
1563.00,0.0477
1562.00,0.0475
1561.00,0.0475
1560.00,0.0481
1559.00,0.0492
1558.00,0.0498
1557.00,0.0503
1556.00,0.0508
1555.00,0.0509
1554.00,0.0507
1553.00,0.0502
1552.00,0.0497
1551.00,0.0489
1550.00,0.0478
1549.00,0.0468
1548.00,0.0460
1547.00,0.0456
1546.00,0.0452
1545.00,0.0449
1544.00,0.0445
1543.00,0.0443
1542.00,0.0443
1541.00,0.0444
1540.00,0.0441
1539.00,0.0436
1538.00,0.0435
1537.00,0.0441
1536.00,0.0449
1535.00,0.0457
1534.00,0.0465
1533.00,0.0474
1532.00,0.0483
1531.00,0.0495
1530.00,0.0512
1529.00,0.0533
1528.00,0.0559
1527.00,0.0591
1526.00,0.0632
1525.00,0.0681
1524.00,0.0737
1523.00,0.0805
1522.00,0.0895
1521.00,0.1000
1520.00,0.1102
1519.00,0.1199
1518.00,0.1304
1517.00,0.1421
1516.00,0.1536
1515.00,0.1635
1514.00,0.1715
1513.00,0.1776
1512.00,0.1813
1511.00,0.1826
1510.00,0.1826
1509.00,0.1829
1508.00,0.1870
1507.00,0.2001
1506.00,0.2233
1505.00,0.2502
1504.00,0.2764
1503.00,0.3022
1502.00,0.3288
1501.00,0.3552
1500.00,0.3787
1499.00,0.3976
1498.00,0.4104
1497.00,0.4146
1496.00,0.4084
1495.00,0.3946
1494.00,0.3767
1493.00,0.3552
1492.00,0.3295
1491.00,0.3003
1490.00,0.2704
1489.00,0.2428
1488.00,0.2192
1487.00,0.1994
1486.00,0.1830
1485.00,0.1694
1484.00,0.1577
1483.00,0.1477
1482.00,0.1390
1481.00,0.1315
1480.00,0.1251
1479.00,0.1199
1478.00,0.1157
1477.00,0.1122
1476.00,0.1092
1475.00,0.1069
1474.00,0.1054
1473.00,0.1044
1472.00,0.1038
1471.00,0.1034
1470.00,0.1032
1469.00,0.1032
1468.00,0.1030
1467.00,0.1025
1466.00,0.1020
1465.00,0.1016
1464.00,0.1013
1463.00,0.1015
1462.00,0.1025
1461.00,0.1044
1460.00,0.1073
1459.00,0.1116
1458.00,0.1182
1457.00,0.1260
1456.00,0.1320
1455.00,0.1341
1454.00,0.1325
1453.00,0.1273
1452.00,0.1194
1451.00,0.1102
1450.00,0.1011
1449.00,0.0926
1448.00,0.0850
1447.00,0.0787
1446.00,0.0739
1445.00,0.0703
1444.00,0.0676
1443.00,0.0657
1442.00,0.0643
1441.00,0.0634
1440.00,0.0625
1439.00,0.0615
1438.00,0.0601
1437.00,0.0582
1436.00,0.0561
1435.00,0.0548
1434.00,0.0541
1433.00,0.0539
1432.00,0.0539
1431.00,0.0542
1430.00,0.0549
1429.00,0.0557
1428.00,0.0564
1427.00,0.0572
1426.00,0.0578
1425.00,0.0582
1424.00,0.0584
1423.00,0.0584
1422.00,0.0583
1421.00,0.0581
1420.00,0.0577
1419.00,0.0573
1418.00,0.0567
1417.00,0.0562
1416.00,0.0558
1415.00,0.0554
1414.00,0.0549
1413.00,0.0544
1412.00,0.0541
1411.00,0.0540
1410.00,0.0541
1409.00,0.0545
1408.00,0.0551
1407.00,0.0561
1406.00,0.0573
1405.00,0.0588
1404.00,0.0606
1403.00,0.0627
1402.00,0.0652
1401.00,0.0680
1400.00,0.0713
1399.00,0.0751
1398.00,0.0792
1397.00,0.0836
1396.00,0.0885
1395.00,0.0944
1394.00,0.1009
1393.00,0.1080
1392.00,0.1156
1391.00,0.1236
1390.00,0.1324
1389.00,0.1423
1388.00,0.1536
1387.00,0.1662
1386.00,0.1793
1385.00,0.1925
1384.00,0.2060
1383.00,0.2199
1382.00,0.2339
1381.00,0.2477
1380.00,0.2608
1379.00,0.2731
1378.00,0.2840
1377.00,0.2934
1376.00,0.3017
1375.00,0.3087
1374.00,0.3143
1373.00,0.3186
1372.00,0.3219
1371.00,0.3244
1370.00,0.3264
1369.00,0.3283
1368.00,0.3302
1367.00,0.3322
1366.00,0.3341
1365.00,0.3361
1364.00,0.3385
1363.00,0.3410
1362.00,0.3434
1361.00,0.3457
1360.00,0.3481
1359.00,0.3503
1358.00,0.3523
1357.00,0.3541
1356.00,0.3557
1355.00,0.3569
1354.00,0.3576
1353.00,0.3579
1352.00,0.3578
1351.00,0.3570
1350.00,0.3555
1349.00,0.3533
1348.00,0.3504
1347.00,0.3467
1346.00,0.3421
1345.00,0.3367
1344.00,0.3307
1343.00,0.3238
1342.00,0.3162
1341.00,0.3078
1340.00,0.2986
1339.00,0.2886
1338.00,0.2783
1337.00,0.2679
1336.00,0.2576
1335.00,0.2474
1334.00,0.2374
1333.00,0.2276
1332.00,0.2183
1331.00,0.2094
1330.00,0.2012
1329.00,0.1936
1328.00,0.1868
1327.00,0.1806
1326.00,0.1749
1325.00,0.1698
1324.00,0.1652
1323.00,0.1611
1322.00,0.1574
1321.00,0.1542
1320.00,0.1514
1319.00,0.1491
1318.00,0.1472
1317.00,0.1460
1316.00,0.1452
1315.00,0.1450
1314.00,0.1452
1313.00,0.1460
1312.00,0.1471
1311.00,0.1484
1310.00,0.1499
1309.00,0.1510
1308.00,0.1517
1307.00,0.1515
1306.00,0.1504
1305.00,0.1484
1304.00,0.1458
1303.00,0.1429
1302.00,0.1402
1301.00,0.1382
1300.00,0.1371
1299.00,0.1371
1298.00,0.1381
1297.00,0.1399
1296.00,0.1420
1295.00,0.1443
1294.00,0.1464
1293.00,0.1481
1292.00,0.1493
1291.00,0.1499
1290.00,0.1498
1289.00,0.1489
1288.00,0.1473
1287.00,0.1447
1286.00,0.1413
1285.00,0.1371
1284.00,0.1322
1283.00,0.1269
1282.00,0.1214
1281.00,0.1161
1280.00,0.1112
1279.00,0.1068
1278.00,0.1031
1277.00,0.1001
1276.00,0.0977
1275.00,0.0959
1274.00,0.0946
1273.00,0.0938
1272.00,0.0933
1271.00,0.0932
1270.00,0.0933
1269.00,0.0938
1268.00,0.0947
1267.00,0.0962
1266.00,0.0982
1265.00,0.1009
1264.00,0.1046
1263.00,0.1094
1262.00,0.1154
1261.00,0.1228
1260.00,0.1317
1259.00,0.1419
1258.00,0.1535
1257.00,0.1661
1256.00,0.1797
1255.00,0.1939
1254.00,0.2086
1253.00,0.2234
1252.00,0.2383
1251.00,0.2530
1250.00,0.2674
1249.00,0.2812
1248.00,0.2944
1247.00,0.3069
1246.00,0.3185
1245.00,0.3293
1244.00,0.3392
1243.00,0.3480
1242.00,0.3558
1241.00,0.3627
1240.00,0.3687
1239.00,0.3736
1238.00,0.3774
1237.00,0.3803
1236.00,0.3823
1235.00,0.3832
1234.00,0.3829
1233.00,0.3818
1232.00,0.3799
1231.00,0.3769
1230.00,0.3731
1229.00,0.3685
1228.00,0.3633
1227.00,0.3574
1226.00,0.3507
1225.00,0.3435
1224.00,0.3357
1223.00,0.3275
1222.00,0.3187
1221.00,0.3097
1220.00,0.3004
1219.00,0.2908
1218.00,0.2811
1217.00,0.2714
1216.00,0.2618
1215.00,0.2523
1214.00,0.2431
1213.00,0.2345
1212.00,0.2266
1211.00,0.2196
1210.00,0.2135
1209.00,0.2084
1208.00,0.2042
1207.00,0.2007
1206.00,0.1976
1205.00,0.1948
1204.00,0.1921
1203.00,0.1892
1202.00,0.1861
1201.00,0.1829
1200.00,0.1795
1199.00,0.1763
1198.00,0.1733
1197.00,0.1709
1196.00,0.1693
1195.00,0.1688
1194.00,0.1694
1193.00,0.1711
1192.00,0.1737
1191.00,0.1768
1190.00,0.1800
1189.00,0.1828
1188.00,0.1847
1187.00,0.1855
1186.00,0.1849
1185.00,0.1830
1184.00,0.1800
1183.00,0.1765
1182.00,0.1731
1181.00,0.1704
1180.00,0.1690
1179.00,0.1695
1178.00,0.1722
1177.00,0.1773
1176.00,0.1848
1175.00,0.1943
1174.00,0.2053
1173.00,0.2172
1172.00,0.2292
1171.00,0.2403
1170.00,0.2498
1169.00,0.2569
1168.00,0.2611
1167.00,0.2622
1166.00,0.2602
1165.00,0.2557
1164.00,0.2491
1163.00,0.2407
1162.00,0.2308
1161.00,0.2196
1160.00,0.2073
1159.00,0.1942
1158.00,0.1812
1157.00,0.1689
1156.00,0.1578
1155.00,0.1483
1154.00,0.1404
1153.00,0.1339
1152.00,0.1286
1151.00,0.1242
1150.00,0.1207
1149.00,0.1179
1148.00,0.1158
1147.00,0.1144
1146.00,0.1137
1145.00,0.1137
1144.00,0.1143
1143.00,0.1155
1142.00,0.1174
1141.00,0.1201
1140.00,0.1236
1139.00,0.1281
1138.00,0.1335
1137.00,0.1397
1136.00,0.1466
1135.00,0.1538
1134.00,0.1613
1133.00,0.1689
1132.00,0.1767
1131.00,0.1846
1130.00,0.1926
1129.00,0.2008
1128.00,0.2089
1127.00,0.2170
1126.00,0.2249
1125.00,0.2328
1124.00,0.2406
1123.00,0.2484
1122.00,0.2566
1121.00,0.2655
1120.00,0.2751
1119.00,0.2855
1118.00,0.2964
1117.00,0.3073
1116.00,0.3172
1115.00,0.3252
1114.00,0.3299
1113.00,0.3305
1112.00,0.3267
1111.00,0.3187
1110.00,0.3078
1109.00,0.2957
1108.00,0.2840
1107.00,0.2739
1106.00,0.2661
1105.00,0.2612
1104.00,0.2588
1103.00,0.2589
1102.00,0.2610
1101.00,0.2649
1100.00,0.2703
1099.00,0.2769
1098.00,0.2845
1097.00,0.2929
1096.00,0.3018
1095.00,0.3107
1094.00,0.3194
1093.00,0.3275
1092.00,0.3349
1091.00,0.3412
1090.00,0.3465
1089.00,0.3508
1088.00,0.3539
1087.00,0.3557
1086.00,0.3562
1085.00,0.3554
1084.00,0.3534
1083.00,0.3500
1082.00,0.3455
1081.00,0.3402
1080.00,0.3343
1079.00,0.3281
1078.00,0.3220
1077.00,0.3161
1076.00,0.3105
1075.00,0.3049
1074.00,0.2991
1073.00,0.2931
1072.00,0.2867
1071.00,0.2798
1070.00,0.2723
1069.00,0.2644
1068.00,0.2563
1067.00,0.2481
1066.00,0.2401
1065.00,0.2325
1064.00,0.2256
1063.00,0.2191
1062.00,0.2132
1061.00,0.2080
1060.00,0.2033
1059.00,0.1991
1058.00,0.1954
1057.00,0.1923
1056.00,0.1896
1055.00,0.1873
1054.00,0.1854
1053.00,0.1838
1052.00,0.1823
1051.00,0.1807
1050.00,0.1790
1049.00,0.1770
1048.00,0.1748
1047.00,0.1723
1046.00,0.1696
1045.00,0.1667
1044.00,0.1637
1043.00,0.1607
1042.00,0.1577
1041.00,0.1549
1040.00,0.1522
1039.00,0.1496
1038.00,0.1471
1037.00,0.1446
1036.00,0.1423
1035.00,0.1400
1034.00,0.1377
1033.00,0.1356
1032.00,0.1335
1031.00,0.1314
1030.00,0.1295
1029.00,0.1279
1028.00,0.1265
1027.00,0.1258
1026.00,0.1258
1025.00,0.1268
1024.00,0.1290
1023.00,0.1321
1022.00,0.1359
1021.00,0.1402
1020.00,0.1449
1019.00,0.1502
1018.00,0.1561
1017.00,0.1623
1016.00,0.1680
1015.00,0.1721
1014.00,0.1734
1013.00,0.1713
1012.00,0.1657
1011.00,0.1575
1010.00,0.1483
1009.00,0.1396
1008.00,0.1322
1007.00,0.1263
1006.00,0.1217
1005.00,0.1180
1004.00,0.1149
1003.00,0.1122
1002.00,0.1098
1001.00,0.1078
1000.00,0.1060
999.00,0.1043
998.00,0.1028
997.00,0.1013
996.00,0.1000
995.00,0.0987
994.00,0.0975
993.00,0.0964
992.00,0.0954
991.00,0.0945
990.00,0.0937
989.00,0.0930
988.00,0.0923
987.00,0.0915
986.00,0.0908
985.00,0.0901
984.00,0.0894
983.00,0.0886
982.00,0.0879
981.00,0.0872
980.00,0.0866
979.00,0.0859
978.00,0.0853
977.00,0.0846
976.00,0.0840
975.00,0.0835
974.00,0.0830
973.00,0.0826
972.00,0.0823
971.00,0.0820
970.00,0.0818
969.00,0.0817
968.00,0.0817
967.00,0.0817
966.00,0.0819
965.00,0.0820
964.00,0.0822
963.00,0.0823
962.00,0.0824
961.00,0.0825
960.00,0.0825
959.00,0.0826
958.00,0.0826
957.00,0.0825
956.00,0.0825
955.00,0.0825
954.00,0.0825
953.00,0.0827
952.00,0.0830
951.00,0.0835
950.00,0.0843
949.00,0.0855
948.00,0.0870
947.00,0.0889
946.00,0.0909
945.00,0.0932
944.00,0.0955
943.00,0.0977
942.00,0.0997
941.00,0.1016
940.00,0.1033
939.00,0.1046
938.00,0.1057
937.00,0.1064
936.00,0.1068
935.00,0.1068
934.00,0.1065
933.00,0.1058
932.00,0.1050
931.00,0.1041
930.00,0.1033
929.00,0.1026
928.00,0.1023
927.00,0.1023
926.00,0.1027
925.00,0.1036
924.00,0.1050
923.00,0.1069
922.00,0.1092
921.00,0.1119
920.00,0.1145
919.00,0.1168
918.00,0.1183
917.00,0.1189
916.00,0.1185
915.00,0.1173
914.00,0.1153
913.00,0.1126
912.00,0.1092
911.00,0.1053
910.00,0.1008
909.00,0.0961
908.00,0.0913
907.00,0.0866
906.00,0.0820
905.00,0.0778
904.00,0.0741
903.00,0.0708
902.00,0.0680
901.00,0.0656
900.00,0.0637
899.00,0.0622
898.00,0.0612
897.00,0.0605
896.00,0.0605
895.00,0.0611
894.00,0.0627
893.00,0.0655
892.00,0.0699
891.00,0.0762
890.00,0.0847
889.00,0.0955
888.00,0.1087
887.00,0.1238
886.00,0.1402
885.00,0.1565
884.00,0.1712
883.00,0.1830
882.00,0.1906
881.00,0.1935
880.00,0.1916
879.00,0.1857
878.00,0.1770
877.00,0.1668
876.00,0.1565
875.00,0.1472
874.00,0.1394
873.00,0.1334
872.00,0.1292
871.00,0.1266
870.00,0.1252
869.00,0.1250
868.00,0.1256
867.00,0.1268
866.00,0.1282
865.00,0.1298
864.00,0.1316
863.00,0.1336
862.00,0.1361
861.00,0.1393
860.00,0.1433
859.00,0.1480
858.00,0.1533
857.00,0.1589
856.00,0.1644
855.00,0.1692
854.00,0.1729
853.00,0.1752
852.00,0.1762
851.00,0.1761
850.00,0.1752
849.00,0.1742
848.00,0.1732
847.00,0.1725
846.00,0.1720
845.00,0.1720
844.00,0.1723
843.00,0.1729
842.00,0.1739
841.00,0.1753
840.00,0.1770
839.00,0.1793
838.00,0.1823
837.00,0.1863
836.00,0.1914
835.00,0.1976
834.00,0.2049
833.00,0.2129
832.00,0.2216
831.00,0.2306
830.00,0.2399
829.00,0.2497
828.00,0.2600
827.00,0.2710
826.00,0.2826
825.00,0.2949
824.00,0.3076
823.00,0.3203
822.00,0.3326
821.00,0.3439
820.00,0.3536
819.00,0.3615
818.00,0.3674
817.00,0.3717
816.00,0.3748
815.00,0.3771
814.00,0.3791
813.00,0.3808
812.00,0.3810
811.00,0.3785
810.00,0.3717
809.00,0.3603
808.00,0.3447
807.00,0.3268
806.00,0.3088
805.00,0.2928
804.00,0.2801
803.00,0.2713
802.00,0.2659
801.00,0.2635
800.00,0.2634
799.00,0.2642
798.00,0.2641
797.00,0.2606
796.00,0.2528
795.00,0.2418
794.00,0.2300
793.00,0.2192
792.00,0.2100
791.00,0.2023
790.00,0.1957
789.00,0.1899
788.00,0.1847
787.00,0.1798
786.00,0.1751
785.00,0.1707
784.00,0.1668
783.00,0.1635
782.00,0.1609
781.00,0.1593
780.00,0.1585
779.00,0.1584
778.00,0.1588
777.00,0.1591
776.00,0.1590
775.00,0.1582
774.00,0.1565
773.00,0.1539
772.00,0.1504
771.00,0.1462
770.00,0.1416
769.00,0.1368
768.00,0.1321
767.00,0.1277
766.00,0.1236
765.00,0.1200
764.00,0.1170
763.00,0.1147
762.00,0.1136
761.00,0.1139
760.00,0.1160
759.00,0.1195
758.00,0.1238
757.00,0.1277
756.00,0.1305
755.00,0.1318
754.00,0.1322
753.00,0.1320
752.00,0.1310
751.00,0.1289
750.00,0.1258
749.00,0.1221
748.00,0.1183
747.00,0.1141
746.00,0.1095
745.00,0.1043
744.00,0.0990
743.00,0.0941
742.00,0.0899
741.00,0.0864
740.00,0.0837
739.00,0.0820
738.00,0.0813
737.00,0.0823
736.00,0.0856
735.00,0.0920
734.00,0.1024
733.00,0.1173
732.00,0.1368
731.00,0.1604
730.00,0.1871
729.00,0.2159
728.00,0.2460
727.00,0.2773
726.00,0.3105
725.00,0.3460
724.00,0.3829
723.00,0.4180
722.00,0.4461
721.00,0.4615
720.00,0.4605
719.00,0.4443
718.00,0.4174
717.00,0.3851
716.00,0.3520
715.00,0.3214
714.00,0.2952
713.00,0.2739
712.00,0.2577
711.00,0.2463
710.00,0.2393
709.00,0.2358
708.00,0.2347
707.00,0.2349
706.00,0.2351
705.00,0.2340
704.00,0.2307
703.00,0.2247
702.00,0.2164
701.00,0.2068
700.00,0.1969
699.00,0.1875
698.00,0.1792
697.00,0.1721
696.00,0.1662
695.00,0.1614
694.00,0.1574
693.00,0.1542
692.00,0.1514
691.00,0.1492
690.00,0.1474
689.00,0.1461
688.00,0.1451
687.00,0.1446
686.00,0.1443
685.00,0.1440
684.00,0.1436
683.00,0.1430
682.00,0.1420
681.00,0.1405
680.00,0.1386
679.00,0.1364
678.00,0.1341
677.00,0.1320
676.00,0.1300
675.00,0.1282
674.00,0.1266
673.00,0.1250
672.00,0.1235
671.00,0.1218
670.00,0.1202
669.00,0.1193
668.00,0.1192
667.00,0.1194
666.00,0.1193
665.00,0.1188
664.00,0.1183
663.00,0.1180
662.00,0.1178
661.00,0.1178
660.00,0.1177
659.00,0.1177
658.00,0.1178
657.00,0.1179
656.00,0.1182
655.00,0.1187
654.00,0.1195
653.00,0.1207
652.00,0.1223
651.00,0.1243
650.00,0.1268
649.00,0.1296
648.00,0.1328
647.00,0.1363
646.00,0.1399
645.00,0.1434
644.00,0.1464
643.00,0.1485
642.00,0.1496
641.00,0.1502
640.00,0.1513
639.00,0.1536
638.00,0.1572
637.00,0.1613
636.00,0.1649
635.00,0.1666
634.00,0.1657
633.00,0.1621
632.00,0.1566
631.00,0.1501
630.00,0.1437
629.00,0.1381
628.00,0.1338
627.00,0.1308
626.00,0.1286
625.00,0.1270
624.00,0.1257
623.00,0.1243
622.00,0.1229
621.00,0.1212
620.00,0.1194
619.00,0.1175
618.00,0.1159
617.00,0.1149
616.00,0.1150
615.00,0.1166
614.00,0.1203
613.00,0.1262
612.00,0.1347
611.00,0.1459
610.00,0.1599
609.00,0.1768
608.00,0.1966
607.00,0.2182
606.00,0.2392
605.00,0.2557
604.00,0.2634
603.00,0.2598
602.00,0.2459
601.00,0.2259
600.00,0.2047
599.00,0.1859
598.00,0.1710
597.00,0.1600
596.00,0.1519
595.00,0.1458
594.00,0.1411
593.00,0.1371
592.00,0.1338
591.00,0.1309
590.00,0.1283
589.00,0.1260
588.00,0.1237
587.00,0.1215
586.00,0.1195
585.00,0.1176
584.00,0.1161
583.00,0.1148
582.00,0.1140
581.00,0.1138
580.00,0.1143
579.00,0.1158
578.00,0.1183
577.00,0.1219
576.00,0.1265
575.00,0.1320
574.00,0.1384
573.00,0.1463
572.00,0.1561
571.00,0.1677
570.00,0.1798
569.00,0.1901
568.00,0.1965
567.00,0.1975
566.00,0.1936
565.00,0.1863
564.00,0.1776
563.00,0.1688
562.00,0.1609
561.00,0.1543
560.00,0.1488
559.00,0.1445
558.00,0.1409
557.00,0.1379
556.00,0.1352
555.00,0.1327
554.00,0.1304
553.00,0.1282
552.00,0.1261
551.00,0.1240
550.00,0.1219
549.00,0.1200
548.00,0.1181
547.00,0.1162
546.00,0.1142
545.00,0.1121
544.00,0.1099
543.00,0.1076
542.00,0.1052
541.00,0.1028
540.00,0.1007
539.00,0.0992
538.00,0.0986
537.00,0.0992
536.00,0.1014
535.00,0.1059
534.00,0.1135
533.00,0.1246
532.00,0.1387
531.00,0.1550
530.00,0.1716
529.00,0.1869
528.00,0.2003
527.00,0.2118
526.00,0.2223
525.00,0.2329
524.00,0.2444
523.00,0.2569
522.00,0.2704
521.00,0.2842
520.00,0.2976
519.00,0.3093
518.00,0.3181
517.00,0.3237
516.00,0.3261
515.00,0.3257
514.00,0.3234
513.00,0.3200
512.00,0.3159
511.00,0.3110
510.00,0.3049
509.00,0.2975
508.00,0.2886
507.00,0.2781
506.00,0.2662
505.00,0.2541
504.00,0.2425
503.00,0.2323
502.00,0.2243
501.00,0.2189
500.00,0.2154
499.00,0.2125
498.00,0.2089
497.00,0.2040
496.00,0.1982
495.00,0.1921
494.00,0.1864
493.00,0.1815
492.00,0.1776
491.00,0.1745
490.00,0.1720
489.00,0.1700
488.00,0.1684
487.00,0.1672
486.00,0.1663
485.00,0.1656
484.00,0.1649
483.00,0.1643
482.00,0.1637
481.00,0.1631
480.00,0.1627
479.00,0.1624
478.00,0.1620
477.00,0.1618
476.00,0.1618
475.00,0.1623
474.00,0.1632
473.00,0.1643
472.00,0.1653
471.00,0.1661
470.00,0.1667
469.00,0.1673
468.00,0.1682
467.00,0.1692
466.00,0.1704
465.00,0.1716
464.00,0.1726
463.00,0.1735
462.00,0.1742
461.00,0.1751
460.00,0.1763
459.00,0.1777
458.00,0.1793
457.00,0.1809
456.00,0.1824
455.00,0.1835
454.00,0.1844
453.00,0.1855
452.00,0.1870
451.00,0.1886
450.00,0.1902
449.00,0.1915
448.00,0.1926
447.00,0.1936
446.00,0.1944
445.00,0.1952
444.00,0.1960
443.00,0.1970
442.00,0.1979
441.00,0.1988
440.00,0.1998
439.00,0.2012
438.00,0.2031
437.00,0.2057
436.00,0.2089
435.00,0.2126
434.00,0.2167
433.00,0.2215
432.00,0.2270
431.00,0.2327
430.00,0.2381
429.00,0.2431
428.00,0.2472
427.00,0.2494
426.00,0.2492
425.00,0.2467
424.00,0.2426
423.00,0.2374
422.00,0.2319
421.00,0.2265
420.00,0.2211
419.00,0.2155
418.00,0.2104
417.00,0.2069
416.00,0.2045
415.00,0.2021
414.00,0.1993
413.00,0.1968
412.00,0.1946
411.00,0.1928
410.00,0.1913
409.00,0.1902
408.00,0.1892
407.00,0.1880
406.00,0.1867
405.00,0.1860
404.00,0.1857
403.00,0.1857
402.00,0.1856
401.00,0.1858
400.00,0.1867
