Created as New Dataset,Sample 473 By YargerLab Date Saturday, March 01 2025
cm-1,A
4000.00,-0.0122
3999.00,-0.0122
3998.00,-0.0122
3997.00,-0.0122
3996.00,-0.0122
3995.00,-0.0122
3994.00,-0.0122
3993.00,-0.0122
3992.00,-0.0122
3991.00,-0.0122
3990.00,-0.0122
3989.00,-0.0122
3988.00,-0.0122
3987.00,-0.0122
3986.00,-0.0122
3985.00,-0.0122
3984.00,-0.0122
3983.00,-0.0122
3982.00,-0.0122
3981.00,-0.0123
3980.00,-0.0123
3979.00,-0.0123
3978.00,-0.0123
3977.00,-0.0123
3976.00,-0.0122
3975.00,-0.0122
3974.00,-0.0122
3973.00,-0.0123
3972.00,-0.0123
3971.00,-0.0123
3970.00,-0.0123
3969.00,-0.0123
3968.00,-0.0124
3967.00,-0.0124
3966.00,-0.0124
3965.00,-0.0124
3964.00,-0.0124
3963.00,-0.0124
3962.00,-0.0123
3961.00,-0.0123
3960.00,-0.0123
3959.00,-0.0123
3958.00,-0.0123
3957.00,-0.0124
3956.00,-0.0124
3955.00,-0.0124
3954.00,-0.0124
3953.00,-0.0123
3952.00,-0.0123
3951.00,-0.0123
3950.00,-0.0123
3949.00,-0.0123
3948.00,-0.0123
3947.00,-0.0123
3946.00,-0.0123
3945.00,-0.0123
3944.00,-0.0123
3943.00,-0.0123
3942.00,-0.0123
3941.00,-0.0123
3940.00,-0.0124
3939.00,-0.0124
3938.00,-0.0124
3937.00,-0.0125
3936.00,-0.0125
3935.00,-0.0125
3934.00,-0.0125
3933.00,-0.0124
3932.00,-0.0124
3931.00,-0.0124
3930.00,-0.0124
3929.00,-0.0124
3928.00,-0.0124
3927.00,-0.0125
3926.00,-0.0125
3925.00,-0.0125
3924.00,-0.0125
3923.00,-0.0125
3922.00,-0.0125
3921.00,-0.0125
3920.00,-0.0125
3919.00,-0.0126
3918.00,-0.0126
3917.00,-0.0125
3916.00,-0.0125
3915.00,-0.0125
3914.00,-0.0125
3913.00,-0.0125
3912.00,-0.0125
3911.00,-0.0125
3910.00,-0.0126
3909.00,-0.0126
3908.00,-0.0126
3907.00,-0.0126
3906.00,-0.0126
3905.00,-0.0127
3904.00,-0.0127
3903.00,-0.0127
3902.00,-0.0127
3901.00,-0.0127
3900.00,-0.0127
3899.00,-0.0127
3898.00,-0.0127
3897.00,-0.0127
3896.00,-0.0127
3895.00,-0.0127
3894.00,-0.0127
3893.00,-0.0127
3892.00,-0.0127
3891.00,-0.0127
3890.00,-0.0127
3889.00,-0.0127
3888.00,-0.0127
3887.00,-0.0127
3886.00,-0.0127
3885.00,-0.0127
3884.00,-0.0127
3883.00,-0.0127
3882.00,-0.0127
3881.00,-0.0127
3880.00,-0.0127
3879.00,-0.0127
3878.00,-0.0127
3877.00,-0.0127
3876.00,-0.0127
3875.00,-0.0127
3874.00,-0.0128
3873.00,-0.0128
3872.00,-0.0128
3871.00,-0.0128
3870.00,-0.0128
3869.00,-0.0129
3868.00,-0.0129
3867.00,-0.0129
3866.00,-0.0128
3865.00,-0.0128
3864.00,-0.0128
3863.00,-0.0128
3862.00,-0.0128
3861.00,-0.0129
3860.00,-0.0129
3859.00,-0.0129
3858.00,-0.0129
3857.00,-0.0129
3856.00,-0.0129
3855.00,-0.0129
3854.00,-0.0129
3853.00,-0.0129
3852.00,-0.0129
3851.00,-0.0129
3850.00,-0.0129
3849.00,-0.0129
3848.00,-0.0129
3847.00,-0.0129
3846.00,-0.0129
3845.00,-0.0129
3844.00,-0.0129
3843.00,-0.0129
3842.00,-0.0129
3841.00,-0.0130
3840.00,-0.0130
3839.00,-0.0130
3838.00,-0.0130
3837.00,-0.0130
3836.00,-0.0130
3835.00,-0.0130
3834.00,-0.0130
3833.00,-0.0130
3832.00,-0.0130
3831.00,-0.0130
3830.00,-0.0130
3829.00,-0.0130
3828.00,-0.0130
3827.00,-0.0130
3826.00,-0.0130
3825.00,-0.0130
3824.00,-0.0130
3823.00,-0.0130
3822.00,-0.0130
3821.00,-0.0130
3820.00,-0.0130
3819.00,-0.0130
3818.00,-0.0130
3817.00,-0.0130
3816.00,-0.0130
3815.00,-0.0130
3814.00,-0.0130
3813.00,-0.0130
3812.00,-0.0130
3811.00,-0.0131
3810.00,-0.0131
3809.00,-0.0131
3808.00,-0.0131
3807.00,-0.0131
3806.00,-0.0131
3805.00,-0.0131
3804.00,-0.0131
3803.00,-0.0131
3802.00,-0.0132
3801.00,-0.0131
3800.00,-0.0131
3799.00,-0.0131
3798.00,-0.0131
3797.00,-0.0131
3796.00,-0.0131
3795.00,-0.0131
3794.00,-0.0131
3793.00,-0.0131
3792.00,-0.0132
3791.00,-0.0131
3790.00,-0.0131
3789.00,-0.0131
3788.00,-0.0131
3787.00,-0.0131
3786.00,-0.0131
3785.00,-0.0131
3784.00,-0.0131
3783.00,-0.0131
3782.00,-0.0131
3781.00,-0.0131
3780.00,-0.0131
3779.00,-0.0131
3778.00,-0.0132
3777.00,-0.0132
3776.00,-0.0132
3775.00,-0.0132
3774.00,-0.0132
3773.00,-0.0132
3772.00,-0.0132
3771.00,-0.0132
3770.00,-0.0132
3769.00,-0.0132
3768.00,-0.0132
3767.00,-0.0131
3766.00,-0.0131
3765.00,-0.0131
3764.00,-0.0132
3763.00,-0.0132
3762.00,-0.0132
3761.00,-0.0132
3760.00,-0.0132
3759.00,-0.0133
3758.00,-0.0133
3757.00,-0.0133
3756.00,-0.0133
3755.00,-0.0133
3754.00,-0.0133
3753.00,-0.0133
3752.00,-0.0134
3751.00,-0.0134
3750.00,-0.0134
3749.00,-0.0134
3748.00,-0.0134
3747.00,-0.0134
3746.00,-0.0133
3745.00,-0.0134
3744.00,-0.0134
3743.00,-0.0134
3742.00,-0.0133
3741.00,-0.0134
3740.00,-0.0134
3739.00,-0.0134
3738.00,-0.0134
3737.00,-0.0134
3736.00,-0.0134
3735.00,-0.0134
3734.00,-0.0133
3733.00,-0.0133
3732.00,-0.0133
3731.00,-0.0134
3730.00,-0.0134
3729.00,-0.0134
3728.00,-0.0134
3727.00,-0.0134
3726.00,-0.0134
3725.00,-0.0134
3724.00,-0.0134
3723.00,-0.0134
3722.00,-0.0134
3721.00,-0.0134
3720.00,-0.0134
3719.00,-0.0134
3718.00,-0.0134
3717.00,-0.0134
3716.00,-0.0134
3715.00,-0.0134
3714.00,-0.0134
3713.00,-0.0134
3712.00,-0.0134
3711.00,-0.0134
3710.00,-0.0134
3709.00,-0.0134
3708.00,-0.0133
3707.00,-0.0133
3706.00,-0.0132
3705.00,-0.0132
3704.00,-0.0132
3703.00,-0.0133
3702.00,-0.0133
3701.00,-0.0133
3700.00,-0.0134
3699.00,-0.0134
3698.00,-0.0134
3697.00,-0.0134
3696.00,-0.0134
3695.00,-0.0135
3694.00,-0.0135
3693.00,-0.0135
3692.00,-0.0135
3691.00,-0.0135
3690.00,-0.0135
3689.00,-0.0135
3688.00,-0.0136
3687.00,-0.0136
3686.00,-0.0136
3685.00,-0.0136
3684.00,-0.0137
3683.00,-0.0137
3682.00,-0.0138
3681.00,-0.0138
3680.00,-0.0139
3679.00,-0.0140
3678.00,-0.0141
3677.00,-0.0141
3676.00,-0.0142
3675.00,-0.0142
3674.00,-0.0143
3673.00,-0.0143
3672.00,-0.0144
3671.00,-0.0144
3670.00,-0.0143
3669.00,-0.0143
3668.00,-0.0142
3667.00,-0.0142
3666.00,-0.0142
3665.00,-0.0142
3664.00,-0.0142
3663.00,-0.0142
3662.00,-0.0142
3661.00,-0.0142
3660.00,-0.0143
3659.00,-0.0143
3658.00,-0.0143
3657.00,-0.0143
3656.00,-0.0143
3655.00,-0.0143
3654.00,-0.0143
3653.00,-0.0143
3652.00,-0.0143
3651.00,-0.0143
3650.00,-0.0143
3649.00,-0.0143
3648.00,-0.0143
3647.00,-0.0142
3646.00,-0.0142
3645.00,-0.0141
3644.00,-0.0141
3643.00,-0.0140
3642.00,-0.0140
3641.00,-0.0140
3640.00,-0.0139
3639.00,-0.0139
3638.00,-0.0139
3637.00,-0.0139
3636.00,-0.0138
3635.00,-0.0138
3634.00,-0.0137
3633.00,-0.0136
3632.00,-0.0135
3631.00,-0.0135
3630.00,-0.0135
3629.00,-0.0135
3628.00,-0.0134
3627.00,-0.0134
3626.00,-0.0134
3625.00,-0.0134
3624.00,-0.0133
3623.00,-0.0133
3622.00,-0.0133
3621.00,-0.0132
3620.00,-0.0132
3619.00,-0.0132
3618.00,-0.0132
3617.00,-0.0132
3616.00,-0.0133
3615.00,-0.0133
3614.00,-0.0133
3613.00,-0.0133
3612.00,-0.0133
3611.00,-0.0133
3610.00,-0.0134
3609.00,-0.0134
3608.00,-0.0133
3607.00,-0.0133
3606.00,-0.0132
3605.00,-0.0132
3604.00,-0.0131
3603.00,-0.0131
3602.00,-0.0131
3601.00,-0.0131
3600.00,-0.0131
3599.00,-0.0131
3598.00,-0.0131
3597.00,-0.0131
3596.00,-0.0131
3595.00,-0.0130
3594.00,-0.0130
3593.00,-0.0130
3592.00,-0.0130
3591.00,-0.0130
3590.00,-0.0130
3589.00,-0.0130
3588.00,-0.0129
3587.00,-0.0129
3586.00,-0.0129
3585.00,-0.0129
3584.00,-0.0130
3583.00,-0.0130
3582.00,-0.0130
3581.00,-0.0130
3580.00,-0.0130
3579.00,-0.0130
3578.00,-0.0130
3577.00,-0.0130
3576.00,-0.0129
3575.00,-0.0129
3574.00,-0.0129
3573.00,-0.0129
3572.00,-0.0129
3571.00,-0.0129
3570.00,-0.0129
3569.00,-0.0130
3568.00,-0.0130
3567.00,-0.0130
3566.00,-0.0129
3565.00,-0.0129
3564.00,-0.0129
3563.00,-0.0128
3562.00,-0.0128
3561.00,-0.0128
3560.00,-0.0128
3559.00,-0.0128
3558.00,-0.0129
3557.00,-0.0129
3556.00,-0.0129
3555.00,-0.0129
3554.00,-0.0128
3553.00,-0.0128
3552.00,-0.0128
3551.00,-0.0127
3550.00,-0.0128
3549.00,-0.0128
3548.00,-0.0128
3547.00,-0.0128
3546.00,-0.0128
3545.00,-0.0127
3544.00,-0.0127
3543.00,-0.0127
3542.00,-0.0127
3541.00,-0.0127
3540.00,-0.0128
3539.00,-0.0128
3538.00,-0.0128
3537.00,-0.0128
3536.00,-0.0128
3535.00,-0.0128
3534.00,-0.0128
3533.00,-0.0128
3532.00,-0.0127
3531.00,-0.0127
3530.00,-0.0127
3529.00,-0.0127
3528.00,-0.0127
3527.00,-0.0127
3526.00,-0.0126
3525.00,-0.0126
3524.00,-0.0126
3523.00,-0.0126
3522.00,-0.0126
3521.00,-0.0126
3520.00,-0.0126
3519.00,-0.0126
3518.00,-0.0126
3517.00,-0.0126
3516.00,-0.0126
3515.00,-0.0125
3514.00,-0.0125
3513.00,-0.0125
3512.00,-0.0125
3511.00,-0.0125
3510.00,-0.0125
3509.00,-0.0125
3508.00,-0.0125
3507.00,-0.0125
3506.00,-0.0125
3505.00,-0.0125
3504.00,-0.0125
3503.00,-0.0125
3502.00,-0.0124
3501.00,-0.0124
3500.00,-0.0124
3499.00,-0.0124
3498.00,-0.0124
3497.00,-0.0124
3496.00,-0.0124
3495.00,-0.0124
3494.00,-0.0123
3493.00,-0.0123
3492.00,-0.0123
3491.00,-0.0122
3490.00,-0.0122
3489.00,-0.0122
3488.00,-0.0122
3487.00,-0.0121
3486.00,-0.0122
3485.00,-0.0122
3484.00,-0.0121
3483.00,-0.0121
3482.00,-0.0121
3481.00,-0.0121
3480.00,-0.0121
3479.00,-0.0121
3478.00,-0.0121
3477.00,-0.0121
3476.00,-0.0121
3475.00,-0.0121
3474.00,-0.0120
3473.00,-0.0120
3472.00,-0.0119
3471.00,-0.0119
3470.00,-0.0119
3469.00,-0.0119
3468.00,-0.0119
3467.00,-0.0119
3466.00,-0.0118
3465.00,-0.0118
3464.00,-0.0118
3463.00,-0.0118
3462.00,-0.0117
3461.00,-0.0117
3460.00,-0.0117
3459.00,-0.0117
3458.00,-0.0117
3457.00,-0.0117
3456.00,-0.0116
3455.00,-0.0116
3454.00,-0.0116
3453.00,-0.0116
3452.00,-0.0116
3451.00,-0.0116
3450.00,-0.0116
3449.00,-0.0116
3448.00,-0.0115
3447.00,-0.0115
3446.00,-0.0114
3445.00,-0.0114
3444.00,-0.0114
3443.00,-0.0114
3442.00,-0.0114
3441.00,-0.0113
3440.00,-0.0113
3439.00,-0.0112
3438.00,-0.0111
3437.00,-0.0110
3436.00,-0.0110
3435.00,-0.0110
3434.00,-0.0110
3433.00,-0.0110
3432.00,-0.0110
3431.00,-0.0109
3430.00,-0.0109
3429.00,-0.0109
3428.00,-0.0109
3427.00,-0.0108
3426.00,-0.0107
3425.00,-0.0107
3424.00,-0.0107
3423.00,-0.0107
3422.00,-0.0107
3421.00,-0.0106
3420.00,-0.0106
3419.00,-0.0105
3418.00,-0.0105
3417.00,-0.0104
3416.00,-0.0104
3415.00,-0.0104
3414.00,-0.0103
3413.00,-0.0103
3412.00,-0.0103
3411.00,-0.0103
3410.00,-0.0102
3409.00,-0.0102
3408.00,-0.0101
3407.00,-0.0101
3406.00,-0.0101
3405.00,-0.0101
3404.00,-0.0100
3403.00,-0.0100
3402.00,-0.0099
3401.00,-0.0099
3400.00,-0.0098
3399.00,-0.0098
3398.00,-0.0097
3397.00,-0.0097
3396.00,-0.0097
3395.00,-0.0096
3394.00,-0.0096
3393.00,-0.0095
3392.00,-0.0095
3391.00,-0.0094
3390.00,-0.0094
3389.00,-0.0093
3388.00,-0.0093
3387.00,-0.0093
3386.00,-0.0092
3385.00,-0.0092
3384.00,-0.0091
3383.00,-0.0091
3382.00,-0.0090
3381.00,-0.0090
3380.00,-0.0090
3379.00,-0.0089
3378.00,-0.0089
3377.00,-0.0088
3376.00,-0.0087
3375.00,-0.0087
3374.00,-0.0086
3373.00,-0.0085
3372.00,-0.0085
3371.00,-0.0084
3370.00,-0.0083
3369.00,-0.0083
3368.00,-0.0082
3367.00,-0.0081
3366.00,-0.0080
3365.00,-0.0080
3364.00,-0.0079
3363.00,-0.0078
3362.00,-0.0078
3361.00,-0.0077
3360.00,-0.0076
3359.00,-0.0076
3358.00,-0.0075
3357.00,-0.0074
3356.00,-0.0073
3355.00,-0.0071
3354.00,-0.0071
3353.00,-0.0070
3352.00,-0.0069
3351.00,-0.0067
3350.00,-0.0066
3349.00,-0.0065
3348.00,-0.0064
3347.00,-0.0063
3346.00,-0.0063
3345.00,-0.0062
3344.00,-0.0061
3343.00,-0.0059
3342.00,-0.0058
3341.00,-0.0057
3340.00,-0.0056
3339.00,-0.0054
3338.00,-0.0053
3337.00,-0.0051
3336.00,-0.0050
3335.00,-0.0049
3334.00,-0.0048
3333.00,-0.0046
3332.00,-0.0045
3331.00,-0.0043
3330.00,-0.0041
3329.00,-0.0040
3328.00,-0.0038
3327.00,-0.0037
3326.00,-0.0036
3325.00,-0.0035
3324.00,-0.0033
3323.00,-0.0032
3322.00,-0.0030
3321.00,-0.0028
3320.00,-0.0026
3319.00,-0.0024
3318.00,-0.0023
3317.00,-0.0021
3316.00,-0.0020
3315.00,-0.0018
3314.00,-0.0016
3313.00,-0.0014
3312.00,-0.0012
3311.00,-0.0010
3310.00,-0.0008
3309.00,-0.0006
3308.00,-0.0004
3307.00,-0.0002
3306.00,-0.0000
3305.00,0.0002
3304.00,0.0004
3303.00,0.0006
3302.00,0.0008
3301.00,0.0010
3300.00,0.0012
3299.00,0.0015
3298.00,0.0017
3297.00,0.0019
3296.00,0.0021
3295.00,0.0023
3294.00,0.0025
3293.00,0.0026
3292.00,0.0028
3291.00,0.0030
3290.00,0.0032
3289.00,0.0033
3288.00,0.0035
3287.00,0.0036
3286.00,0.0038
3285.00,0.0039
3284.00,0.0041
3283.00,0.0043
3282.00,0.0044
3281.00,0.0046
3280.00,0.0047
3279.00,0.0047
3278.00,0.0048
3277.00,0.0049
3276.00,0.0049
3275.00,0.0050
3274.00,0.0050
3273.00,0.0050
3272.00,0.0050
3271.00,0.0050
3270.00,0.0050
3269.00,0.0049
3268.00,0.0048
3267.00,0.0047
3266.00,0.0046
3265.00,0.0045
3264.00,0.0044
3263.00,0.0043
3262.00,0.0042
3261.00,0.0040
3260.00,0.0039
3259.00,0.0038
3258.00,0.0037
3257.00,0.0035
3256.00,0.0034
3255.00,0.0032
3254.00,0.0030
3253.00,0.0028
3252.00,0.0026
3251.00,0.0024
3250.00,0.0023
3249.00,0.0021
3248.00,0.0020
3247.00,0.0019
3246.00,0.0018
3245.00,0.0016
3244.00,0.0014
3243.00,0.0013
3242.00,0.0011
3241.00,0.0009
3240.00,0.0008
3239.00,0.0007
3238.00,0.0006
3237.00,0.0005
3236.00,0.0004
3235.00,0.0003
3234.00,0.0002
3233.00,0.0000
3232.00,-0.0001
3231.00,-0.0003
3230.00,-0.0004
3229.00,-0.0005
3228.00,-0.0006
3227.00,-0.0007
3226.00,-0.0008
3225.00,-0.0009
3224.00,-0.0010
3223.00,-0.0011
3222.00,-0.0012
3221.00,-0.0013
3220.00,-0.0014
3219.00,-0.0015
3218.00,-0.0016
3217.00,-0.0017
3216.00,-0.0018
3215.00,-0.0019
3214.00,-0.0019
3213.00,-0.0019
3212.00,-0.0020
3211.00,-0.0021
3210.00,-0.0022
3209.00,-0.0023
3208.00,-0.0024
3207.00,-0.0025
3206.00,-0.0025
3205.00,-0.0026
3204.00,-0.0027
3203.00,-0.0027
3202.00,-0.0028
3201.00,-0.0029
3200.00,-0.0030
3199.00,-0.0031
3198.00,-0.0032
3197.00,-0.0033
3196.00,-0.0033
3195.00,-0.0033
3194.00,-0.0034
3193.00,-0.0035
3192.00,-0.0036
3191.00,-0.0037
3190.00,-0.0037
3189.00,-0.0038
3188.00,-0.0039
3187.00,-0.0039
3186.00,-0.0040
3185.00,-0.0041
3184.00,-0.0043
3183.00,-0.0044
3182.00,-0.0045
3181.00,-0.0046
3180.00,-0.0047
3179.00,-0.0048
3178.00,-0.0048
3177.00,-0.0049
3176.00,-0.0050
3175.00,-0.0051
3174.00,-0.0052
3173.00,-0.0053
3172.00,-0.0054
3171.00,-0.0054
3170.00,-0.0055
3169.00,-0.0056
3168.00,-0.0057
3167.00,-0.0058
3166.00,-0.0059
3165.00,-0.0059
3164.00,-0.0060
3163.00,-0.0061
3162.00,-0.0062
3161.00,-0.0062
3160.00,-0.0063
3159.00,-0.0064
3158.00,-0.0065
3157.00,-0.0066
3156.00,-0.0067
3155.00,-0.0067
3154.00,-0.0068
3153.00,-0.0068
3152.00,-0.0069
3151.00,-0.0070
3150.00,-0.0070
3149.00,-0.0071
3148.00,-0.0073
3147.00,-0.0073
3146.00,-0.0074
3145.00,-0.0075
3144.00,-0.0075
3143.00,-0.0076
3142.00,-0.0076
3141.00,-0.0077
3140.00,-0.0077
3139.00,-0.0078
3138.00,-0.0078
3137.00,-0.0078
3136.00,-0.0079
3135.00,-0.0079
3134.00,-0.0080
3133.00,-0.0081
3132.00,-0.0081
3131.00,-0.0081
3130.00,-0.0081
3129.00,-0.0082
3128.00,-0.0082
3127.00,-0.0083
3126.00,-0.0083
3125.00,-0.0084
3124.00,-0.0084
3123.00,-0.0085
3122.00,-0.0086
3121.00,-0.0086
3120.00,-0.0087
3119.00,-0.0087
3118.00,-0.0087
3117.00,-0.0088
3116.00,-0.0087
3115.00,-0.0087
3114.00,-0.0087
3113.00,-0.0087
3112.00,-0.0088
3111.00,-0.0088
3110.00,-0.0088
3109.00,-0.0088
3108.00,-0.0088
3107.00,-0.0088
3106.00,-0.0088
3105.00,-0.0088
3104.00,-0.0088
3103.00,-0.0087
3102.00,-0.0087
3101.00,-0.0087
3100.00,-0.0088
3099.00,-0.0088
3098.00,-0.0088
3097.00,-0.0089
3096.00,-0.0088
3095.00,-0.0088
3094.00,-0.0088
3093.00,-0.0088
3092.00,-0.0087
3091.00,-0.0087
3090.00,-0.0087
3089.00,-0.0086
3088.00,-0.0087
3087.00,-0.0087
3086.00,-0.0087
3085.00,-0.0086
3084.00,-0.0086
3083.00,-0.0086
3082.00,-0.0086
3081.00,-0.0086
3080.00,-0.0086
3079.00,-0.0087
3078.00,-0.0086
3077.00,-0.0086
3076.00,-0.0086
3075.00,-0.0085
3074.00,-0.0085
3073.00,-0.0085
3072.00,-0.0085
3071.00,-0.0085
3070.00,-0.0085
3069.00,-0.0085
3068.00,-0.0085
3067.00,-0.0085
3066.00,-0.0085
3065.00,-0.0085
3064.00,-0.0085
3063.00,-0.0085
3062.00,-0.0085
3061.00,-0.0085
3060.00,-0.0085
3059.00,-0.0085
3058.00,-0.0086
3057.00,-0.0086
3056.00,-0.0087
3055.00,-0.0088
3054.00,-0.0088
3053.00,-0.0089
3052.00,-0.0089
3051.00,-0.0090
3050.00,-0.0091
3049.00,-0.0092
3048.00,-0.0092
3047.00,-0.0093
3046.00,-0.0094
3045.00,-0.0095
3044.00,-0.0096
3043.00,-0.0097
3042.00,-0.0097
3041.00,-0.0098
3040.00,-0.0099
3039.00,-0.0099
3038.00,-0.0100
3037.00,-0.0101
3036.00,-0.0103
3035.00,-0.0103
3034.00,-0.0104
3033.00,-0.0105
3032.00,-0.0106
3031.00,-0.0106
3030.00,-0.0107
3029.00,-0.0107
3028.00,-0.0108
3027.00,-0.0109
3026.00,-0.0110
3025.00,-0.0111
3024.00,-0.0112
3023.00,-0.0113
3022.00,-0.0114
3021.00,-0.0116
3020.00,-0.0117
3019.00,-0.0119
3018.00,-0.0120
3017.00,-0.0121
3016.00,-0.0122
3015.00,-0.0123
3014.00,-0.0124
3013.00,-0.0126
3012.00,-0.0127
3011.00,-0.0128
3010.00,-0.0130
3009.00,-0.0132
3008.00,-0.0134
3007.00,-0.0137
3006.00,-0.0139
3005.00,-0.0142
3004.00,-0.0145
3003.00,-0.0148
3002.00,-0.0151
3001.00,-0.0154
3000.00,-0.0157
2999.00,-0.0159
2998.00,-0.0161
2997.00,-0.0163
2996.00,-0.0164
2995.00,-0.0165
2994.00,-0.0167
2993.00,-0.0168
2992.00,-0.0169
2991.00,-0.0170
2990.00,-0.0170
2989.00,-0.0171
2988.00,-0.0172
2987.00,-0.0174
2986.00,-0.0177
2985.00,-0.0182
2984.00,-0.0189
2983.00,-0.0196
2982.00,-0.0201
2981.00,-0.0202
2980.00,-0.0199
2979.00,-0.0195
2978.00,-0.0189
2977.00,-0.0185
2976.00,-0.0181
2975.00,-0.0178
2974.00,-0.0177
2973.00,-0.0176
2972.00,-0.0175
2971.00,-0.0173
2970.00,-0.0169
2969.00,-0.0164
2968.00,-0.0159
2967.00,-0.0155
2966.00,-0.0151
2965.00,-0.0148
2964.00,-0.0145
2963.00,-0.0143
2962.00,-0.0140
2961.00,-0.0138
2960.00,-0.0136
2959.00,-0.0135
2958.00,-0.0134
2957.00,-0.0133
2956.00,-0.0132
2955.00,-0.0131
2954.00,-0.0130
2953.00,-0.0129
2952.00,-0.0129
2951.00,-0.0129
2950.00,-0.0129
2949.00,-0.0128
2948.00,-0.0128
2947.00,-0.0127
2946.00,-0.0126
2945.00,-0.0124
2944.00,-0.0123
2943.00,-0.0121
2942.00,-0.0119
2941.00,-0.0117
2940.00,-0.0114
2939.00,-0.0112
2938.00,-0.0110
2937.00,-0.0107
2936.00,-0.0105
2935.00,-0.0103
2934.00,-0.0101
2933.00,-0.0099
2932.00,-0.0096
2931.00,-0.0094
2930.00,-0.0092
2929.00,-0.0089
2928.00,-0.0087
2927.00,-0.0085
2926.00,-0.0083
2925.00,-0.0081
2924.00,-0.0080
2923.00,-0.0080
2922.00,-0.0079
2921.00,-0.0080
2920.00,-0.0081
2919.00,-0.0082
2918.00,-0.0084
2917.00,-0.0087
2916.00,-0.0090
2915.00,-0.0093
2914.00,-0.0096
2913.00,-0.0099
2912.00,-0.0101
2911.00,-0.0104
2910.00,-0.0106
2909.00,-0.0109
2908.00,-0.0111
2907.00,-0.0113
2906.00,-0.0115
2905.00,-0.0116
2904.00,-0.0118
2903.00,-0.0119
2902.00,-0.0120
2901.00,-0.0121
2900.00,-0.0122
2899.00,-0.0123
2898.00,-0.0124
2897.00,-0.0126
2896.00,-0.0127
2895.00,-0.0128
2894.00,-0.0130
2893.00,-0.0131
2892.00,-0.0133
2891.00,-0.0134
2890.00,-0.0134
2889.00,-0.0135
2888.00,-0.0136
2887.00,-0.0136
2886.00,-0.0136
2885.00,-0.0137
2884.00,-0.0136
2883.00,-0.0135
2882.00,-0.0134
2881.00,-0.0132
2880.00,-0.0131
2879.00,-0.0129
2878.00,-0.0127
2877.00,-0.0126
2876.00,-0.0126
2875.00,-0.0125
2874.00,-0.0124
2873.00,-0.0124
2872.00,-0.0124
2871.00,-0.0124
2870.00,-0.0124
2869.00,-0.0124
2868.00,-0.0124
2867.00,-0.0124
2866.00,-0.0124
2865.00,-0.0124
2864.00,-0.0123
2863.00,-0.0122
2862.00,-0.0121
2861.00,-0.0120
2860.00,-0.0119
2859.00,-0.0118
2858.00,-0.0117
2857.00,-0.0115
2856.00,-0.0113
2855.00,-0.0111
2854.00,-0.0110
2853.00,-0.0109
2852.00,-0.0109
2851.00,-0.0109
2850.00,-0.0110
2849.00,-0.0112
2848.00,-0.0114
2847.00,-0.0116
2846.00,-0.0119
2845.00,-0.0122
2844.00,-0.0124
2843.00,-0.0126
2842.00,-0.0127
2841.00,-0.0129
2840.00,-0.0130
2839.00,-0.0131
2838.00,-0.0132
2837.00,-0.0133
2836.00,-0.0134
2835.00,-0.0135
2834.00,-0.0135
2833.00,-0.0136
2832.00,-0.0136
2831.00,-0.0137
2830.00,-0.0137
2829.00,-0.0138
2828.00,-0.0138
2827.00,-0.0139
2826.00,-0.0139
2825.00,-0.0139
2824.00,-0.0140
2823.00,-0.0140
2822.00,-0.0140
2821.00,-0.0140
2820.00,-0.0141
2819.00,-0.0141
2818.00,-0.0141
2817.00,-0.0141
2816.00,-0.0141
2815.00,-0.0142
2814.00,-0.0142
2813.00,-0.0142
2812.00,-0.0142
2811.00,-0.0142
2810.00,-0.0142
2809.00,-0.0142
2808.00,-0.0142
2807.00,-0.0143
2806.00,-0.0143
2805.00,-0.0143
2804.00,-0.0143
2803.00,-0.0144
2802.00,-0.0144
2801.00,-0.0145
2800.00,-0.0145
2799.00,-0.0145
2798.00,-0.0145
2797.00,-0.0146
2796.00,-0.0146
2795.00,-0.0146
2794.00,-0.0146
2793.00,-0.0146
2792.00,-0.0146
2791.00,-0.0146
2790.00,-0.0146
2789.00,-0.0146
2788.00,-0.0147
2787.00,-0.0147
2786.00,-0.0147
2785.00,-0.0147
2784.00,-0.0147
2783.00,-0.0148
2782.00,-0.0148
2781.00,-0.0148
2780.00,-0.0148
2779.00,-0.0149
2778.00,-0.0149
2777.00,-0.0149
2776.00,-0.0149
2775.00,-0.0149
2774.00,-0.0149
2773.00,-0.0150
2772.00,-0.0150
2771.00,-0.0151
2770.00,-0.0151
2769.00,-0.0151
2768.00,-0.0151
2767.00,-0.0151
2766.00,-0.0151
2765.00,-0.0152
2764.00,-0.0152
2763.00,-0.0153
2762.00,-0.0153
2761.00,-0.0153
2760.00,-0.0153
2759.00,-0.0153
2758.00,-0.0153
2757.00,-0.0153
2756.00,-0.0153
2755.00,-0.0154
2754.00,-0.0154
2753.00,-0.0154
2752.00,-0.0154
2751.00,-0.0154
2750.00,-0.0154
2749.00,-0.0155
2748.00,-0.0155
2747.00,-0.0155
2746.00,-0.0156
2745.00,-0.0156
2744.00,-0.0156
2743.00,-0.0157
2742.00,-0.0157
2741.00,-0.0157
2740.00,-0.0157
2739.00,-0.0158
2738.00,-0.0158
2737.00,-0.0158
2736.00,-0.0158
2735.00,-0.0158
2734.00,-0.0158
2733.00,-0.0159
2732.00,-0.0159
2731.00,-0.0160
2730.00,-0.0160
2729.00,-0.0160
2728.00,-0.0160
2727.00,-0.0160
2726.00,-0.0160
2725.00,-0.0160
2724.00,-0.0161
2723.00,-0.0161
2722.00,-0.0162
2721.00,-0.0162
2720.00,-0.0162
2719.00,-0.0162
2718.00,-0.0163
2717.00,-0.0163
2716.00,-0.0163
2715.00,-0.0163
2714.00,-0.0163
2713.00,-0.0163
2712.00,-0.0163
2711.00,-0.0163
2710.00,-0.0163
2709.00,-0.0163
2708.00,-0.0163
2707.00,-0.0163
2706.00,-0.0163
2705.00,-0.0164
2704.00,-0.0164
2703.00,-0.0165
2702.00,-0.0165
2701.00,-0.0165
2700.00,-0.0165
2699.00,-0.0165
2698.00,-0.0165
2697.00,-0.0166
2696.00,-0.0166
2695.00,-0.0166
2694.00,-0.0166
2693.00,-0.0166
2692.00,-0.0167
2691.00,-0.0167
2690.00,-0.0167
2689.00,-0.0168
2688.00,-0.0168
2687.00,-0.0168
2686.00,-0.0168
2685.00,-0.0168
2684.00,-0.0168
2683.00,-0.0168
2682.00,-0.0169
2681.00,-0.0169
2680.00,-0.0169
2679.00,-0.0169
2678.00,-0.0169
2677.00,-0.0170
2676.00,-0.0170
2675.00,-0.0170
2674.00,-0.0171
2673.00,-0.0171
2672.00,-0.0171
2671.00,-0.0171
2670.00,-0.0171
2669.00,-0.0172
2668.00,-0.0172
2667.00,-0.0172
2666.00,-0.0173
2665.00,-0.0173
2664.00,-0.0173
2663.00,-0.0173
2662.00,-0.0173
2661.00,-0.0174
2660.00,-0.0174
2659.00,-0.0174
2658.00,-0.0174
2657.00,-0.0174
2656.00,-0.0175
2655.00,-0.0175
2654.00,-0.0175
2653.00,-0.0175
2652.00,-0.0175
2651.00,-0.0175
2650.00,-0.0175
2649.00,-0.0175
2648.00,-0.0175
2647.00,-0.0175
2646.00,-0.0175
2645.00,-0.0175
2644.00,-0.0175
2643.00,-0.0175
2642.00,-0.0175
2641.00,-0.0175
2640.00,-0.0175
2639.00,-0.0175
2638.00,-0.0175
2637.00,-0.0175
2636.00,-0.0175
2635.00,-0.0175
2634.00,-0.0175
2633.00,-0.0175
2632.00,-0.0175
2631.00,-0.0175
2630.00,-0.0175
2629.00,-0.0176
2628.00,-0.0176
2627.00,-0.0176
2626.00,-0.0176
2625.00,-0.0175
2624.00,-0.0175
2623.00,-0.0176
2622.00,-0.0176
2621.00,-0.0176
2620.00,-0.0176
2619.00,-0.0176
2618.00,-0.0175
2617.00,-0.0175
2616.00,-0.0175
2615.00,-0.0175
2614.00,-0.0176
2613.00,-0.0176
2612.00,-0.0176
2611.00,-0.0177
2610.00,-0.0177
2609.00,-0.0177
2608.00,-0.0176
2607.00,-0.0176
2606.00,-0.0176
2605.00,-0.0176
2604.00,-0.0176
2603.00,-0.0176
2602.00,-0.0177
2601.00,-0.0177
2600.00,-0.0177
2599.00,-0.0177
2598.00,-0.0177
2597.00,-0.0177
2596.00,-0.0177
2595.00,-0.0178
2594.00,-0.0177
2593.00,-0.0177
2592.00,-0.0176
2591.00,-0.0176
2590.00,-0.0176
2589.00,-0.0176
2588.00,-0.0176
2587.00,-0.0176
2586.00,-0.0177
2585.00,-0.0177
2584.00,-0.0177
2583.00,-0.0177
2582.00,-0.0177
2581.00,-0.0178
2580.00,-0.0178
2579.00,-0.0179
2578.00,-0.0179
2577.00,-0.0179
2576.00,-0.0178
2575.00,-0.0179
2574.00,-0.0179
2573.00,-0.0179
2572.00,-0.0179
2571.00,-0.0180
2570.00,-0.0180
2569.00,-0.0180
2568.00,-0.0180
2567.00,-0.0179
2566.00,-0.0179
2565.00,-0.0180
2564.00,-0.0180
2563.00,-0.0180
2562.00,-0.0180
2561.00,-0.0180
2560.00,-0.0180
2559.00,-0.0180
2558.00,-0.0181
2557.00,-0.0181
2556.00,-0.0182
2555.00,-0.0182
2554.00,-0.0182
2553.00,-0.0183
2552.00,-0.0183
2551.00,-0.0183
2550.00,-0.0184
2549.00,-0.0184
2548.00,-0.0184
2547.00,-0.0184
2546.00,-0.0184
2545.00,-0.0184
2544.00,-0.0184
2543.00,-0.0184
2542.00,-0.0184
2541.00,-0.0184
2540.00,-0.0184
2539.00,-0.0184
2538.00,-0.0184
2537.00,-0.0184
2536.00,-0.0184
2535.00,-0.0184
2534.00,-0.0185
2533.00,-0.0185
2532.00,-0.0185
2531.00,-0.0185
2530.00,-0.0185
2529.00,-0.0185
2528.00,-0.0185
2527.00,-0.0185
2526.00,-0.0186
2525.00,-0.0186
2524.00,-0.0186
2523.00,-0.0186
2522.00,-0.0185
2521.00,-0.0185
2520.00,-0.0185
2519.00,-0.0185
2518.00,-0.0185
2517.00,-0.0186
2516.00,-0.0186
2515.00,-0.0186
2514.00,-0.0186
2513.00,-0.0186
2512.00,-0.0186
2511.00,-0.0187
2510.00,-0.0187
2509.00,-0.0187
2508.00,-0.0188
2507.00,-0.0188
2506.00,-0.0188
2505.00,-0.0188
2504.00,-0.0188
2503.00,-0.0188
2502.00,-0.0187
2501.00,-0.0187
2500.00,-0.0187
2499.00,-0.0187
2498.00,-0.0187
2497.00,-0.0187
2496.00,-0.0187
2495.00,-0.0187
2494.00,-0.0187
2493.00,-0.0187
2492.00,-0.0188
2491.00,-0.0188
2490.00,-0.0188
2489.00,-0.0188
2488.00,-0.0189
2487.00,-0.0189
2486.00,-0.0189
2485.00,-0.0189
2484.00,-0.0189
2483.00,-0.0189
2482.00,-0.0189
2481.00,-0.0189
2480.00,-0.0189
2479.00,-0.0189
2478.00,-0.0189
2477.00,-0.0190
2476.00,-0.0190
2475.00,-0.0191
2474.00,-0.0191
2473.00,-0.0191
2472.00,-0.0191
2471.00,-0.0191
2470.00,-0.0191
2469.00,-0.0191
2468.00,-0.0191
2467.00,-0.0191
2466.00,-0.0191
2465.00,-0.0192
2464.00,-0.0192
2463.00,-0.0192
2462.00,-0.0192
2461.00,-0.0192
2460.00,-0.0192
2459.00,-0.0192
2458.00,-0.0192
2457.00,-0.0192
2456.00,-0.0192
2455.00,-0.0192
2454.00,-0.0193
2453.00,-0.0193
2452.00,-0.0193
2451.00,-0.0193
2450.00,-0.0193
2449.00,-0.0193
2448.00,-0.0193
2447.00,-0.0194
2446.00,-0.0194
2445.00,-0.0195
2444.00,-0.0195
2443.00,-0.0195
2442.00,-0.0195
2441.00,-0.0194
2440.00,-0.0194
2439.00,-0.0194
2438.00,-0.0194
2437.00,-0.0195
2436.00,-0.0195
2435.00,-0.0195
2434.00,-0.0195
2433.00,-0.0196
2432.00,-0.0196
2431.00,-0.0195
2430.00,-0.0195
2429.00,-0.0195
2428.00,-0.0195
2427.00,-0.0195
2426.00,-0.0196
2425.00,-0.0196
2424.00,-0.0196
2423.00,-0.0197
2422.00,-0.0197
2421.00,-0.0196
2420.00,-0.0196
2419.00,-0.0197
2418.00,-0.0197
2417.00,-0.0198
2416.00,-0.0198
2415.00,-0.0198
2414.00,-0.0198
2413.00,-0.0198
2412.00,-0.0198
2411.00,-0.0198
2410.00,-0.0198
2409.00,-0.0197
2408.00,-0.0198
2407.00,-0.0198
2406.00,-0.0199
2405.00,-0.0199
2404.00,-0.0200
2403.00,-0.0200
2402.00,-0.0200
2401.00,-0.0200
2400.00,-0.0200
2399.00,-0.0200
2398.00,-0.0200
2397.00,-0.0201
2396.00,-0.0201
2395.00,-0.0201
2394.00,-0.0201
2393.00,-0.0201
2392.00,-0.0201
2391.00,-0.0202
2390.00,-0.0202
2389.00,-0.0202
2388.00,-0.0202
2387.00,-0.0202
2386.00,-0.0202
2385.00,-0.0202
2384.00,-0.0202
2383.00,-0.0202
2382.00,-0.0202
2381.00,-0.0202
2380.00,-0.0203
2379.00,-0.0203
2378.00,-0.0203
2377.00,-0.0203
2376.00,-0.0203
2375.00,-0.0203
2374.00,-0.0203
2373.00,-0.0203
2372.00,-0.0203
2371.00,-0.0203
2370.00,-0.0203
2369.00,-0.0204
2368.00,-0.0204
2367.00,-0.0204
2366.00,-0.0203
2365.00,-0.0203
2364.00,-0.0203
2363.00,-0.0204
2362.00,-0.0204
2361.00,-0.0205
2360.00,-0.0205
2359.00,-0.0205
2358.00,-0.0205
2357.00,-0.0205
2356.00,-0.0205
2355.00,-0.0205
2354.00,-0.0205
2353.00,-0.0205
2352.00,-0.0206
2351.00,-0.0206
2350.00,-0.0206
2349.00,-0.0206
2348.00,-0.0206
2347.00,-0.0206
2346.00,-0.0206
2345.00,-0.0207
2344.00,-0.0207
2343.00,-0.0206
2342.00,-0.0206
2341.00,-0.0206
2340.00,-0.0206
2339.00,-0.0207
2338.00,-0.0207
2337.00,-0.0208
2336.00,-0.0208
2335.00,-0.0208
2334.00,-0.0208
2333.00,-0.0208
2332.00,-0.0208
2331.00,-0.0208
2330.00,-0.0209
2329.00,-0.0210
2328.00,-0.0211
2327.00,-0.0212
2326.00,-0.0213
2325.00,-0.0213
2324.00,-0.0212
2323.00,-0.0211
2322.00,-0.0211
2321.00,-0.0210
2320.00,-0.0210
2319.00,-0.0210
2318.00,-0.0210
2317.00,-0.0210
2316.00,-0.0211
2315.00,-0.0211
2314.00,-0.0211
2313.00,-0.0211
2312.00,-0.0212
2311.00,-0.0212
2310.00,-0.0212
2309.00,-0.0212
2308.00,-0.0212
2307.00,-0.0212
2306.00,-0.0212
2305.00,-0.0212
2304.00,-0.0212
2303.00,-0.0212
2302.00,-0.0212
2301.00,-0.0212
2300.00,-0.0212
2299.00,-0.0213
2298.00,-0.0213
2297.00,-0.0214
2296.00,-0.0214
2295.00,-0.0214
2294.00,-0.0214
2293.00,-0.0214
2292.00,-0.0215
2291.00,-0.0215
2290.00,-0.0216
2289.00,-0.0217
2288.00,-0.0218
2287.00,-0.0217
2286.00,-0.0217
2285.00,-0.0216
2284.00,-0.0216
2283.00,-0.0216
2282.00,-0.0216
2281.00,-0.0217
2280.00,-0.0217
2279.00,-0.0217
2278.00,-0.0216
2277.00,-0.0216
2276.00,-0.0215
2275.00,-0.0215
2274.00,-0.0216
2273.00,-0.0216
2272.00,-0.0216
2271.00,-0.0216
2270.00,-0.0216
2269.00,-0.0216
2268.00,-0.0216
2267.00,-0.0216
2266.00,-0.0216
2265.00,-0.0216
2264.00,-0.0216
2263.00,-0.0216
2262.00,-0.0217
2261.00,-0.0217
2260.00,-0.0216
2259.00,-0.0216
2258.00,-0.0216
2257.00,-0.0216
2256.00,-0.0216
2255.00,-0.0216
2254.00,-0.0217
2253.00,-0.0217
2252.00,-0.0217
2251.00,-0.0217
2250.00,-0.0216
2249.00,-0.0216
2248.00,-0.0215
2247.00,-0.0216
2246.00,-0.0217
2245.00,-0.0219
2244.00,-0.0220
2243.00,-0.0221
2242.00,-0.0222
2241.00,-0.0221
2240.00,-0.0220
2239.00,-0.0220
2238.00,-0.0220
2237.00,-0.0220
2236.00,-0.0220
2235.00,-0.0219
2234.00,-0.0219
2233.00,-0.0220
2232.00,-0.0220
2231.00,-0.0219
2230.00,-0.0219
2229.00,-0.0219
2228.00,-0.0219
2227.00,-0.0220
2226.00,-0.0220
2225.00,-0.0220
2224.00,-0.0219
2223.00,-0.0219
2222.00,-0.0220
2221.00,-0.0221
2220.00,-0.0222
2219.00,-0.0222
2218.00,-0.0222
2217.00,-0.0222
2216.00,-0.0221
2215.00,-0.0221
2214.00,-0.0220
2213.00,-0.0220
2212.00,-0.0220
2211.00,-0.0220
2210.00,-0.0220
2209.00,-0.0220
2208.00,-0.0220
2207.00,-0.0221
2206.00,-0.0223
2205.00,-0.0225
2204.00,-0.0226
2203.00,-0.0226
2202.00,-0.0224
2201.00,-0.0222
2200.00,-0.0221
2199.00,-0.0221
2198.00,-0.0221
2197.00,-0.0221
2196.00,-0.0221
2195.00,-0.0220
2194.00,-0.0221
2193.00,-0.0221
2192.00,-0.0223
2191.00,-0.0224
2190.00,-0.0226
2189.00,-0.0227
2188.00,-0.0228
2187.00,-0.0228
2186.00,-0.0227
2185.00,-0.0226
2184.00,-0.0225
2183.00,-0.0226
2182.00,-0.0228
2181.00,-0.0230
2180.00,-0.0231
2179.00,-0.0230
2178.00,-0.0228
2177.00,-0.0225
2176.00,-0.0224
2175.00,-0.0224
2174.00,-0.0227
2173.00,-0.0229
2172.00,-0.0230
2171.00,-0.0231
2170.00,-0.0231
2169.00,-0.0231
2168.00,-0.0229
2167.00,-0.0227
2166.00,-0.0227
2165.00,-0.0227
2164.00,-0.0227
2163.00,-0.0228
2162.00,-0.0228
2161.00,-0.0227
2160.00,-0.0226
2159.00,-0.0225
2158.00,-0.0224
2157.00,-0.0224
2156.00,-0.0223
2155.00,-0.0223
2154.00,-0.0224
2153.00,-0.0226
2152.00,-0.0228
2151.00,-0.0229
2150.00,-0.0229
2149.00,-0.0228
2148.00,-0.0227
2147.00,-0.0226
2146.00,-0.0227
2145.00,-0.0227
2144.00,-0.0228
2143.00,-0.0229
2142.00,-0.0230
2141.00,-0.0230
2140.00,-0.0229
2139.00,-0.0228
2138.00,-0.0226
2137.00,-0.0225
2136.00,-0.0225
2135.00,-0.0225
2134.00,-0.0226
2133.00,-0.0227
2132.00,-0.0229
2131.00,-0.0230
2130.00,-0.0230
2129.00,-0.0230
2128.00,-0.0230
2127.00,-0.0229
2126.00,-0.0230
2125.00,-0.0231
2124.00,-0.0231
2123.00,-0.0232
2122.00,-0.0231
2121.00,-0.0231
2120.00,-0.0232
2119.00,-0.0233
2118.00,-0.0234
2117.00,-0.0234
2116.00,-0.0234
2115.00,-0.0235
2114.00,-0.0235
2113.00,-0.0235
2112.00,-0.0235
2111.00,-0.0234
2110.00,-0.0234
2109.00,-0.0234
2108.00,-0.0234
2107.00,-0.0235
2106.00,-0.0236
2105.00,-0.0236
2104.00,-0.0235
2103.00,-0.0235
2102.00,-0.0235
2101.00,-0.0236
2100.00,-0.0237
2099.00,-0.0238
2098.00,-0.0239
2097.00,-0.0239
2096.00,-0.0238
2095.00,-0.0237
2094.00,-0.0237
2093.00,-0.0236
2092.00,-0.0236
2091.00,-0.0235
2090.00,-0.0235
2089.00,-0.0236
2088.00,-0.0237
2087.00,-0.0238
2086.00,-0.0238
2085.00,-0.0237
2084.00,-0.0237
2083.00,-0.0237
2082.00,-0.0238
2081.00,-0.0239
2080.00,-0.0241
2079.00,-0.0242
2078.00,-0.0242
2077.00,-0.0242
2076.00,-0.0241
2075.00,-0.0240
2074.00,-0.0240
2073.00,-0.0241
2072.00,-0.0241
2071.00,-0.0241
2070.00,-0.0240
2069.00,-0.0240
2068.00,-0.0239
2067.00,-0.0239
2066.00,-0.0240
2065.00,-0.0241
2064.00,-0.0243
2063.00,-0.0244
2062.00,-0.0245
2061.00,-0.0244
2060.00,-0.0243
2059.00,-0.0242
2058.00,-0.0242
2057.00,-0.0241
2056.00,-0.0241
2055.00,-0.0242
2054.00,-0.0244
2053.00,-0.0247
2052.00,-0.0248
2051.00,-0.0247
2050.00,-0.0246
2049.00,-0.0244
2048.00,-0.0244
2047.00,-0.0243
2046.00,-0.0243
2045.00,-0.0243
2044.00,-0.0243
2043.00,-0.0243
2042.00,-0.0243
2041.00,-0.0243
2040.00,-0.0244
2039.00,-0.0245
2038.00,-0.0245
2037.00,-0.0245
2036.00,-0.0246
2035.00,-0.0248
2034.00,-0.0248
2033.00,-0.0247
2032.00,-0.0246
2031.00,-0.0247
2030.00,-0.0249
2029.00,-0.0250
2028.00,-0.0250
2027.00,-0.0250
2026.00,-0.0249
2025.00,-0.0249
2024.00,-0.0248
2023.00,-0.0246
2022.00,-0.0243
2021.00,-0.0242
2020.00,-0.0242
2019.00,-0.0243
2018.00,-0.0243
2017.00,-0.0243
2016.00,-0.0244
2015.00,-0.0246
2014.00,-0.0249
2013.00,-0.0250
2012.00,-0.0251
2011.00,-0.0251
2010.00,-0.0250
2009.00,-0.0248
2008.00,-0.0246
2007.00,-0.0246
2006.00,-0.0247
2005.00,-0.0249
2004.00,-0.0251
2003.00,-0.0252
2002.00,-0.0253
2001.00,-0.0254
2000.00,-0.0255
1999.00,-0.0256
1998.00,-0.0257
1997.00,-0.0255
1996.00,-0.0253
1995.00,-0.0251
1994.00,-0.0250
1993.00,-0.0250
1992.00,-0.0251
1991.00,-0.0252
1990.00,-0.0252
1989.00,-0.0253
1988.00,-0.0254
1987.00,-0.0256
1986.00,-0.0257
1985.00,-0.0257
1984.00,-0.0258
1983.00,-0.0258
1982.00,-0.0259
1981.00,-0.0258
1980.00,-0.0256
1979.00,-0.0255
1978.00,-0.0254
1977.00,-0.0255
1976.00,-0.0255
1975.00,-0.0254
1974.00,-0.0254
1973.00,-0.0255
1972.00,-0.0256
1971.00,-0.0257
1970.00,-0.0257
1969.00,-0.0257
1968.00,-0.0257
1967.00,-0.0257
1966.00,-0.0257
1965.00,-0.0258
1964.00,-0.0258
1963.00,-0.0256
1962.00,-0.0254
1961.00,-0.0254
1960.00,-0.0255
1959.00,-0.0258
1958.00,-0.0259
1957.00,-0.0258
1956.00,-0.0256
1955.00,-0.0254
1954.00,-0.0253
1953.00,-0.0254
1952.00,-0.0256
1951.00,-0.0259
1950.00,-0.0262
1949.00,-0.0263
1948.00,-0.0263
1947.00,-0.0262
1946.00,-0.0261
1945.00,-0.0261
1944.00,-0.0260
1943.00,-0.0261
1942.00,-0.0261
1941.00,-0.0262
1940.00,-0.0262
1939.00,-0.0261
1938.00,-0.0261
1937.00,-0.0263
1936.00,-0.0264
1935.00,-0.0265
1934.00,-0.0266
1933.00,-0.0266
1932.00,-0.0266
1931.00,-0.0266
1930.00,-0.0266
1929.00,-0.0266
1928.00,-0.0266
1927.00,-0.0267
1926.00,-0.0267
1925.00,-0.0268
1924.00,-0.0269
1923.00,-0.0270
1922.00,-0.0270
1921.00,-0.0269
1920.00,-0.0269
1919.00,-0.0269
1918.00,-0.0270
1917.00,-0.0271
1916.00,-0.0272
1915.00,-0.0273
1914.00,-0.0273
1913.00,-0.0273
1912.00,-0.0272
1911.00,-0.0272
1910.00,-0.0271
1909.00,-0.0270
1908.00,-0.0271
1907.00,-0.0272
1906.00,-0.0272
1905.00,-0.0273
1904.00,-0.0274
1903.00,-0.0274
1902.00,-0.0273
1901.00,-0.0273
1900.00,-0.0273
1899.00,-0.0274
1898.00,-0.0274
1897.00,-0.0274
1896.00,-0.0275
1895.00,-0.0276
1894.00,-0.0276
1893.00,-0.0277
1892.00,-0.0277
1891.00,-0.0276
1890.00,-0.0276
1889.00,-0.0276
1888.00,-0.0277
1887.00,-0.0278
1886.00,-0.0278
1885.00,-0.0278
1884.00,-0.0279
1883.00,-0.0279
1882.00,-0.0280
1881.00,-0.0281
1880.00,-0.0281
1879.00,-0.0281
1878.00,-0.0282
1877.00,-0.0282
1876.00,-0.0282
1875.00,-0.0283
1874.00,-0.0284
1873.00,-0.0284
1872.00,-0.0284
1871.00,-0.0285
1870.00,-0.0285
1869.00,-0.0285
1868.00,-0.0286
1867.00,-0.0286
1866.00,-0.0286
1865.00,-0.0286
1864.00,-0.0286
1863.00,-0.0287
1862.00,-0.0287
1861.00,-0.0288
1860.00,-0.0288
1859.00,-0.0289
1858.00,-0.0290
1857.00,-0.0290
1856.00,-0.0291
1855.00,-0.0291
1854.00,-0.0291
1853.00,-0.0291
1852.00,-0.0291
1851.00,-0.0291
1850.00,-0.0291
1849.00,-0.0291
1848.00,-0.0291
1847.00,-0.0291
1846.00,-0.0292
1845.00,-0.0293
1844.00,-0.0295
1843.00,-0.0296
1842.00,-0.0297
1841.00,-0.0296
1840.00,-0.0296
1839.00,-0.0296
1838.00,-0.0296
1837.00,-0.0296
1836.00,-0.0297
1835.00,-0.0297
1834.00,-0.0297
1833.00,-0.0297
1832.00,-0.0298
1831.00,-0.0299
1830.00,-0.0300
1829.00,-0.0301
1828.00,-0.0301
1827.00,-0.0302
1826.00,-0.0302
1825.00,-0.0303
1824.00,-0.0303
1823.00,-0.0303
1822.00,-0.0303
1821.00,-0.0303
1820.00,-0.0303
1819.00,-0.0303
1818.00,-0.0304
1817.00,-0.0304
1816.00,-0.0304
1815.00,-0.0305
1814.00,-0.0306
1813.00,-0.0306
1812.00,-0.0306
1811.00,-0.0307
1810.00,-0.0308
1809.00,-0.0309
1808.00,-0.0309
1807.00,-0.0309
1806.00,-0.0309
1805.00,-0.0309
1804.00,-0.0309
1803.00,-0.0310
1802.00,-0.0311
1801.00,-0.0311
1800.00,-0.0311
1799.00,-0.0312
1798.00,-0.0312
1797.00,-0.0312
1796.00,-0.0312
1795.00,-0.0313
1794.00,-0.0313
1793.00,-0.0314
1792.00,-0.0315
1791.00,-0.0316
1790.00,-0.0317
1789.00,-0.0317
1788.00,-0.0317
1787.00,-0.0317
1786.00,-0.0318
1785.00,-0.0319
1784.00,-0.0319
1783.00,-0.0320
1782.00,-0.0320
1781.00,-0.0320
1780.00,-0.0321
1779.00,-0.0321
1778.00,-0.0322
1777.00,-0.0322
1776.00,-0.0322
1775.00,-0.0322
1774.00,-0.0322
1773.00,-0.0324
1772.00,-0.0325
1771.00,-0.0327
1770.00,-0.0328
1769.00,-0.0328
1768.00,-0.0329
1767.00,-0.0329
1766.00,-0.0330
1765.00,-0.0330
1764.00,-0.0330
1763.00,-0.0331
1762.00,-0.0332
1761.00,-0.0333
1760.00,-0.0333
1759.00,-0.0333
1758.00,-0.0333
1757.00,-0.0333
1756.00,-0.0333
1755.00,-0.0333
1754.00,-0.0332
1753.00,-0.0332
1752.00,-0.0331
1751.00,-0.0332
1750.00,-0.0332
1749.00,-0.0332
1748.00,-0.0333
1747.00,-0.0333
1746.00,-0.0333
1745.00,-0.0333
1744.00,-0.0333
1743.00,-0.0334
1742.00,-0.0335
1741.00,-0.0336
1740.00,-0.0338
1739.00,-0.0340
1738.00,-0.0341
1737.00,-0.0341
1736.00,-0.0342
1735.00,-0.0344
1734.00,-0.0348
1733.00,-0.0351
1732.00,-0.0353
1731.00,-0.0354
1730.00,-0.0356
1729.00,-0.0358
1728.00,-0.0360
1727.00,-0.0361
1726.00,-0.0363
1725.00,-0.0364
1724.00,-0.0365
1723.00,-0.0366
1722.00,-0.0367
1721.00,-0.0367
1720.00,-0.0367
1719.00,-0.0367
1718.00,-0.0366
1717.00,-0.0366
1716.00,-0.0366
1715.00,-0.0366
1714.00,-0.0365
1713.00,-0.0363
1712.00,-0.0360
1711.00,-0.0357
1710.00,-0.0352
1709.00,-0.0347
1708.00,-0.0341
1707.00,-0.0334
1706.00,-0.0325
1705.00,-0.0315
1704.00,-0.0304
1703.00,-0.0293
1702.00,-0.0281
1701.00,-0.0267
1700.00,-0.0252
1699.00,-0.0238
1698.00,-0.0229
1697.00,-0.0221
1696.00,-0.0216
1695.00,-0.0213
1694.00,-0.0210
1693.00,-0.0208
1692.00,-0.0204
1691.00,-0.0200
1690.00,-0.0196
1689.00,-0.0191
1688.00,-0.0186
1687.00,-0.0181
1686.00,-0.0175
1685.00,-0.0167
1684.00,-0.0159
1683.00,-0.0153
1682.00,-0.0147
1681.00,-0.0141
1680.00,-0.0135
1679.00,-0.0129
1678.00,-0.0124
1677.00,-0.0119
1676.00,-0.0113
1675.00,-0.0107
1674.00,-0.0100
1673.00,-0.0096
1672.00,-0.0091
1671.00,-0.0087
1670.00,-0.0081
1669.00,-0.0076
1668.00,-0.0072
1667.00,-0.0070
1666.00,-0.0069
1665.00,-0.0067
1664.00,-0.0065
1663.00,-0.0062
1662.00,-0.0060
1661.00,-0.0058
1660.00,-0.0058
1659.00,-0.0059
1658.00,-0.0061
1657.00,-0.0064
1656.00,-0.0068
1655.00,-0.0072
1654.00,-0.0073
1653.00,-0.0074
1652.00,-0.0076
1651.00,-0.0082
1650.00,-0.0090
1649.00,-0.0099
1648.00,-0.0106
1647.00,-0.0112
1646.00,-0.0120
1645.00,-0.0128
1644.00,-0.0136
1643.00,-0.0145
1642.00,-0.0153
1641.00,-0.0162
1640.00,-0.0170
1639.00,-0.0177
1638.00,-0.0185
1637.00,-0.0190
1636.00,-0.0193
1635.00,-0.0195
1634.00,-0.0197
1633.00,-0.0200
1632.00,-0.0203
1631.00,-0.0205
1630.00,-0.0204
1629.00,-0.0200
1628.00,-0.0195
1627.00,-0.0188
1626.00,-0.0182
1625.00,-0.0173
1624.00,-0.0162
1623.00,-0.0150
1622.00,-0.0137
1621.00,-0.0129
1620.00,-0.0123
1619.00,-0.0117
1618.00,-0.0110
1617.00,-0.0100
1616.00,-0.0091
1615.00,-0.0086
1614.00,-0.0086
1613.00,-0.0088
1612.00,-0.0091
1611.00,-0.0093
1610.00,-0.0095
1609.00,-0.0097
1608.00,-0.0100
1607.00,-0.0103
1606.00,-0.0107
1605.00,-0.0110
1604.00,-0.0113
1603.00,-0.0116
1602.00,-0.0119
1601.00,-0.0122
1600.00,-0.0124
1599.00,-0.0127
1598.00,-0.0129
1597.00,-0.0132
1596.00,-0.0135
1595.00,-0.0138
1594.00,-0.0141
1593.00,-0.0145
1592.00,-0.0148
1591.00,-0.0152
1590.00,-0.0156
1589.00,-0.0159
1588.00,-0.0163
1587.00,-0.0166
1586.00,-0.0169
1585.00,-0.0172
1584.00,-0.0174
1583.00,-0.0176
1582.00,-0.0177
1581.00,-0.0178
1580.00,-0.0179
1579.00,-0.0180
1578.00,-0.0179
1577.00,-0.0177
1576.00,-0.0174
1575.00,-0.0171
1574.00,-0.0170
1573.00,-0.0169
1572.00,-0.0167
1571.00,-0.0164
1570.00,-0.0159
1569.00,-0.0153
1568.00,-0.0147
1567.00,-0.0142
1566.00,-0.0135
1565.00,-0.0128
1564.00,-0.0120
1563.00,-0.0114
1562.00,-0.0108
1561.00,-0.0101
1560.00,-0.0090
1559.00,-0.0074
1558.00,-0.0060
1557.00,-0.0050
1556.00,-0.0042
1555.00,-0.0033
1554.00,-0.0024
1553.00,-0.0014
1552.00,-0.0006
1551.00,0.0003
1550.00,0.0013
1549.00,0.0022
1548.00,0.0030
1547.00,0.0037
1546.00,0.0045
1545.00,0.0052
1544.00,0.0060
1543.00,0.0067
1542.00,0.0074
1541.00,0.0084
1540.00,0.0095
1539.00,0.0105
1538.00,0.0111
1537.00,0.0114
1536.00,0.0115
1535.00,0.0119
1534.00,0.0125
1533.00,0.0132
1532.00,0.0138
1531.00,0.0141
1530.00,0.0144
1529.00,0.0147
1528.00,0.0151
1527.00,0.0155
1526.00,0.0161
1525.00,0.0166
1524.00,0.0172
1523.00,0.0178
1522.00,0.0188
1521.00,0.0200
1520.00,0.0209
1519.00,0.0216
1518.00,0.0222
1517.00,0.0229
1516.00,0.0235
1515.00,0.0239
1514.00,0.0239
1513.00,0.0238
1512.00,0.0236
1511.00,0.0233
1510.00,0.0228
1509.00,0.0222
1508.00,0.0218
1507.00,0.0215
1506.00,0.0211
1505.00,0.0205
1504.00,0.0196
1503.00,0.0185
1502.00,0.0174
1501.00,0.0163
1500.00,0.0152
1499.00,0.0142
1498.00,0.0132
1497.00,0.0122
1496.00,0.0111
1495.00,0.0099
1494.00,0.0087
1493.00,0.0073
1492.00,0.0059
1491.00,0.0046
1490.00,0.0033
1489.00,0.0021
1488.00,0.0008
1487.00,-0.0004
1486.00,-0.0016
1485.00,-0.0028
1484.00,-0.0039
1483.00,-0.0049
1482.00,-0.0059
1481.00,-0.0068
1480.00,-0.0077
1479.00,-0.0086
1478.00,-0.0093
1477.00,-0.0101
1476.00,-0.0107
1475.00,-0.0112
1474.00,-0.0117
1473.00,-0.0120
1472.00,-0.0121
1471.00,-0.0122
1470.00,-0.0123
1469.00,-0.0125
1468.00,-0.0127
1467.00,-0.0130
1466.00,-0.0134
1465.00,-0.0137
1464.00,-0.0139
1463.00,-0.0141
1462.00,-0.0142
1461.00,-0.0142
1460.00,-0.0142
1459.00,-0.0140
1458.00,-0.0136
1457.00,-0.0130
1456.00,-0.0124
1455.00,-0.0121
1454.00,-0.0119
1453.00,-0.0118
1452.00,-0.0117
1451.00,-0.0117
1450.00,-0.0118
1449.00,-0.0118
1448.00,-0.0119
1447.00,-0.0119
1446.00,-0.0121
1445.00,-0.0123
1444.00,-0.0127
1443.00,-0.0131
1442.00,-0.0135
1441.00,-0.0141
1440.00,-0.0147
1439.00,-0.0153
1438.00,-0.0159
1437.00,-0.0165
1436.00,-0.0170
1435.00,-0.0174
1434.00,-0.0179
1433.00,-0.0184
1432.00,-0.0188
1431.00,-0.0192
1430.00,-0.0196
1429.00,-0.0198
1428.00,-0.0201
1427.00,-0.0202
1426.00,-0.0203
1425.00,-0.0204
1424.00,-0.0203
1423.00,-0.0202
1422.00,-0.0201
1421.00,-0.0200
1420.00,-0.0198
1419.00,-0.0194
1418.00,-0.0190
1417.00,-0.0187
1416.00,-0.0183
1415.00,-0.0180
1414.00,-0.0176
1413.00,-0.0173
1412.00,-0.0170
1411.00,-0.0167
1410.00,-0.0165
1409.00,-0.0162
1408.00,-0.0159
1407.00,-0.0157
1406.00,-0.0155
1405.00,-0.0153
1404.00,-0.0152
1403.00,-0.0151
1402.00,-0.0151
1401.00,-0.0152
1400.00,-0.0152
1399.00,-0.0153
1398.00,-0.0153
1397.00,-0.0154
1396.00,-0.0156
1395.00,-0.0157
1394.00,-0.0157
1393.00,-0.0158
1392.00,-0.0159
1391.00,-0.0159
1390.00,-0.0160
1389.00,-0.0162
1388.00,-0.0163
1387.00,-0.0165
1386.00,-0.0167
1385.00,-0.0171
1384.00,-0.0174
1383.00,-0.0177
1382.00,-0.0180
1381.00,-0.0183
1380.00,-0.0185
1379.00,-0.0186
1378.00,-0.0188
1377.00,-0.0190
1376.00,-0.0193
1375.00,-0.0195
1374.00,-0.0198
1373.00,-0.0201
1372.00,-0.0203
1371.00,-0.0205
1370.00,-0.0206
1369.00,-0.0207
1368.00,-0.0208
1367.00,-0.0210
1366.00,-0.0212
1365.00,-0.0215
1364.00,-0.0217
1363.00,-0.0219
1362.00,-0.0221
1361.00,-0.0222
1360.00,-0.0222
1359.00,-0.0222
1358.00,-0.0221
1357.00,-0.0220
1356.00,-0.0218
1355.00,-0.0215
1354.00,-0.0212
1353.00,-0.0210
1352.00,-0.0207
1351.00,-0.0204
1350.00,-0.0201
1349.00,-0.0199
1348.00,-0.0197
1347.00,-0.0195
1346.00,-0.0193
1345.00,-0.0192
1344.00,-0.0191
1343.00,-0.0190
1342.00,-0.0189
1341.00,-0.0188
1340.00,-0.0188
1339.00,-0.0188
1338.00,-0.0188
1337.00,-0.0188
1336.00,-0.0188
1335.00,-0.0189
1334.00,-0.0189
1333.00,-0.0189
1332.00,-0.0189
1331.00,-0.0190
1330.00,-0.0190
1329.00,-0.0190
1328.00,-0.0191
1327.00,-0.0191
1326.00,-0.0192
1325.00,-0.0192
1324.00,-0.0193
1323.00,-0.0193
1322.00,-0.0194
1321.00,-0.0194
1320.00,-0.0194
1319.00,-0.0195
1318.00,-0.0195
1317.00,-0.0195
1316.00,-0.0195
1315.00,-0.0195
1314.00,-0.0195
1313.00,-0.0195
1312.00,-0.0195
1311.00,-0.0195
1310.00,-0.0196
1309.00,-0.0196
1308.00,-0.0196
1307.00,-0.0197
1306.00,-0.0198
1305.00,-0.0198
1304.00,-0.0199
1303.00,-0.0200
1302.00,-0.0201
1301.00,-0.0202
1300.00,-0.0203
1299.00,-0.0204
1298.00,-0.0205
1297.00,-0.0207
1296.00,-0.0208
1295.00,-0.0209
1294.00,-0.0210
1293.00,-0.0211
1292.00,-0.0212
1291.00,-0.0212
1290.00,-0.0213
1289.00,-0.0214
1288.00,-0.0215
1287.00,-0.0216
1286.00,-0.0217
1285.00,-0.0218
1284.00,-0.0220
1283.00,-0.0221
1282.00,-0.0223
1281.00,-0.0225
1280.00,-0.0227
1279.00,-0.0229
1278.00,-0.0231
1277.00,-0.0233
1276.00,-0.0235
1275.00,-0.0237
1274.00,-0.0239
1273.00,-0.0241
1272.00,-0.0243
1271.00,-0.0244
1270.00,-0.0246
1269.00,-0.0248
1268.00,-0.0251
1267.00,-0.0253
1266.00,-0.0255
1265.00,-0.0257
1264.00,-0.0259
1263.00,-0.0261
1262.00,-0.0263
1261.00,-0.0266
1260.00,-0.0268
1259.00,-0.0271
1258.00,-0.0273
1257.00,-0.0275
1256.00,-0.0275
1255.00,-0.0275
1254.00,-0.0275
1253.00,-0.0273
1252.00,-0.0272
1251.00,-0.0269
1250.00,-0.0266
1249.00,-0.0262
1248.00,-0.0258
1247.00,-0.0254
1246.00,-0.0250
1245.00,-0.0246
1244.00,-0.0242
1243.00,-0.0238
1242.00,-0.0233
1241.00,-0.0229
1240.00,-0.0225
1239.00,-0.0220
1238.00,-0.0214
1237.00,-0.0209
1236.00,-0.0203
1235.00,-0.0197
1234.00,-0.0192
1233.00,-0.0187
1232.00,-0.0182
1231.00,-0.0178
1230.00,-0.0173
1229.00,-0.0169
1228.00,-0.0165
1227.00,-0.0162
1226.00,-0.0159
1225.00,-0.0157
1224.00,-0.0156
1223.00,-0.0154
1222.00,-0.0153
1221.00,-0.0152
1220.00,-0.0152
1219.00,-0.0152
1218.00,-0.0153
1217.00,-0.0154
1216.00,-0.0156
1215.00,-0.0157
1214.00,-0.0159
1213.00,-0.0161
1212.00,-0.0164
1211.00,-0.0166
1210.00,-0.0169
1209.00,-0.0171
1208.00,-0.0174
1207.00,-0.0177
1206.00,-0.0181
1205.00,-0.0184
1204.00,-0.0188
1203.00,-0.0191
1202.00,-0.0195
1201.00,-0.0199
1200.00,-0.0203
1199.00,-0.0207
1198.00,-0.0211
1197.00,-0.0214
1196.00,-0.0218
1195.00,-0.0221
1194.00,-0.0224
1193.00,-0.0227
1192.00,-0.0231
1191.00,-0.0234
1190.00,-0.0237
1189.00,-0.0240
1188.00,-0.0243
1187.00,-0.0245
1186.00,-0.0248
1185.00,-0.0251
1184.00,-0.0253
1183.00,-0.0256
1182.00,-0.0259
1181.00,-0.0262
1180.00,-0.0265
1179.00,-0.0267
1178.00,-0.0269
1177.00,-0.0270
1176.00,-0.0271
1175.00,-0.0272
1174.00,-0.0272
1173.00,-0.0272
1172.00,-0.0273
1171.00,-0.0273
1170.00,-0.0274
1169.00,-0.0274
1168.00,-0.0275
1167.00,-0.0275
1166.00,-0.0276
1165.00,-0.0276
1164.00,-0.0277
1163.00,-0.0277
1162.00,-0.0276
1161.00,-0.0276
1160.00,-0.0275
1159.00,-0.0276
1158.00,-0.0276
1157.00,-0.0277
1156.00,-0.0278
1155.00,-0.0279
1154.00,-0.0281
1153.00,-0.0283
1152.00,-0.0285
1151.00,-0.0287
1150.00,-0.0289
1149.00,-0.0291
1148.00,-0.0293
1147.00,-0.0295
1146.00,-0.0297
1145.00,-0.0298
1144.00,-0.0299
1143.00,-0.0300
1142.00,-0.0301
1141.00,-0.0302
1140.00,-0.0303
1139.00,-0.0305
1138.00,-0.0306
1137.00,-0.0308
1136.00,-0.0311
1135.00,-0.0313
1134.00,-0.0314
1133.00,-0.0316
1132.00,-0.0317
1131.00,-0.0319
1130.00,-0.0319
1129.00,-0.0320
1128.00,-0.0320
1127.00,-0.0320
1126.00,-0.0319
1125.00,-0.0319
1124.00,-0.0320
1123.00,-0.0320
1122.00,-0.0321
1121.00,-0.0322
1120.00,-0.0322
1119.00,-0.0323
1118.00,-0.0323
1117.00,-0.0322
1116.00,-0.0322
1115.00,-0.0321
1114.00,-0.0321
1113.00,-0.0321
1112.00,-0.0321
1111.00,-0.0322
1110.00,-0.0323
1109.00,-0.0323
1108.00,-0.0324
1107.00,-0.0324
1106.00,-0.0324
1105.00,-0.0324
1104.00,-0.0325
1103.00,-0.0326
1102.00,-0.0326
1101.00,-0.0327
1100.00,-0.0328
1099.00,-0.0328
1098.00,-0.0328
1097.00,-0.0329
1096.00,-0.0329
1095.00,-0.0329
1094.00,-0.0329
1093.00,-0.0329
1092.00,-0.0329
1091.00,-0.0328
1090.00,-0.0326
1089.00,-0.0325
1088.00,-0.0323
1087.00,-0.0321
1086.00,-0.0318
1085.00,-0.0315
1084.00,-0.0313
1083.00,-0.0310
1082.00,-0.0307
1081.00,-0.0304
1080.00,-0.0302
1079.00,-0.0299
1078.00,-0.0296
1077.00,-0.0293
1076.00,-0.0291
1075.00,-0.0289
1074.00,-0.0287
1073.00,-0.0285
1072.00,-0.0283
1071.00,-0.0281
1070.00,-0.0278
1069.00,-0.0276
1068.00,-0.0275
1067.00,-0.0273
1066.00,-0.0272
1065.00,-0.0271
1064.00,-0.0271
1063.00,-0.0271
1062.00,-0.0272
1061.00,-0.0273
1060.00,-0.0274
1059.00,-0.0275
1058.00,-0.0277
1057.00,-0.0279
1056.00,-0.0281
1055.00,-0.0283
1054.00,-0.0285
1053.00,-0.0287
1052.00,-0.0289
1051.00,-0.0290
1050.00,-0.0291
1049.00,-0.0291
1048.00,-0.0293
1047.00,-0.0294
1046.00,-0.0296
1045.00,-0.0298
1044.00,-0.0300
1043.00,-0.0302
1042.00,-0.0304
1041.00,-0.0306
1040.00,-0.0308
1039.00,-0.0311
1038.00,-0.0313
1037.00,-0.0316
1036.00,-0.0318
1035.00,-0.0320
1034.00,-0.0322
1033.00,-0.0324
1032.00,-0.0327
1031.00,-0.0330
1030.00,-0.0332
1029.00,-0.0335
1028.00,-0.0338
1027.00,-0.0341
1026.00,-0.0344
1025.00,-0.0348
1024.00,-0.0353
1023.00,-0.0357
1022.00,-0.0361
1021.00,-0.0363
1020.00,-0.0366
1019.00,-0.0369
1018.00,-0.0371
1017.00,-0.0374
1016.00,-0.0376
1015.00,-0.0379
1014.00,-0.0381
1013.00,-0.0383
1012.00,-0.0385
1011.00,-0.0387
1010.00,-0.0389
1009.00,-0.0391
1008.00,-0.0394
1007.00,-0.0396
1006.00,-0.0397
1005.00,-0.0399
1004.00,-0.0401
1003.00,-0.0402
1002.00,-0.0403
1001.00,-0.0405
1000.00,-0.0407
999.00,-0.0409
998.00,-0.0410
997.00,-0.0411
996.00,-0.0413
995.00,-0.0413
994.00,-0.0414
993.00,-0.0414
992.00,-0.0415
991.00,-0.0416
990.00,-0.0416
989.00,-0.0416
988.00,-0.0417
987.00,-0.0418
986.00,-0.0419
985.00,-0.0419
984.00,-0.0420
983.00,-0.0420
982.00,-0.0420
981.00,-0.0420
980.00,-0.0421
979.00,-0.0423
978.00,-0.0424
977.00,-0.0426
976.00,-0.0429
975.00,-0.0431
974.00,-0.0433
973.00,-0.0436
972.00,-0.0439
971.00,-0.0441
970.00,-0.0443
969.00,-0.0445
968.00,-0.0447
967.00,-0.0448
966.00,-0.0449
965.00,-0.0449
964.00,-0.0450
963.00,-0.0451
962.00,-0.0453
961.00,-0.0454
960.00,-0.0456
959.00,-0.0458
958.00,-0.0460
957.00,-0.0462
956.00,-0.0464
955.00,-0.0466
954.00,-0.0467
953.00,-0.0469
952.00,-0.0469
951.00,-0.0470
950.00,-0.0470
949.00,-0.0469
948.00,-0.0470
947.00,-0.0470
946.00,-0.0470
945.00,-0.0469
944.00,-0.0468
943.00,-0.0467
942.00,-0.0465
941.00,-0.0463
940.00,-0.0462
939.00,-0.0461
938.00,-0.0459
937.00,-0.0457
936.00,-0.0455
935.00,-0.0452
934.00,-0.0449
933.00,-0.0447
932.00,-0.0445
931.00,-0.0444
930.00,-0.0442
929.00,-0.0442
928.00,-0.0442
927.00,-0.0443
926.00,-0.0445
925.00,-0.0447
924.00,-0.0450
923.00,-0.0452
922.00,-0.0454
921.00,-0.0457
920.00,-0.0460
919.00,-0.0462
918.00,-0.0465
917.00,-0.0466
916.00,-0.0468
915.00,-0.0469
914.00,-0.0470
913.00,-0.0471
912.00,-0.0472
911.00,-0.0472
910.00,-0.0471
909.00,-0.0470
908.00,-0.0469
907.00,-0.0469
906.00,-0.0467
905.00,-0.0466
904.00,-0.0465
903.00,-0.0463
902.00,-0.0462
901.00,-0.0460
900.00,-0.0458
899.00,-0.0457
898.00,-0.0456
897.00,-0.0455
896.00,-0.0455
895.00,-0.0455
894.00,-0.0454
893.00,-0.0454
892.00,-0.0453
891.00,-0.0453
890.00,-0.0453
889.00,-0.0454
888.00,-0.0454
887.00,-0.0454
886.00,-0.0454
885.00,-0.0453
884.00,-0.0452
883.00,-0.0452
882.00,-0.0451
881.00,-0.0451
880.00,-0.0451
879.00,-0.0451
878.00,-0.0450
877.00,-0.0450
876.00,-0.0450
875.00,-0.0450
874.00,-0.0450
873.00,-0.0449
872.00,-0.0450
871.00,-0.0451
870.00,-0.0452
869.00,-0.0453
868.00,-0.0455
867.00,-0.0456
866.00,-0.0457
865.00,-0.0458
864.00,-0.0459
863.00,-0.0460
862.00,-0.0460
861.00,-0.0462
860.00,-0.0463
859.00,-0.0464
858.00,-0.0464
857.00,-0.0464
856.00,-0.0465
855.00,-0.0465
854.00,-0.0466
853.00,-0.0465
852.00,-0.0465
851.00,-0.0465
850.00,-0.0466
849.00,-0.0466
848.00,-0.0467
847.00,-0.0467
846.00,-0.0467
845.00,-0.0467
844.00,-0.0468
843.00,-0.0468
842.00,-0.0469
841.00,-0.0470
840.00,-0.0469
839.00,-0.0468
838.00,-0.0467
837.00,-0.0466
836.00,-0.0465
835.00,-0.0464
834.00,-0.0464
833.00,-0.0464
832.00,-0.0464
831.00,-0.0465
830.00,-0.0464
829.00,-0.0464
828.00,-0.0465
827.00,-0.0464
826.00,-0.0464
825.00,-0.0463
824.00,-0.0464
823.00,-0.0464
822.00,-0.0464
821.00,-0.0463
820.00,-0.0463
819.00,-0.0462
818.00,-0.0461
817.00,-0.0460
816.00,-0.0459
815.00,-0.0459
814.00,-0.0459
813.00,-0.0458
812.00,-0.0458
811.00,-0.0457
810.00,-0.0456
809.00,-0.0455
808.00,-0.0455
807.00,-0.0455
806.00,-0.0455
805.00,-0.0454
804.00,-0.0453
803.00,-0.0452
802.00,-0.0451
801.00,-0.0451
800.00,-0.0451
799.00,-0.0451
798.00,-0.0451
797.00,-0.0451
796.00,-0.0451
795.00,-0.0451
794.00,-0.0450
793.00,-0.0450
792.00,-0.0450
791.00,-0.0450
790.00,-0.0450
789.00,-0.0450
788.00,-0.0451
787.00,-0.0452
786.00,-0.0453
785.00,-0.0454
784.00,-0.0455
783.00,-0.0457
782.00,-0.0458
781.00,-0.0460
780.00,-0.0461
779.00,-0.0462
778.00,-0.0462
777.00,-0.0461
776.00,-0.0460
775.00,-0.0459
774.00,-0.0458
773.00,-0.0459
772.00,-0.0462
771.00,-0.0468
770.00,-0.0475
769.00,-0.0481
768.00,-0.0482
767.00,-0.0478
766.00,-0.0469
765.00,-0.0460
764.00,-0.0453
763.00,-0.0448
762.00,-0.0445
761.00,-0.0442
760.00,-0.0441
759.00,-0.0439
758.00,-0.0436
757.00,-0.0433
756.00,-0.0431
755.00,-0.0429
754.00,-0.0426
753.00,-0.0422
752.00,-0.0419
751.00,-0.0416
750.00,-0.0412
749.00,-0.0409
748.00,-0.0406
747.00,-0.0403
746.00,-0.0400
745.00,-0.0398
744.00,-0.0396
743.00,-0.0395
742.00,-0.0393
741.00,-0.0391
740.00,-0.0390
739.00,-0.0390
738.00,-0.0390
737.00,-0.0390
736.00,-0.0389
735.00,-0.0388
734.00,-0.0386
733.00,-0.0384
732.00,-0.0382
731.00,-0.0380
730.00,-0.0377
729.00,-0.0375
728.00,-0.0373
727.00,-0.0370
726.00,-0.0367
725.00,-0.0364
724.00,-0.0360
723.00,-0.0356
722.00,-0.0352
721.00,-0.0347
720.00,-0.0344
719.00,-0.0340
718.00,-0.0336
717.00,-0.0332
716.00,-0.0329
715.00,-0.0325
714.00,-0.0321
713.00,-0.0317
712.00,-0.0313
711.00,-0.0308
710.00,-0.0303
709.00,-0.0297
708.00,-0.0292
707.00,-0.0286
706.00,-0.0279
705.00,-0.0273
704.00,-0.0267
703.00,-0.0261
702.00,-0.0256
701.00,-0.0252
700.00,-0.0250
699.00,-0.0248
698.00,-0.0246
697.00,-0.0245
696.00,-0.0245
695.00,-0.0244
694.00,-0.0244
693.00,-0.0245
692.00,-0.0246
691.00,-0.0247
690.00,-0.0248
689.00,-0.0248
688.00,-0.0249
687.00,-0.0249
686.00,-0.0248
685.00,-0.0247
684.00,-0.0246
683.00,-0.0245
682.00,-0.0244
681.00,-0.0244
680.00,-0.0245
679.00,-0.0246
678.00,-0.0247
677.00,-0.0247
676.00,-0.0247
675.00,-0.0247
674.00,-0.0248
673.00,-0.0248
672.00,-0.0249
671.00,-0.0250
670.00,-0.0250
669.00,-0.0251
668.00,-0.0252
667.00,-0.0252
666.00,-0.0250
665.00,-0.0249
664.00,-0.0248
663.00,-0.0248
662.00,-0.0247
661.00,-0.0246
660.00,-0.0246
659.00,-0.0247
658.00,-0.0247
657.00,-0.0248
656.00,-0.0248
655.00,-0.0247
654.00,-0.0246
653.00,-0.0244
652.00,-0.0244
651.00,-0.0244
650.00,-0.0243
649.00,-0.0241
648.00,-0.0240
647.00,-0.0240
646.00,-0.0238
645.00,-0.0237
644.00,-0.0237
643.00,-0.0236
642.00,-0.0234
641.00,-0.0233
640.00,-0.0233
639.00,-0.0232
638.00,-0.0230
637.00,-0.0228
636.00,-0.0226
635.00,-0.0224
634.00,-0.0222
633.00,-0.0221
632.00,-0.0221
631.00,-0.0221
630.00,-0.0221
629.00,-0.0220
628.00,-0.0220
627.00,-0.0220
626.00,-0.0219
625.00,-0.0219
624.00,-0.0220
623.00,-0.0220
622.00,-0.0221
621.00,-0.0221
620.00,-0.0222
619.00,-0.0222
618.00,-0.0222
617.00,-0.0222
616.00,-0.0223
615.00,-0.0224
614.00,-0.0224
613.00,-0.0224
612.00,-0.0225
611.00,-0.0227
610.00,-0.0227
609.00,-0.0227
608.00,-0.0229
607.00,-0.0231
606.00,-0.0233
605.00,-0.0234
604.00,-0.0235
603.00,-0.0235
602.00,-0.0235
601.00,-0.0235
600.00,-0.0237
599.00,-0.0239
598.00,-0.0239
597.00,-0.0239
596.00,-0.0240
595.00,-0.0241
594.00,-0.0241
593.00,-0.0241
592.00,-0.0241
591.00,-0.0240
590.00,-0.0238
589.00,-0.0236
588.00,-0.0236
587.00,-0.0236
586.00,-0.0234
585.00,-0.0233
584.00,-0.0234
583.00,-0.0234
582.00,-0.0233
581.00,-0.0233
580.00,-0.0233
579.00,-0.0232
578.00,-0.0231
577.00,-0.0231
576.00,-0.0232
575.00,-0.0232
574.00,-0.0230
573.00,-0.0230
572.00,-0.0232
571.00,-0.0235
570.00,-0.0238
569.00,-0.0239
568.00,-0.0239
567.00,-0.0236
566.00,-0.0232
565.00,-0.0230
564.00,-0.0230
563.00,-0.0232
562.00,-0.0232
561.00,-0.0232
560.00,-0.0232
559.00,-0.0231
558.00,-0.0230
557.00,-0.0229
556.00,-0.0229
555.00,-0.0229
554.00,-0.0229
553.00,-0.0231
552.00,-0.0234
551.00,-0.0236
550.00,-0.0235
549.00,-0.0233
548.00,-0.0234
547.00,-0.0236
546.00,-0.0237
545.00,-0.0238
544.00,-0.0238
543.00,-0.0237
542.00,-0.0236
541.00,-0.0234
540.00,-0.0234
539.00,-0.0235
538.00,-0.0236
537.00,-0.0239
536.00,-0.0242
535.00,-0.0244
534.00,-0.0244
533.00,-0.0242
532.00,-0.0240
531.00,-0.0239
530.00,-0.0238
529.00,-0.0238
528.00,-0.0240
527.00,-0.0241
526.00,-0.0240
525.00,-0.0239
524.00,-0.0241
523.00,-0.0245
522.00,-0.0247
521.00,-0.0250
520.00,-0.0252
519.00,-0.0252
518.00,-0.0252
517.00,-0.0253
516.00,-0.0257
515.00,-0.0259
514.00,-0.0261
513.00,-0.0264
512.00,-0.0270
511.00,-0.0274
510.00,-0.0274
509.00,-0.0272
508.00,-0.0271
507.00,-0.0270
506.00,-0.0268
505.00,-0.0267
504.00,-0.0268
503.00,-0.0269
502.00,-0.0269
501.00,-0.0270
500.00,-0.0272
499.00,-0.0272
498.00,-0.0269
497.00,-0.0267
496.00,-0.0269
495.00,-0.0271
494.00,-0.0272
493.00,-0.0272
492.00,-0.0274
491.00,-0.0276
490.00,-0.0277
489.00,-0.0280
488.00,-0.0284
487.00,-0.0285
486.00,-0.0284
485.00,-0.0283
484.00,-0.0286
483.00,-0.0290
482.00,-0.0292
481.00,-0.0294
480.00,-0.0296
479.00,-0.0296
478.00,-0.0293
477.00,-0.0291
476.00,-0.0292
475.00,-0.0293
474.00,-0.0294
473.00,-0.0295
472.00,-0.0298
471.00,-0.0297
470.00,-0.0291
469.00,-0.0286
468.00,-0.0285
467.00,-0.0285
466.00,-0.0286
465.00,-0.0289
464.00,-0.0294
463.00,-0.0298
462.00,-0.0297
461.00,-0.0294
460.00,-0.0295
459.00,-0.0296
458.00,-0.0298
457.00,-0.0300
456.00,-0.0303
455.00,-0.0301
454.00,-0.0295
453.00,-0.0291
452.00,-0.0293
451.00,-0.0297
450.00,-0.0300
449.00,-0.0302
448.00,-0.0306
447.00,-0.0307
446.00,-0.0302
445.00,-0.0298
444.00,-0.0297
443.00,-0.0298
442.00,-0.0296
441.00,-0.0297
440.00,-0.0304
439.00,-0.0312
438.00,-0.0316
437.00,-0.0318
436.00,-0.0320
435.00,-0.0320
434.00,-0.0317
433.00,-0.0317
432.00,-0.0323
431.00,-0.0330
430.00,-0.0330
429.00,-0.0330
428.00,-0.0334
427.00,-0.0341
426.00,-0.0344
425.00,-0.0347
424.00,-0.0349
423.00,-0.0347
422.00,-0.0340
421.00,-0.0339
420.00,-0.0346
419.00,-0.0351
418.00,-0.0344
417.00,-0.0336
416.00,-0.0336
415.00,-0.0338
414.00,-0.0336
413.00,-0.0339
412.00,-0.0351
411.00,-0.0363
410.00,-0.0363
409.00,-0.0363
408.00,-0.0370
407.00,-0.0376
406.00,-0.0371
405.00,-0.0365
404.00,-0.0374
403.00,-0.0387
402.00,-0.0390
401.00,-0.0385
400.00,-0.0384
