Created as New Dataset,Sample 596 By YargerLab Date Thursday, June 05 2025
cm-1,A
4000.00,0.0089
3999.00,0.0089
3998.00,0.0089
3997.00,0.0089
3996.00,0.0089
3995.00,0.0089
3994.00,0.0089
3993.00,0.0089
3992.00,0.0089
3991.00,0.0089
3990.00,0.0088
3989.00,0.0088
3988.00,0.0088
3987.00,0.0088
3986.00,0.0089
3985.00,0.0089
3984.00,0.0089
3983.00,0.0089
3982.00,0.0089
3981.00,0.0089
3980.00,0.0089
3979.00,0.0088
3978.00,0.0088
3977.00,0.0088
3976.00,0.0088
3975.00,0.0088
3974.00,0.0089
3973.00,0.0089
3972.00,0.0089
3971.00,0.0089
3970.00,0.0089
3969.00,0.0089
3968.00,0.0089
3967.00,0.0089
3966.00,0.0089
3965.00,0.0089
3964.00,0.0088
3963.00,0.0088
3962.00,0.0088
3961.00,0.0088
3960.00,0.0088
3959.00,0.0088
3958.00,0.0088
3957.00,0.0088
3956.00,0.0088
3955.00,0.0088
3954.00,0.0088
3953.00,0.0088
3952.00,0.0088
3951.00,0.0088
3950.00,0.0088
3949.00,0.0088
3948.00,0.0088
3947.00,0.0088
3946.00,0.0088
3945.00,0.0088
3944.00,0.0088
3943.00,0.0088
3942.00,0.0088
3941.00,0.0088
3940.00,0.0088
3939.00,0.0088
3938.00,0.0088
3937.00,0.0088
3936.00,0.0087
3935.00,0.0087
3934.00,0.0088
3933.00,0.0088
3932.00,0.0088
3931.00,0.0088
3930.00,0.0088
3929.00,0.0087
3928.00,0.0087
3927.00,0.0087
3926.00,0.0087
3925.00,0.0087
3924.00,0.0087
3923.00,0.0087
3922.00,0.0088
3921.00,0.0088
3920.00,0.0088
3919.00,0.0087
3918.00,0.0087
3917.00,0.0087
3916.00,0.0087
3915.00,0.0087
3914.00,0.0087
3913.00,0.0087
3912.00,0.0087
3911.00,0.0087
3910.00,0.0087
3909.00,0.0087
3908.00,0.0087
3907.00,0.0087
3906.00,0.0087
3905.00,0.0087
3904.00,0.0087
3903.00,0.0087
3902.00,0.0087
3901.00,0.0087
3900.00,0.0087
3899.00,0.0087
3898.00,0.0087
3897.00,0.0087
3896.00,0.0087
3895.00,0.0087
3894.00,0.0087
3893.00,0.0087
3892.00,0.0087
3891.00,0.0086
3890.00,0.0086
3889.00,0.0086
3888.00,0.0086
3887.00,0.0086
3886.00,0.0086
3885.00,0.0086
3884.00,0.0086
3883.00,0.0085
3882.00,0.0085
3881.00,0.0085
3880.00,0.0085
3879.00,0.0085
3878.00,0.0085
3877.00,0.0085
3876.00,0.0085
3875.00,0.0085
3874.00,0.0086
3873.00,0.0086
3872.00,0.0086
3871.00,0.0085
3870.00,0.0085
3869.00,0.0085
3868.00,0.0085
3867.00,0.0085
3866.00,0.0085
3865.00,0.0085
3864.00,0.0086
3863.00,0.0086
3862.00,0.0085
3861.00,0.0085
3860.00,0.0085
3859.00,0.0085
3858.00,0.0085
3857.00,0.0085
3856.00,0.0085
3855.00,0.0084
3854.00,0.0084
3853.00,0.0084
3852.00,0.0084
3851.00,0.0084
3850.00,0.0084
3849.00,0.0084
3848.00,0.0084
3847.00,0.0084
3846.00,0.0084
3845.00,0.0084
3844.00,0.0084
3843.00,0.0084
3842.00,0.0084
3841.00,0.0084
3840.00,0.0084
3839.00,0.0084
3838.00,0.0084
3837.00,0.0084
3836.00,0.0084
3835.00,0.0084
3834.00,0.0084
3833.00,0.0084
3832.00,0.0084
3831.00,0.0084
3830.00,0.0084
3829.00,0.0084
3828.00,0.0084
3827.00,0.0084
3826.00,0.0084
3825.00,0.0084
3824.00,0.0084
3823.00,0.0084
3822.00,0.0084
3821.00,0.0083
3820.00,0.0083
3819.00,0.0083
3818.00,0.0083
3817.00,0.0083
3816.00,0.0083
3815.00,0.0083
3814.00,0.0083
3813.00,0.0083
3812.00,0.0084
3811.00,0.0084
3810.00,0.0084
3809.00,0.0084
3808.00,0.0084
3807.00,0.0083
3806.00,0.0083
3805.00,0.0083
3804.00,0.0083
3803.00,0.0083
3802.00,0.0083
3801.00,0.0083
3800.00,0.0083
3799.00,0.0083
3798.00,0.0083
3797.00,0.0083
3796.00,0.0083
3795.00,0.0083
3794.00,0.0084
3793.00,0.0083
3792.00,0.0083
3791.00,0.0083
3790.00,0.0083
3789.00,0.0083
3788.00,0.0083
3787.00,0.0083
3786.00,0.0083
3785.00,0.0083
3784.00,0.0083
3783.00,0.0083
3782.00,0.0083
3781.00,0.0083
3780.00,0.0083
3779.00,0.0083
3778.00,0.0083
3777.00,0.0083
3776.00,0.0083
3775.00,0.0083
3774.00,0.0083
3773.00,0.0083
3772.00,0.0083
3771.00,0.0083
3770.00,0.0083
3769.00,0.0083
3768.00,0.0083
3767.00,0.0083
3766.00,0.0082
3765.00,0.0083
3764.00,0.0083
3763.00,0.0083
3762.00,0.0082
3761.00,0.0082
3760.00,0.0082
3759.00,0.0082
3758.00,0.0082
3757.00,0.0082
3756.00,0.0082
3755.00,0.0082
3754.00,0.0082
3753.00,0.0082
3752.00,0.0082
3751.00,0.0082
3750.00,0.0081
3749.00,0.0081
3748.00,0.0081
3747.00,0.0081
3746.00,0.0081
3745.00,0.0080
3744.00,0.0080
3743.00,0.0081
3742.00,0.0081
3741.00,0.0081
3740.00,0.0081
3739.00,0.0080
3738.00,0.0080
3737.00,0.0080
3736.00,0.0081
3735.00,0.0081
3734.00,0.0081
3733.00,0.0081
3732.00,0.0080
3731.00,0.0081
3730.00,0.0081
3729.00,0.0081
3728.00,0.0081
3727.00,0.0081
3726.00,0.0081
3725.00,0.0080
3724.00,0.0080
3723.00,0.0080
3722.00,0.0081
3721.00,0.0081
3720.00,0.0080
3719.00,0.0080
3718.00,0.0080
3717.00,0.0080
3716.00,0.0080
3715.00,0.0081
3714.00,0.0081
3713.00,0.0080
3712.00,0.0080
3711.00,0.0080
3710.00,0.0080
3709.00,0.0080
3708.00,0.0080
3707.00,0.0080
3706.00,0.0080
3705.00,0.0080
3704.00,0.0080
3703.00,0.0080
3702.00,0.0081
3701.00,0.0081
3700.00,0.0080
3699.00,0.0080
3698.00,0.0080
3697.00,0.0080
3696.00,0.0080
3695.00,0.0080
3694.00,0.0080
3693.00,0.0081
3692.00,0.0081
3691.00,0.0081
3690.00,0.0080
3689.00,0.0080
3688.00,0.0080
3687.00,0.0080
3686.00,0.0080
3685.00,0.0080
3684.00,0.0081
3683.00,0.0081
3682.00,0.0081
3681.00,0.0082
3680.00,0.0082
3679.00,0.0082
3678.00,0.0082
3677.00,0.0081
3676.00,0.0081
3675.00,0.0081
3674.00,0.0081
3673.00,0.0082
3672.00,0.0082
3671.00,0.0082
3670.00,0.0083
3669.00,0.0083
3668.00,0.0084
3667.00,0.0084
3666.00,0.0084
3665.00,0.0084
3664.00,0.0084
3663.00,0.0084
3662.00,0.0085
3661.00,0.0085
3660.00,0.0086
3659.00,0.0086
3658.00,0.0086
3657.00,0.0087
3656.00,0.0087
3655.00,0.0087
3654.00,0.0088
3653.00,0.0088
3652.00,0.0088
3651.00,0.0088
3650.00,0.0089
3649.00,0.0089
3648.00,0.0090
3647.00,0.0090
3646.00,0.0091
3645.00,0.0091
3644.00,0.0092
3643.00,0.0092
3642.00,0.0092
3641.00,0.0093
3640.00,0.0093
3639.00,0.0094
3638.00,0.0094
3637.00,0.0095
3636.00,0.0095
3635.00,0.0096
3634.00,0.0096
3633.00,0.0097
3632.00,0.0097
3631.00,0.0098
3630.00,0.0098
3629.00,0.0099
3628.00,0.0100
3627.00,0.0101
3626.00,0.0102
3625.00,0.0102
3624.00,0.0103
3623.00,0.0103
3622.00,0.0104
3621.00,0.0104
3620.00,0.0105
3619.00,0.0105
3618.00,0.0106
3617.00,0.0107
3616.00,0.0107
3615.00,0.0107
3614.00,0.0108
3613.00,0.0108
3612.00,0.0109
3611.00,0.0110
3610.00,0.0111
3609.00,0.0112
3608.00,0.0113
3607.00,0.0114
3606.00,0.0115
3605.00,0.0115
3604.00,0.0115
3603.00,0.0116
3602.00,0.0116
3601.00,0.0117
3600.00,0.0118
3599.00,0.0118
3598.00,0.0119
3597.00,0.0119
3596.00,0.0120
3595.00,0.0120
3594.00,0.0121
3593.00,0.0122
3592.00,0.0123
3591.00,0.0123
3590.00,0.0124
3589.00,0.0125
3588.00,0.0126
3587.00,0.0127
3586.00,0.0128
3585.00,0.0129
3584.00,0.0129
3583.00,0.0130
3582.00,0.0130
3581.00,0.0131
3580.00,0.0132
3579.00,0.0133
3578.00,0.0133
3577.00,0.0134
3576.00,0.0135
3575.00,0.0136
3574.00,0.0137
3573.00,0.0138
3572.00,0.0139
3571.00,0.0139
3570.00,0.0140
3569.00,0.0140
3568.00,0.0141
3567.00,0.0143
3566.00,0.0144
3565.00,0.0145
3564.00,0.0146
3563.00,0.0147
3562.00,0.0148
3561.00,0.0149
3560.00,0.0149
3559.00,0.0150
3558.00,0.0151
3557.00,0.0152
3556.00,0.0153
3555.00,0.0154
3554.00,0.0155
3553.00,0.0156
3552.00,0.0157
3551.00,0.0157
3550.00,0.0158
3549.00,0.0158
3548.00,0.0159
3547.00,0.0160
3546.00,0.0162
3545.00,0.0163
3544.00,0.0164
3543.00,0.0165
3542.00,0.0165
3541.00,0.0166
3540.00,0.0167
3539.00,0.0168
3538.00,0.0169
3537.00,0.0170
3536.00,0.0171
3535.00,0.0172
3534.00,0.0173
3533.00,0.0173
3532.00,0.0174
3531.00,0.0175
3530.00,0.0176
3529.00,0.0177
3528.00,0.0178
3527.00,0.0179
3526.00,0.0180
3525.00,0.0181
3524.00,0.0182
3523.00,0.0183
3522.00,0.0184
3521.00,0.0184
3520.00,0.0185
3519.00,0.0186
3518.00,0.0187
3517.00,0.0188
3516.00,0.0189
3515.00,0.0190
3514.00,0.0191
3513.00,0.0191
3512.00,0.0192
3511.00,0.0193
3510.00,0.0194
3509.00,0.0196
3508.00,0.0197
3507.00,0.0198
3506.00,0.0199
3505.00,0.0199
3504.00,0.0200
3503.00,0.0201
3502.00,0.0203
3501.00,0.0204
3500.00,0.0205
3499.00,0.0206
3498.00,0.0207
3497.00,0.0208
3496.00,0.0209
3495.00,0.0210
3494.00,0.0211
3493.00,0.0212
3492.00,0.0213
3491.00,0.0214
3490.00,0.0215
3489.00,0.0216
3488.00,0.0218
3487.00,0.0219
3486.00,0.0220
3485.00,0.0221
3484.00,0.0222
3483.00,0.0223
3482.00,0.0225
3481.00,0.0226
3480.00,0.0227
3479.00,0.0228
3478.00,0.0230
3477.00,0.0231
3476.00,0.0232
3475.00,0.0233
3474.00,0.0234
3473.00,0.0236
3472.00,0.0237
3471.00,0.0239
3470.00,0.0240
3469.00,0.0242
3468.00,0.0244
3467.00,0.0245
3466.00,0.0247
3465.00,0.0249
3464.00,0.0251
3463.00,0.0253
3462.00,0.0255
3461.00,0.0257
3460.00,0.0260
3459.00,0.0263
3458.00,0.0266
3457.00,0.0269
3456.00,0.0272
3455.00,0.0275
3454.00,0.0278
3453.00,0.0281
3452.00,0.0283
3451.00,0.0284
3450.00,0.0286
3449.00,0.0287
3448.00,0.0288
3447.00,0.0289
3446.00,0.0290
3445.00,0.0290
3444.00,0.0289
3443.00,0.0289
3442.00,0.0288
3441.00,0.0288
3440.00,0.0288
3439.00,0.0288
3438.00,0.0288
3437.00,0.0288
3436.00,0.0288
3435.00,0.0289
3434.00,0.0290
3433.00,0.0290
3432.00,0.0291
3431.00,0.0292
3430.00,0.0293
3429.00,0.0294
3428.00,0.0295
3427.00,0.0297
3426.00,0.0298
3425.00,0.0299
3424.00,0.0300
3423.00,0.0301
3422.00,0.0302
3421.00,0.0304
3420.00,0.0305
3419.00,0.0307
3418.00,0.0308
3417.00,0.0310
3416.00,0.0312
3415.00,0.0313
3414.00,0.0314
3413.00,0.0315
3412.00,0.0317
3411.00,0.0318
3410.00,0.0319
3409.00,0.0321
3408.00,0.0322
3407.00,0.0324
3406.00,0.0325
3405.00,0.0327
3404.00,0.0328
3403.00,0.0330
3402.00,0.0331
3401.00,0.0332
3400.00,0.0334
3399.00,0.0335
3398.00,0.0337
3397.00,0.0338
3396.00,0.0339
3395.00,0.0340
3394.00,0.0342
3393.00,0.0343
3392.00,0.0345
3391.00,0.0346
3390.00,0.0348
3389.00,0.0349
3388.00,0.0350
3387.00,0.0352
3386.00,0.0353
3385.00,0.0355
3384.00,0.0356
3383.00,0.0358
3382.00,0.0360
3381.00,0.0361
3380.00,0.0363
3379.00,0.0364
3378.00,0.0366
3377.00,0.0367
3376.00,0.0369
3375.00,0.0370
3374.00,0.0372
3373.00,0.0374
3372.00,0.0376
3371.00,0.0377
3370.00,0.0379
3369.00,0.0381
3368.00,0.0383
3367.00,0.0386
3366.00,0.0388
3365.00,0.0390
3364.00,0.0392
3363.00,0.0394
3362.00,0.0396
3361.00,0.0398
3360.00,0.0400
3359.00,0.0402
3358.00,0.0405
3357.00,0.0407
3356.00,0.0409
3355.00,0.0411
3354.00,0.0413
3353.00,0.0415
3352.00,0.0417
3351.00,0.0419
3350.00,0.0422
3349.00,0.0425
3348.00,0.0427
3347.00,0.0430
3346.00,0.0432
3345.00,0.0434
3344.00,0.0437
3343.00,0.0439
3342.00,0.0441
3341.00,0.0443
3340.00,0.0445
3339.00,0.0447
3338.00,0.0450
3337.00,0.0453
3336.00,0.0456
3335.00,0.0458
3334.00,0.0461
3333.00,0.0464
3332.00,0.0466
3331.00,0.0469
3330.00,0.0471
3329.00,0.0473
3328.00,0.0476
3327.00,0.0478
3326.00,0.0480
3325.00,0.0483
3324.00,0.0486
3323.00,0.0489
3322.00,0.0492
3321.00,0.0494
3320.00,0.0496
3319.00,0.0499
3318.00,0.0501
3317.00,0.0504
3316.00,0.0506
3315.00,0.0509
3314.00,0.0511
3313.00,0.0513
3312.00,0.0515
3311.00,0.0516
3310.00,0.0518
3309.00,0.0519
3308.00,0.0521
3307.00,0.0523
3306.00,0.0526
3305.00,0.0528
3304.00,0.0531
3303.00,0.0534
3302.00,0.0537
3301.00,0.0539
3300.00,0.0541
3299.00,0.0542
3298.00,0.0543
3297.00,0.0544
3296.00,0.0545
3295.00,0.0546
3294.00,0.0547
3293.00,0.0549
3292.00,0.0551
3291.00,0.0553
3290.00,0.0555
3289.00,0.0556
3288.00,0.0557
3287.00,0.0557
3286.00,0.0558
3285.00,0.0558
3284.00,0.0559
3283.00,0.0559
3282.00,0.0559
3281.00,0.0559
3280.00,0.0559
3279.00,0.0558
3278.00,0.0557
3277.00,0.0556
3276.00,0.0555
3275.00,0.0554
3274.00,0.0552
3273.00,0.0550
3272.00,0.0548
3271.00,0.0547
3270.00,0.0546
3269.00,0.0546
3268.00,0.0545
3267.00,0.0544
3266.00,0.0542
3265.00,0.0540
3264.00,0.0538
3263.00,0.0535
3262.00,0.0533
3261.00,0.0531
3260.00,0.0528
3259.00,0.0526
3258.00,0.0523
3257.00,0.0520
3256.00,0.0517
3255.00,0.0515
3254.00,0.0513
3253.00,0.0511
3252.00,0.0509
3251.00,0.0507
3250.00,0.0504
3249.00,0.0501
3248.00,0.0499
3247.00,0.0497
3246.00,0.0495
3245.00,0.0493
3244.00,0.0491
3243.00,0.0489
3242.00,0.0487
3241.00,0.0485
3240.00,0.0483
3239.00,0.0482
3238.00,0.0480
3237.00,0.0478
3236.00,0.0475
3235.00,0.0473
3234.00,0.0471
3233.00,0.0470
3232.00,0.0469
3231.00,0.0468
3230.00,0.0467
3229.00,0.0466
3228.00,0.0464
3227.00,0.0463
3226.00,0.0462
3225.00,0.0461
3224.00,0.0460
3223.00,0.0458
3222.00,0.0457
3221.00,0.0456
3220.00,0.0455
3219.00,0.0454
3218.00,0.0452
3217.00,0.0451
3216.00,0.0450
3215.00,0.0449
3214.00,0.0448
3213.00,0.0446
3212.00,0.0445
3211.00,0.0444
3210.00,0.0443
3209.00,0.0442
3208.00,0.0441
3207.00,0.0440
3206.00,0.0438
3205.00,0.0437
3204.00,0.0436
3203.00,0.0435
3202.00,0.0433
3201.00,0.0432
3200.00,0.0430
3199.00,0.0429
3198.00,0.0427
3197.00,0.0426
3196.00,0.0425
3195.00,0.0423
3194.00,0.0422
3193.00,0.0420
3192.00,0.0418
3191.00,0.0417
3190.00,0.0415
3189.00,0.0414
3188.00,0.0412
3187.00,0.0411
3186.00,0.0409
3185.00,0.0408
3184.00,0.0406
3183.00,0.0404
3182.00,0.0402
3181.00,0.0401
3180.00,0.0399
3179.00,0.0397
3178.00,0.0395
3177.00,0.0393
3176.00,0.0391
3175.00,0.0389
3174.00,0.0388
3173.00,0.0386
3172.00,0.0385
3171.00,0.0383
3170.00,0.0381
3169.00,0.0379
3168.00,0.0377
3167.00,0.0375
3166.00,0.0374
3165.00,0.0372
3164.00,0.0371
3163.00,0.0369
3162.00,0.0368
3161.00,0.0366
3160.00,0.0364
3159.00,0.0362
3158.00,0.0360
3157.00,0.0358
3156.00,0.0357
3155.00,0.0355
3154.00,0.0353
3153.00,0.0351
3152.00,0.0350
3151.00,0.0349
3150.00,0.0349
3149.00,0.0348
3148.00,0.0347
3147.00,0.0346
3146.00,0.0344
3145.00,0.0343
3144.00,0.0341
3143.00,0.0340
3142.00,0.0338
3141.00,0.0337
3140.00,0.0336
3139.00,0.0335
3138.00,0.0334
3137.00,0.0333
3136.00,0.0333
3135.00,0.0332
3134.00,0.0331
3133.00,0.0330
3132.00,0.0329
3131.00,0.0328
3130.00,0.0327
3129.00,0.0326
3128.00,0.0326
3127.00,0.0326
3126.00,0.0325
3125.00,0.0325
3124.00,0.0324
3123.00,0.0323
3122.00,0.0321
3121.00,0.0320
3120.00,0.0320
3119.00,0.0319
3118.00,0.0319
3117.00,0.0319
3116.00,0.0319
3115.00,0.0320
3114.00,0.0320
3113.00,0.0321
3112.00,0.0321
3111.00,0.0320
3110.00,0.0320
3109.00,0.0320
3108.00,0.0320
3107.00,0.0321
3106.00,0.0321
3105.00,0.0322
3104.00,0.0322
3103.00,0.0323
3102.00,0.0323
3101.00,0.0323
3100.00,0.0323
3099.00,0.0323
3098.00,0.0324
3097.00,0.0325
3096.00,0.0326
3095.00,0.0326
3094.00,0.0326
3093.00,0.0326
3092.00,0.0326
3091.00,0.0326
3090.00,0.0326
3089.00,0.0327
3088.00,0.0327
3087.00,0.0328
3086.00,0.0328
3085.00,0.0328
3084.00,0.0328
3083.00,0.0329
3082.00,0.0329
3081.00,0.0329
3080.00,0.0329
3079.00,0.0330
3078.00,0.0331
3077.00,0.0332
3076.00,0.0334
3075.00,0.0335
3074.00,0.0336
3073.00,0.0336
3072.00,0.0336
3071.00,0.0336
3070.00,0.0335
3069.00,0.0334
3068.00,0.0334
3067.00,0.0333
3066.00,0.0333
3065.00,0.0333
3064.00,0.0333
3063.00,0.0333
3062.00,0.0332
3061.00,0.0331
3060.00,0.0330
3059.00,0.0329
3058.00,0.0328
3057.00,0.0326
3056.00,0.0325
3055.00,0.0324
3054.00,0.0323
3053.00,0.0322
3052.00,0.0320
3051.00,0.0320
3050.00,0.0319
3049.00,0.0318
3048.00,0.0316
3047.00,0.0315
3046.00,0.0313
3045.00,0.0312
3044.00,0.0310
3043.00,0.0309
3042.00,0.0308
3041.00,0.0308
3040.00,0.0307
3039.00,0.0306
3038.00,0.0305
3037.00,0.0304
3036.00,0.0302
3035.00,0.0300
3034.00,0.0299
3033.00,0.0298
3032.00,0.0298
3031.00,0.0297
3030.00,0.0296
3029.00,0.0295
3028.00,0.0294
3027.00,0.0293
3026.00,0.0291
3025.00,0.0290
3024.00,0.0288
3023.00,0.0287
3022.00,0.0286
3021.00,0.0285
3020.00,0.0283
3019.00,0.0281
3018.00,0.0279
3017.00,0.0277
3016.00,0.0276
3015.00,0.0274
3014.00,0.0273
3013.00,0.0272
3012.00,0.0272
3011.00,0.0272
3010.00,0.0272
3009.00,0.0272
3008.00,0.0271
3007.00,0.0271
3006.00,0.0270
3005.00,0.0269
3004.00,0.0268
3003.00,0.0268
3002.00,0.0268
3001.00,0.0267
3000.00,0.0267
2999.00,0.0267
2998.00,0.0267
2997.00,0.0267
2996.00,0.0268
2995.00,0.0269
2994.00,0.0270
2993.00,0.0272
2992.00,0.0274
2991.00,0.0276
2990.00,0.0279
2989.00,0.0281
2988.00,0.0284
2987.00,0.0287
2986.00,0.0289
2985.00,0.0290
2984.00,0.0292
2983.00,0.0293
2982.00,0.0295
2981.00,0.0299
2980.00,0.0303
2979.00,0.0308
2978.00,0.0313
2977.00,0.0318
2976.00,0.0322
2975.00,0.0326
2974.00,0.0330
2973.00,0.0334
2972.00,0.0337
2971.00,0.0340
2970.00,0.0344
2969.00,0.0347
2968.00,0.0351
2967.00,0.0354
2966.00,0.0357
2965.00,0.0359
2964.00,0.0361
2963.00,0.0363
2962.00,0.0364
2961.00,0.0365
2960.00,0.0366
2959.00,0.0366
2958.00,0.0365
2957.00,0.0364
2956.00,0.0363
2955.00,0.0361
2954.00,0.0359
2953.00,0.0358
2952.00,0.0356
2951.00,0.0354
2950.00,0.0352
2949.00,0.0351
2948.00,0.0350
2947.00,0.0349
2946.00,0.0349
2945.00,0.0350
2944.00,0.0351
2943.00,0.0353
2942.00,0.0355
2941.00,0.0358
2940.00,0.0360
2939.00,0.0363
2938.00,0.0366
2937.00,0.0368
2936.00,0.0371
2935.00,0.0373
2934.00,0.0374
2933.00,0.0376
2932.00,0.0377
2931.00,0.0378
2930.00,0.0379
2929.00,0.0380
2928.00,0.0381
2927.00,0.0381
2926.00,0.0380
2925.00,0.0380
2924.00,0.0378
2923.00,0.0377
2922.00,0.0375
2921.00,0.0373
2920.00,0.0370
2919.00,0.0367
2918.00,0.0363
2917.00,0.0359
2916.00,0.0354
2915.00,0.0350
2914.00,0.0345
2913.00,0.0340
2912.00,0.0335
2911.00,0.0330
2910.00,0.0326
2909.00,0.0322
2908.00,0.0318
2907.00,0.0314
2906.00,0.0311
2905.00,0.0308
2904.00,0.0305
2903.00,0.0302
2902.00,0.0300
2901.00,0.0297
2900.00,0.0295
2899.00,0.0293
2898.00,0.0291
2897.00,0.0289
2896.00,0.0287
2895.00,0.0286
2894.00,0.0284
2893.00,0.0283
2892.00,0.0282
2891.00,0.0281
2890.00,0.0280
2889.00,0.0280
2888.00,0.0280
2887.00,0.0280
2886.00,0.0280
2885.00,0.0281
2884.00,0.0282
2883.00,0.0283
2882.00,0.0284
2881.00,0.0285
2880.00,0.0287
2879.00,0.0288
2878.00,0.0289
2877.00,0.0290
2876.00,0.0291
2875.00,0.0291
2874.00,0.0291
2873.00,0.0291
2872.00,0.0290
2871.00,0.0289
2870.00,0.0287
2869.00,0.0285
2868.00,0.0282
2867.00,0.0279
2866.00,0.0276
2865.00,0.0274
2864.00,0.0271
2863.00,0.0269
2862.00,0.0267
2861.00,0.0266
2860.00,0.0265
2859.00,0.0264
2858.00,0.0263
2857.00,0.0262
2856.00,0.0261
2855.00,0.0259
2854.00,0.0258
2853.00,0.0257
2852.00,0.0256
2851.00,0.0254
2850.00,0.0252
2849.00,0.0249
2848.00,0.0247
2847.00,0.0244
2846.00,0.0241
2845.00,0.0238
2844.00,0.0236
2843.00,0.0233
2842.00,0.0231
2841.00,0.0229
2840.00,0.0227
2839.00,0.0225
2838.00,0.0224
2837.00,0.0223
2836.00,0.0222
2835.00,0.0222
2834.00,0.0221
2833.00,0.0221
2832.00,0.0220
2831.00,0.0219
2830.00,0.0218
2829.00,0.0216
2828.00,0.0215
2827.00,0.0214
2826.00,0.0213
2825.00,0.0212
2824.00,0.0211
2823.00,0.0210
2822.00,0.0210
2821.00,0.0209
2820.00,0.0208
2819.00,0.0208
2818.00,0.0207
2817.00,0.0206
2816.00,0.0206
2815.00,0.0205
2814.00,0.0205
2813.00,0.0204
2812.00,0.0203
2811.00,0.0202
2810.00,0.0202
2809.00,0.0201
2808.00,0.0201
2807.00,0.0201
2806.00,0.0200
2805.00,0.0199
2804.00,0.0199
2803.00,0.0198
2802.00,0.0198
2801.00,0.0197
2800.00,0.0197
2799.00,0.0196
2798.00,0.0195
2797.00,0.0195
2796.00,0.0195
2795.00,0.0194
2794.00,0.0194
2793.00,0.0193
2792.00,0.0192
2791.00,0.0192
2790.00,0.0191
2789.00,0.0191
2788.00,0.0190
2787.00,0.0190
2786.00,0.0190
2785.00,0.0190
2784.00,0.0189
2783.00,0.0189
2782.00,0.0188
2781.00,0.0188
2780.00,0.0187
2779.00,0.0187
2778.00,0.0186
2777.00,0.0186
2776.00,0.0185
2775.00,0.0185
2774.00,0.0184
2773.00,0.0184
2772.00,0.0184
2771.00,0.0183
2770.00,0.0183
2769.00,0.0183
2768.00,0.0182
2767.00,0.0182
2766.00,0.0182
2765.00,0.0181
2764.00,0.0181
2763.00,0.0180
2762.00,0.0180
2761.00,0.0179
2760.00,0.0179
2759.00,0.0179
2758.00,0.0179
2757.00,0.0178
2756.00,0.0178
2755.00,0.0177
2754.00,0.0177
2753.00,0.0176
2752.00,0.0176
2751.00,0.0176
2750.00,0.0175
2749.00,0.0175
2748.00,0.0175
2747.00,0.0175
2746.00,0.0174
2745.00,0.0174
2744.00,0.0174
2743.00,0.0173
2742.00,0.0173
2741.00,0.0173
2740.00,0.0172
2739.00,0.0172
2738.00,0.0171
2737.00,0.0171
2736.00,0.0170
2735.00,0.0170
2734.00,0.0170
2733.00,0.0170
2732.00,0.0169
2731.00,0.0169
2730.00,0.0168
2729.00,0.0168
2728.00,0.0167
2727.00,0.0167
2726.00,0.0167
2725.00,0.0166
2724.00,0.0166
2723.00,0.0166
2722.00,0.0165
2721.00,0.0164
2720.00,0.0164
2719.00,0.0163
2718.00,0.0163
2717.00,0.0163
2716.00,0.0162
2715.00,0.0162
2714.00,0.0162
2713.00,0.0161
2712.00,0.0161
2711.00,0.0161
2710.00,0.0160
2709.00,0.0160
2708.00,0.0160
2707.00,0.0159
2706.00,0.0159
2705.00,0.0159
2704.00,0.0158
2703.00,0.0158
2702.00,0.0158
2701.00,0.0157
2700.00,0.0157
2699.00,0.0157
2698.00,0.0157
2697.00,0.0157
2696.00,0.0156
2695.00,0.0156
2694.00,0.0156
2693.00,0.0155
2692.00,0.0155
2691.00,0.0155
2690.00,0.0155
2689.00,0.0155
2688.00,0.0155
2687.00,0.0154
2686.00,0.0154
2685.00,0.0154
2684.00,0.0153
2683.00,0.0153
2682.00,0.0153
2681.00,0.0153
2680.00,0.0152
2679.00,0.0152
2678.00,0.0151
2677.00,0.0151
2676.00,0.0151
2675.00,0.0151
2674.00,0.0151
2673.00,0.0151
2672.00,0.0150
2671.00,0.0150
2670.00,0.0150
2669.00,0.0150
2668.00,0.0150
2667.00,0.0150
2666.00,0.0151
2665.00,0.0151
2664.00,0.0151
2663.00,0.0152
2662.00,0.0152
2661.00,0.0152
2660.00,0.0152
2659.00,0.0152
2658.00,0.0152
2657.00,0.0152
2656.00,0.0152
2655.00,0.0152
2654.00,0.0152
2653.00,0.0152
2652.00,0.0152
2651.00,0.0151
2650.00,0.0151
2649.00,0.0151
2648.00,0.0151
2647.00,0.0150
2646.00,0.0150
2645.00,0.0150
2644.00,0.0150
2643.00,0.0150
2642.00,0.0149
2641.00,0.0149
2640.00,0.0149
2639.00,0.0149
2638.00,0.0149
2637.00,0.0149
2636.00,0.0149
2635.00,0.0148
2634.00,0.0148
2633.00,0.0148
2632.00,0.0148
2631.00,0.0147
2630.00,0.0147
2629.00,0.0147
2628.00,0.0147
2627.00,0.0147
2626.00,0.0146
2625.00,0.0146
2624.00,0.0145
2623.00,0.0145
2622.00,0.0145
2621.00,0.0145
2620.00,0.0145
2619.00,0.0145
2618.00,0.0144
2617.00,0.0144
2616.00,0.0144
2615.00,0.0143
2614.00,0.0143
2613.00,0.0143
2612.00,0.0142
2611.00,0.0142
2610.00,0.0142
2609.00,0.0142
2608.00,0.0141
2607.00,0.0141
2606.00,0.0141
2605.00,0.0141
2604.00,0.0140
2603.00,0.0140
2602.00,0.0139
2601.00,0.0139
2600.00,0.0139
2599.00,0.0138
2598.00,0.0138
2597.00,0.0137
2596.00,0.0137
2595.00,0.0137
2594.00,0.0137
2593.00,0.0137
2592.00,0.0137
2591.00,0.0136
2590.00,0.0136
2589.00,0.0135
2588.00,0.0135
2587.00,0.0135
2586.00,0.0135
2585.00,0.0135
2584.00,0.0134
2583.00,0.0134
2582.00,0.0134
2581.00,0.0134
2580.00,0.0134
2579.00,0.0134
2578.00,0.0134
2577.00,0.0134
2576.00,0.0133
2575.00,0.0133
2574.00,0.0132
2573.00,0.0132
2572.00,0.0132
2571.00,0.0131
2570.00,0.0131
2569.00,0.0131
2568.00,0.0131
2567.00,0.0131
2566.00,0.0131
2565.00,0.0131
2564.00,0.0131
2563.00,0.0130
2562.00,0.0130
2561.00,0.0130
2560.00,0.0130
2559.00,0.0130
2558.00,0.0129
2557.00,0.0129
2556.00,0.0129
2555.00,0.0129
2554.00,0.0129
2553.00,0.0129
2552.00,0.0128
2551.00,0.0128
2550.00,0.0128
2549.00,0.0128
2548.00,0.0128
2547.00,0.0128
2546.00,0.0128
2545.00,0.0127
2544.00,0.0127
2543.00,0.0126
2542.00,0.0126
2541.00,0.0125
2540.00,0.0125
2539.00,0.0125
2538.00,0.0125
2537.00,0.0124
2536.00,0.0124
2535.00,0.0124
2534.00,0.0124
2533.00,0.0124
2532.00,0.0124
2531.00,0.0123
2530.00,0.0123
2529.00,0.0123
2528.00,0.0122
2527.00,0.0122
2526.00,0.0122
2525.00,0.0122
2524.00,0.0122
2523.00,0.0122
2522.00,0.0121
2521.00,0.0121
2520.00,0.0121
2519.00,0.0121
2518.00,0.0121
2517.00,0.0121
2516.00,0.0121
2515.00,0.0121
2514.00,0.0121
2513.00,0.0120
2512.00,0.0120
2511.00,0.0120
2510.00,0.0119
2509.00,0.0119
2508.00,0.0119
2507.00,0.0119
2506.00,0.0119
2505.00,0.0119
2504.00,0.0119
2503.00,0.0118
2502.00,0.0118
2501.00,0.0118
2500.00,0.0117
2499.00,0.0117
2498.00,0.0117
2497.00,0.0118
2496.00,0.0117
2495.00,0.0117
2494.00,0.0117
2493.00,0.0116
2492.00,0.0116
2491.00,0.0116
2490.00,0.0116
2489.00,0.0116
2488.00,0.0115
2487.00,0.0115
2486.00,0.0115
2485.00,0.0114
2484.00,0.0114
2483.00,0.0114
2482.00,0.0114
2481.00,0.0114
2480.00,0.0114
2479.00,0.0114
2478.00,0.0114
2477.00,0.0114
2476.00,0.0113
2475.00,0.0113
2474.00,0.0113
2473.00,0.0113
2472.00,0.0113
2471.00,0.0113
2470.00,0.0113
2469.00,0.0113
2468.00,0.0112
2467.00,0.0112
2466.00,0.0112
2465.00,0.0112
2464.00,0.0112
2463.00,0.0112
2462.00,0.0112
2461.00,0.0112
2460.00,0.0112
2459.00,0.0112
2458.00,0.0112
2457.00,0.0112
2456.00,0.0112
2455.00,0.0112
2454.00,0.0112
2453.00,0.0112
2452.00,0.0111
2451.00,0.0111
2450.00,0.0111
2449.00,0.0110
2448.00,0.0110
2447.00,0.0110
2446.00,0.0109
2445.00,0.0109
2444.00,0.0109
2443.00,0.0109
2442.00,0.0109
2441.00,0.0109
2440.00,0.0109
2439.00,0.0108
2438.00,0.0108
2437.00,0.0107
2436.00,0.0107
2435.00,0.0107
2434.00,0.0107
2433.00,0.0107
2432.00,0.0107
2431.00,0.0107
2430.00,0.0107
2429.00,0.0106
2428.00,0.0106
2427.00,0.0105
2426.00,0.0104
2425.00,0.0104
2424.00,0.0104
2423.00,0.0104
2422.00,0.0104
2421.00,0.0104
2420.00,0.0104
2419.00,0.0104
2418.00,0.0104
2417.00,0.0104
2416.00,0.0104
2415.00,0.0103
2414.00,0.0103
2413.00,0.0102
2412.00,0.0102
2411.00,0.0102
2410.00,0.0102
2409.00,0.0101
2408.00,0.0100
2407.00,0.0100
2406.00,0.0099
2405.00,0.0099
2404.00,0.0099
2403.00,0.0099
2402.00,0.0099
2401.00,0.0099
2400.00,0.0099
2399.00,0.0098
2398.00,0.0098
2397.00,0.0098
2396.00,0.0097
2395.00,0.0097
2394.00,0.0098
2393.00,0.0098
2392.00,0.0097
2391.00,0.0097
2390.00,0.0097
2389.00,0.0096
2388.00,0.0096
2387.00,0.0095
2386.00,0.0095
2385.00,0.0094
2384.00,0.0094
2383.00,0.0094
2382.00,0.0094
2381.00,0.0094
2380.00,0.0093
2379.00,0.0093
2378.00,0.0093
2377.00,0.0093
2376.00,0.0093
2375.00,0.0093
2374.00,0.0093
2373.00,0.0093
2372.00,0.0093
2371.00,0.0092
2370.00,0.0092
2369.00,0.0092
2368.00,0.0092
2367.00,0.0092
2366.00,0.0093
2365.00,0.0093
2364.00,0.0094
2363.00,0.0094
2362.00,0.0093
2361.00,0.0093
2360.00,0.0092
2359.00,0.0092
2358.00,0.0092
2357.00,0.0093
2356.00,0.0093
2355.00,0.0093
2354.00,0.0092
2353.00,0.0092
2352.00,0.0092
2351.00,0.0092
2350.00,0.0093
2349.00,0.0094
2348.00,0.0095
2347.00,0.0097
2346.00,0.0097
2345.00,0.0096
2344.00,0.0094
2343.00,0.0094
2342.00,0.0093
2341.00,0.0094
2340.00,0.0094
2339.00,0.0094
2338.00,0.0094
2337.00,0.0094
2336.00,0.0093
2335.00,0.0093
2334.00,0.0093
2333.00,0.0093
2332.00,0.0093
2331.00,0.0093
2330.00,0.0093
2329.00,0.0095
2328.00,0.0099
2327.00,0.0103
2326.00,0.0106
2325.00,0.0107
2324.00,0.0106
2323.00,0.0104
2322.00,0.0102
2321.00,0.0100
2320.00,0.0099
2319.00,0.0097
2318.00,0.0096
2317.00,0.0096
2316.00,0.0096
2315.00,0.0095
2314.00,0.0095
2313.00,0.0094
2312.00,0.0094
2311.00,0.0093
2310.00,0.0093
2309.00,0.0093
2308.00,0.0093
2307.00,0.0093
2306.00,0.0093
2305.00,0.0094
2304.00,0.0094
2303.00,0.0094
2302.00,0.0095
2301.00,0.0095
2300.00,0.0096
2299.00,0.0096
2298.00,0.0096
2297.00,0.0096
2296.00,0.0096
2295.00,0.0097
2294.00,0.0098
2293.00,0.0099
2292.00,0.0100
2291.00,0.0101
2290.00,0.0101
2289.00,0.0102
2288.00,0.0102
2287.00,0.0103
2286.00,0.0102
2285.00,0.0102
2284.00,0.0101
2283.00,0.0100
2282.00,0.0099
2281.00,0.0099
2280.00,0.0099
2279.00,0.0098
2278.00,0.0097
2277.00,0.0097
2276.00,0.0096
2275.00,0.0096
2274.00,0.0096
2273.00,0.0096
2272.00,0.0096
2271.00,0.0095
2270.00,0.0095
2269.00,0.0094
2268.00,0.0093
2267.00,0.0092
2266.00,0.0091
2265.00,0.0091
2264.00,0.0091
2263.00,0.0091
2262.00,0.0092
2261.00,0.0093
2260.00,0.0094
2259.00,0.0094
2258.00,0.0093
2257.00,0.0092
2256.00,0.0090
2255.00,0.0089
2254.00,0.0088
2253.00,0.0087
2252.00,0.0087
2251.00,0.0088
2250.00,0.0089
2249.00,0.0089
2248.00,0.0089
2247.00,0.0089
2246.00,0.0090
2245.00,0.0090
2244.00,0.0091
2243.00,0.0091
2242.00,0.0091
2241.00,0.0091
2240.00,0.0091
2239.00,0.0090
2238.00,0.0090
2237.00,0.0090
2236.00,0.0090
2235.00,0.0090
2234.00,0.0089
2233.00,0.0090
2232.00,0.0090
2231.00,0.0090
2230.00,0.0089
2229.00,0.0089
2228.00,0.0089
2227.00,0.0090
2226.00,0.0090
2225.00,0.0090
2224.00,0.0089
2223.00,0.0088
2222.00,0.0086
2221.00,0.0086
2220.00,0.0086
2219.00,0.0086
2218.00,0.0085
2217.00,0.0085
2216.00,0.0085
2215.00,0.0085
2214.00,0.0085
2213.00,0.0087
2212.00,0.0087
2211.00,0.0088
2210.00,0.0087
2209.00,0.0086
2208.00,0.0086
2207.00,0.0086
2206.00,0.0086
2205.00,0.0087
2204.00,0.0088
2203.00,0.0089
2202.00,0.0088
2201.00,0.0088
2200.00,0.0089
2199.00,0.0089
2198.00,0.0088
2197.00,0.0088
2196.00,0.0088
2195.00,0.0089
2194.00,0.0090
2193.00,0.0091
2192.00,0.0091
2191.00,0.0090
2190.00,0.0089
2189.00,0.0089
2188.00,0.0091
2187.00,0.0091
2186.00,0.0091
2185.00,0.0089
2184.00,0.0086
2183.00,0.0083
2182.00,0.0081
2181.00,0.0081
2180.00,0.0083
2179.00,0.0083
2178.00,0.0082
2177.00,0.0079
2176.00,0.0077
2175.00,0.0077
2174.00,0.0078
2173.00,0.0081
2172.00,0.0084
2171.00,0.0087
2170.00,0.0089
2169.00,0.0091
2168.00,0.0092
2167.00,0.0092
2166.00,0.0093
2165.00,0.0096
2164.00,0.0099
2163.00,0.0099
2162.00,0.0092
2161.00,0.0079
2160.00,0.0063
2159.00,0.0050
2158.00,0.0044
2157.00,0.0045
2156.00,0.0049
2155.00,0.0053
2154.00,0.0057
2153.00,0.0059
2152.00,0.0061
2151.00,0.0061
2150.00,0.0062
2149.00,0.0063
2148.00,0.0064
2147.00,0.0064
2146.00,0.0064
2145.00,0.0064
2144.00,0.0063
2143.00,0.0063
2142.00,0.0064
2141.00,0.0064
2140.00,0.0065
2139.00,0.0065
2138.00,0.0064
2137.00,0.0062
2136.00,0.0060
2135.00,0.0059
2134.00,0.0059
2133.00,0.0060
2132.00,0.0063
2131.00,0.0064
2130.00,0.0066
2129.00,0.0067
2128.00,0.0068
2127.00,0.0069
2126.00,0.0070
2125.00,0.0071
2124.00,0.0073
2123.00,0.0074
2122.00,0.0075
2121.00,0.0076
2120.00,0.0077
2119.00,0.0077
2118.00,0.0078
2117.00,0.0079
2116.00,0.0080
2115.00,0.0081
2114.00,0.0081
2113.00,0.0082
2112.00,0.0082
2111.00,0.0082
2110.00,0.0082
2109.00,0.0081
2108.00,0.0081
2107.00,0.0081
2106.00,0.0080
2105.00,0.0080
2104.00,0.0081
2103.00,0.0081
2102.00,0.0080
2101.00,0.0080
2100.00,0.0080
2099.00,0.0079
2098.00,0.0077
2097.00,0.0075
2096.00,0.0074
2095.00,0.0073
2094.00,0.0074
2093.00,0.0075
2092.00,0.0076
2091.00,0.0077
2090.00,0.0078
2089.00,0.0078
2088.00,0.0079
2087.00,0.0079
2086.00,0.0079
2085.00,0.0080
2084.00,0.0080
2083.00,0.0080
2082.00,0.0081
2081.00,0.0081
2080.00,0.0082
2079.00,0.0082
2078.00,0.0082
2077.00,0.0082
2076.00,0.0082
2075.00,0.0081
2074.00,0.0080
2073.00,0.0080
2072.00,0.0079
2071.00,0.0078
2070.00,0.0078
2069.00,0.0077
2068.00,0.0077
2067.00,0.0077
2066.00,0.0077
2065.00,0.0077
2064.00,0.0077
2063.00,0.0076
2062.00,0.0076
2061.00,0.0076
2060.00,0.0076
2059.00,0.0076
2058.00,0.0076
2057.00,0.0076
2056.00,0.0077
2055.00,0.0077
2054.00,0.0079
2053.00,0.0082
2052.00,0.0085
2051.00,0.0084
2050.00,0.0081
2049.00,0.0078
2048.00,0.0077
2047.00,0.0076
2046.00,0.0076
2045.00,0.0077
2044.00,0.0077
2043.00,0.0078
2042.00,0.0077
2041.00,0.0077
2040.00,0.0077
2039.00,0.0078
2038.00,0.0078
2037.00,0.0078
2036.00,0.0077
2035.00,0.0075
2034.00,0.0073
2033.00,0.0072
2032.00,0.0070
2031.00,0.0069
2030.00,0.0068
2029.00,0.0068
2028.00,0.0069
2027.00,0.0070
2026.00,0.0069
2025.00,0.0068
2024.00,0.0068
2023.00,0.0066
2022.00,0.0065
2021.00,0.0064
2020.00,0.0065
2019.00,0.0066
2018.00,0.0066
2017.00,0.0067
2016.00,0.0067
2015.00,0.0066
2014.00,0.0065
2013.00,0.0064
2012.00,0.0064
2011.00,0.0064
2010.00,0.0062
2009.00,0.0060
2008.00,0.0059
2007.00,0.0057
2006.00,0.0056
2005.00,0.0057
2004.00,0.0058
2003.00,0.0058
2002.00,0.0059
2001.00,0.0061
2000.00,0.0064
1999.00,0.0066
1998.00,0.0067
1997.00,0.0069
1996.00,0.0070
1995.00,0.0071
1994.00,0.0071
1993.00,0.0071
1992.00,0.0072
1991.00,0.0071
1990.00,0.0071
1989.00,0.0071
1988.00,0.0072
1987.00,0.0073
1986.00,0.0073
1985.00,0.0075
1984.00,0.0077
1983.00,0.0080
1982.00,0.0082
1981.00,0.0083
1980.00,0.0080
1979.00,0.0073
1978.00,0.0065
1977.00,0.0061
1976.00,0.0059
1975.00,0.0058
1974.00,0.0056
1973.00,0.0055
1972.00,0.0055
1971.00,0.0056
1970.00,0.0056
1969.00,0.0057
1968.00,0.0058
1967.00,0.0057
1966.00,0.0056
1965.00,0.0056
1964.00,0.0057
1963.00,0.0057
1962.00,0.0056
1961.00,0.0055
1960.00,0.0055
1959.00,0.0055
1958.00,0.0054
1957.00,0.0055
1956.00,0.0057
1955.00,0.0057
1954.00,0.0058
1953.00,0.0059
1952.00,0.0060
1951.00,0.0060
1950.00,0.0059
1949.00,0.0059
1948.00,0.0060
1947.00,0.0061
1946.00,0.0062
1945.00,0.0062
1944.00,0.0061
1943.00,0.0060
1942.00,0.0058
1941.00,0.0057
1940.00,0.0057
1939.00,0.0057
1938.00,0.0058
1937.00,0.0059
1936.00,0.0061
1935.00,0.0061
1934.00,0.0060
1933.00,0.0060
1932.00,0.0059
1931.00,0.0059
1930.00,0.0059
1929.00,0.0059
1928.00,0.0060
1927.00,0.0061
1926.00,0.0061
1925.00,0.0062
1924.00,0.0063
1923.00,0.0063
1922.00,0.0062
1921.00,0.0062
1920.00,0.0063
1919.00,0.0064
1918.00,0.0063
1917.00,0.0061
1916.00,0.0060
1915.00,0.0060
1914.00,0.0060
1913.00,0.0061
1912.00,0.0063
1911.00,0.0063
1910.00,0.0063
1909.00,0.0063
1908.00,0.0063
1907.00,0.0063
1906.00,0.0063
1905.00,0.0063
1904.00,0.0063
1903.00,0.0063
1902.00,0.0062
1901.00,0.0061
1900.00,0.0061
1899.00,0.0061
1898.00,0.0061
1897.00,0.0062
1896.00,0.0063
1895.00,0.0063
1894.00,0.0063
1893.00,0.0063
1892.00,0.0064
1891.00,0.0064
1890.00,0.0063
1889.00,0.0062
1888.00,0.0061
1887.00,0.0061
1886.00,0.0061
1885.00,0.0062
1884.00,0.0063
1883.00,0.0062
1882.00,0.0062
1881.00,0.0062
1880.00,0.0062
1879.00,0.0062
1878.00,0.0062
1877.00,0.0062
1876.00,0.0062
1875.00,0.0062
1874.00,0.0062
1873.00,0.0063
1872.00,0.0064
1871.00,0.0066
1870.00,0.0066
1869.00,0.0064
1868.00,0.0062
1867.00,0.0061
1866.00,0.0060
1865.00,0.0060
1864.00,0.0061
1863.00,0.0062
1862.00,0.0062
1861.00,0.0062
1860.00,0.0061
1859.00,0.0061
1858.00,0.0060
1857.00,0.0060
1856.00,0.0061
1855.00,0.0061
1854.00,0.0061
1853.00,0.0061
1852.00,0.0062
1851.00,0.0062
1850.00,0.0062
1849.00,0.0063
1848.00,0.0064
1847.00,0.0065
1846.00,0.0066
1845.00,0.0064
1844.00,0.0060
1843.00,0.0056
1842.00,0.0056
1841.00,0.0058
1840.00,0.0061
1839.00,0.0062
1838.00,0.0062
1837.00,0.0062
1836.00,0.0062
1835.00,0.0061
1834.00,0.0062
1833.00,0.0064
1832.00,0.0066
1831.00,0.0067
1830.00,0.0065
1829.00,0.0063
1828.00,0.0062
1827.00,0.0063
1826.00,0.0064
1825.00,0.0063
1824.00,0.0062
1823.00,0.0061
1822.00,0.0061
1821.00,0.0061
1820.00,0.0061
1819.00,0.0060
1818.00,0.0059
1817.00,0.0059
1816.00,0.0060
1815.00,0.0061
1814.00,0.0062
1813.00,0.0064
1812.00,0.0065
1811.00,0.0065
1810.00,0.0065
1809.00,0.0064
1808.00,0.0064
1807.00,0.0064
1806.00,0.0064
1805.00,0.0065
1804.00,0.0066
1803.00,0.0067
1802.00,0.0067
1801.00,0.0067
1800.00,0.0066
1799.00,0.0065
1798.00,0.0065
1797.00,0.0066
1796.00,0.0068
1795.00,0.0070
1794.00,0.0071
1793.00,0.0069
1792.00,0.0066
1791.00,0.0062
1790.00,0.0061
1789.00,0.0063
1788.00,0.0065
1787.00,0.0067
1786.00,0.0067
1785.00,0.0066
1784.00,0.0066
1783.00,0.0067
1782.00,0.0068
1781.00,0.0069
1780.00,0.0068
1779.00,0.0068
1778.00,0.0068
1777.00,0.0070
1776.00,0.0072
1775.00,0.0075
1774.00,0.0076
1773.00,0.0075
1772.00,0.0071
1771.00,0.0068
1770.00,0.0066
1769.00,0.0066
1768.00,0.0066
1767.00,0.0066
1766.00,0.0067
1765.00,0.0070
1764.00,0.0073
1763.00,0.0074
1762.00,0.0072
1761.00,0.0070
1760.00,0.0071
1759.00,0.0073
1758.00,0.0075
1757.00,0.0074
1756.00,0.0074
1755.00,0.0074
1754.00,0.0076
1753.00,0.0079
1752.00,0.0081
1751.00,0.0080
1750.00,0.0079
1749.00,0.0080
1748.00,0.0081
1747.00,0.0082
1746.00,0.0083
1745.00,0.0085
1744.00,0.0087
1743.00,0.0089
1742.00,0.0089
1741.00,0.0090
1740.00,0.0089
1739.00,0.0088
1738.00,0.0089
1737.00,0.0094
1736.00,0.0098
1735.00,0.0097
1734.00,0.0092
1733.00,0.0087
1732.00,0.0089
1731.00,0.0093
1730.00,0.0097
1729.00,0.0099
1728.00,0.0101
1727.00,0.0103
1726.00,0.0106
1725.00,0.0108
1724.00,0.0110
1723.00,0.0113
1722.00,0.0115
1721.00,0.0120
1720.00,0.0127
1719.00,0.0132
1718.00,0.0133
1717.00,0.0134
1716.00,0.0136
1715.00,0.0140
1714.00,0.0145
1713.00,0.0153
1712.00,0.0162
1711.00,0.0172
1710.00,0.0182
1709.00,0.0194
1708.00,0.0207
1707.00,0.0222
1706.00,0.0236
1705.00,0.0252
1704.00,0.0266
1703.00,0.0280
1702.00,0.0295
1701.00,0.0317
1700.00,0.0344
1699.00,0.0368
1698.00,0.0389
1697.00,0.0411
1696.00,0.0434
1695.00,0.0455
1694.00,0.0473
1693.00,0.0490
1692.00,0.0507
1691.00,0.0524
1690.00,0.0542
1689.00,0.0560
1688.00,0.0576
1687.00,0.0589
1686.00,0.0602
1685.00,0.0624
1684.00,0.0654
1683.00,0.0678
1682.00,0.0694
1681.00,0.0709
1680.00,0.0724
1679.00,0.0739
1678.00,0.0752
1677.00,0.0766
1676.00,0.0785
1675.00,0.0810
1674.00,0.0833
1673.00,0.0850
1672.00,0.0865
1671.00,0.0883
1670.00,0.0908
1669.00,0.0935
1668.00,0.0958
1667.00,0.0975
1666.00,0.0988
1665.00,0.1001
1664.00,0.1021
1663.00,0.1047
1662.00,0.1076
1661.00,0.1100
1660.00,0.1120
1659.00,0.1137
1658.00,0.1152
1657.00,0.1162
1656.00,0.1168
1655.00,0.1176
1654.00,0.1208
1653.00,0.1269
1652.00,0.1316
1651.00,0.1332
1650.00,0.1332
1649.00,0.1332
1648.00,0.1345
1647.00,0.1373
1646.00,0.1404
1645.00,0.1425
1644.00,0.1437
1643.00,0.1444
1642.00,0.1450
1641.00,0.1456
1640.00,0.1462
1639.00,0.1464
1638.00,0.1464
1637.00,0.1471
1636.00,0.1490
1635.00,0.1511
1634.00,0.1519
1633.00,0.1514
1632.00,0.1503
1631.00,0.1488
1630.00,0.1475
1629.00,0.1462
1628.00,0.1450
1627.00,0.1435
1626.00,0.1415
1625.00,0.1393
1624.00,0.1372
1623.00,0.1354
1622.00,0.1333
1621.00,0.1306
1620.00,0.1275
1619.00,0.1243
1618.00,0.1213
1617.00,0.1188
1616.00,0.1163
1615.00,0.1136
1614.00,0.1106
1613.00,0.1074
1612.00,0.1041
1611.00,0.1010
1610.00,0.0981
1609.00,0.0953
1608.00,0.0925
1607.00,0.0899
1606.00,0.0876
1605.00,0.0853
1604.00,0.0832
1603.00,0.0814
1602.00,0.0798
1601.00,0.0783
1600.00,0.0769
1599.00,0.0757
1598.00,0.0747
1597.00,0.0739
1596.00,0.0731
1595.00,0.0725
1594.00,0.0720
1593.00,0.0716
1592.00,0.0713
1591.00,0.0711
1590.00,0.0711
1589.00,0.0712
1588.00,0.0712
1587.00,0.0713
1586.00,0.0715
1585.00,0.0718
1584.00,0.0721
1583.00,0.0725
1582.00,0.0730
1581.00,0.0735
1580.00,0.0739
1579.00,0.0742
1578.00,0.0747
1577.00,0.0755
1576.00,0.0766
1575.00,0.0775
1574.00,0.0781
1573.00,0.0784
1572.00,0.0787
1571.00,0.0793
1570.00,0.0805
1569.00,0.0818
1568.00,0.0827
1567.00,0.0834
1566.00,0.0843
1565.00,0.0853
1564.00,0.0862
1563.00,0.0867
1562.00,0.0867
1561.00,0.0868
1560.00,0.0883
1559.00,0.0920
1558.00,0.0952
1557.00,0.0966
1556.00,0.0973
1555.00,0.0982
1554.00,0.0996
1553.00,0.1009
1552.00,0.1021
1551.00,0.1034
1550.00,0.1050
1549.00,0.1066
1548.00,0.1077
1547.00,0.1085
1546.00,0.1095
1545.00,0.1108
1544.00,0.1122
1543.00,0.1133
1542.00,0.1145
1541.00,0.1166
1540.00,0.1194
1539.00,0.1218
1538.00,0.1228
1537.00,0.1227
1536.00,0.1221
1535.00,0.1220
1534.00,0.1231
1533.00,0.1248
1532.00,0.1259
1531.00,0.1262
1530.00,0.1262
1529.00,0.1263
1528.00,0.1268
1527.00,0.1275
1526.00,0.1284
1525.00,0.1289
1524.00,0.1290
1523.00,0.1292
1522.00,0.1303
1521.00,0.1321
1520.00,0.1333
1519.00,0.1337
1518.00,0.1340
1517.00,0.1348
1516.00,0.1354
1515.00,0.1354
1514.00,0.1346
1513.00,0.1334
1512.00,0.1322
1511.00,0.1309
1510.00,0.1293
1509.00,0.1276
1508.00,0.1265
1507.00,0.1264
1506.00,0.1263
1505.00,0.1250
1504.00,0.1230
1503.00,0.1206
1502.00,0.1181
1501.00,0.1156
1500.00,0.1134
1499.00,0.1113
1498.00,0.1093
1497.00,0.1072
1496.00,0.1052
1495.00,0.1029
1494.00,0.1004
1493.00,0.0977
1492.00,0.0950
1491.00,0.0925
1490.00,0.0902
1489.00,0.0880
1488.00,0.0857
1487.00,0.0833
1486.00,0.0810
1485.00,0.0788
1484.00,0.0769
1483.00,0.0751
1482.00,0.0735
1481.00,0.0722
1480.00,0.0710
1479.00,0.0699
1478.00,0.0691
1477.00,0.0686
1476.00,0.0683
1475.00,0.0683
1474.00,0.0684
1473.00,0.0690
1472.00,0.0698
1471.00,0.0703
1470.00,0.0706
1469.00,0.0707
1468.00,0.0706
1467.00,0.0704
1466.00,0.0703
1465.00,0.0703
1464.00,0.0704
1463.00,0.0705
1462.00,0.0705
1461.00,0.0705
1460.00,0.0706
1459.00,0.0710
1458.00,0.0720
1457.00,0.0734
1456.00,0.0748
1455.00,0.0757
1454.00,0.0762
1453.00,0.0765
1452.00,0.0769
1451.00,0.0774
1450.00,0.0777
1449.00,0.0781
1448.00,0.0786
1447.00,0.0789
1446.00,0.0788
1445.00,0.0786
1444.00,0.0783
1443.00,0.0778
1442.00,0.0773
1441.00,0.0765
1440.00,0.0756
1439.00,0.0745
1438.00,0.0733
1437.00,0.0722
1436.00,0.0714
1435.00,0.0706
1434.00,0.0697
1433.00,0.0687
1432.00,0.0678
1431.00,0.0669
1430.00,0.0661
1429.00,0.0653
1428.00,0.0647
1427.00,0.0642
1426.00,0.0639
1425.00,0.0637
1424.00,0.0638
1423.00,0.0639
1422.00,0.0639
1421.00,0.0638
1420.00,0.0640
1419.00,0.0647
1418.00,0.0654
1417.00,0.0659
1416.00,0.0663
1415.00,0.0667
1414.00,0.0670
1413.00,0.0673
1412.00,0.0677
1411.00,0.0682
1410.00,0.0686
1409.00,0.0690
1408.00,0.0693
1407.00,0.0697
1406.00,0.0702
1405.00,0.0707
1404.00,0.0713
1403.00,0.0717
1402.00,0.0721
1401.00,0.0723
1400.00,0.0728
1399.00,0.0733
1398.00,0.0738
1397.00,0.0740
1396.00,0.0743
1395.00,0.0746
1394.00,0.0749
1393.00,0.0751
1392.00,0.0751
1391.00,0.0751
1390.00,0.0749
1389.00,0.0747
1388.00,0.0746
1387.00,0.0744
1386.00,0.0740
1385.00,0.0735
1384.00,0.0729
1383.00,0.0723
1382.00,0.0717
1381.00,0.0712
1380.00,0.0706
1379.00,0.0701
1378.00,0.0696
1377.00,0.0690
1376.00,0.0684
1375.00,0.0677
1374.00,0.0671
1373.00,0.0664
1372.00,0.0658
1371.00,0.0652
1370.00,0.0647
1369.00,0.0642
1368.00,0.0636
1367.00,0.0628
1366.00,0.0620
1365.00,0.0611
1364.00,0.0602
1363.00,0.0595
1362.00,0.0589
1361.00,0.0583
1360.00,0.0578
1359.00,0.0575
1358.00,0.0572
1357.00,0.0570
1356.00,0.0569
1355.00,0.0569
1354.00,0.0569
1353.00,0.0569
1352.00,0.0570
1351.00,0.0570
1350.00,0.0571
1349.00,0.0572
1348.00,0.0572
1347.00,0.0572
1346.00,0.0571
1345.00,0.0570
1344.00,0.0569
1343.00,0.0568
1342.00,0.0568
1341.00,0.0569
1340.00,0.0570
1339.00,0.0571
1338.00,0.0572
1337.00,0.0572
1336.00,0.0572
1335.00,0.0571
1334.00,0.0570
1333.00,0.0568
1332.00,0.0565
1331.00,0.0563
1330.00,0.0562
1329.00,0.0561
1328.00,0.0562
1327.00,0.0563
1326.00,0.0565
1325.00,0.0568
1324.00,0.0571
1323.00,0.0576
1322.00,0.0580
1321.00,0.0585
1320.00,0.0589
1319.00,0.0592
1318.00,0.0594
1317.00,0.0595
1316.00,0.0594
1315.00,0.0593
1314.00,0.0591
1313.00,0.0590
1312.00,0.0588
1311.00,0.0587
1310.00,0.0586
1309.00,0.0585
1308.00,0.0585
1307.00,0.0585
1306.00,0.0585
1305.00,0.0585
1304.00,0.0584
1303.00,0.0583
1302.00,0.0581
1301.00,0.0579
1300.00,0.0578
1299.00,0.0577
1298.00,0.0577
1297.00,0.0577
1296.00,0.0578
1295.00,0.0579
1294.00,0.0581
1293.00,0.0582
1292.00,0.0585
1291.00,0.0588
1290.00,0.0591
1289.00,0.0594
1288.00,0.0597
1287.00,0.0601
1286.00,0.0604
1285.00,0.0607
1284.00,0.0610
1283.00,0.0613
1282.00,0.0616
1281.00,0.0618
1280.00,0.0620
1279.00,0.0620
1278.00,0.0619
1277.00,0.0618
1276.00,0.0616
1275.00,0.0615
1274.00,0.0614
1273.00,0.0613
1272.00,0.0613
1271.00,0.0614
1270.00,0.0616
1269.00,0.0618
1268.00,0.0622
1267.00,0.0625
1266.00,0.0630
1265.00,0.0634
1264.00,0.0638
1263.00,0.0642
1262.00,0.0645
1261.00,0.0648
1260.00,0.0651
1259.00,0.0653
1258.00,0.0656
1257.00,0.0658
1256.00,0.0660
1255.00,0.0664
1254.00,0.0668
1253.00,0.0671
1252.00,0.0675
1251.00,0.0679
1250.00,0.0683
1249.00,0.0687
1248.00,0.0693
1247.00,0.0698
1246.00,0.0705
1245.00,0.0711
1244.00,0.0715
1243.00,0.0719
1242.00,0.0721
1241.00,0.0722
1240.00,0.0722
1239.00,0.0721
1238.00,0.0720
1237.00,0.0718
1236.00,0.0717
1235.00,0.0716
1234.00,0.0715
1233.00,0.0714
1232.00,0.0713
1231.00,0.0713
1230.00,0.0712
1229.00,0.0711
1228.00,0.0709
1227.00,0.0705
1226.00,0.0701
1225.00,0.0695
1224.00,0.0689
1223.00,0.0684
1222.00,0.0678
1221.00,0.0672
1220.00,0.0667
1219.00,0.0661
1218.00,0.0654
1217.00,0.0647
1216.00,0.0640
1215.00,0.0632
1214.00,0.0624
1213.00,0.0616
1212.00,0.0609
1211.00,0.0603
1210.00,0.0598
1209.00,0.0593
1208.00,0.0589
1207.00,0.0586
1206.00,0.0581
1205.00,0.0575
1204.00,0.0567
1203.00,0.0558
1202.00,0.0548
1201.00,0.0537
1200.00,0.0528
1199.00,0.0519
1198.00,0.0511
1197.00,0.0504
1196.00,0.0498
1195.00,0.0493
1194.00,0.0488
1193.00,0.0484
1192.00,0.0480
1191.00,0.0477
1190.00,0.0475
1189.00,0.0472
1188.00,0.0470
1187.00,0.0468
1186.00,0.0466
1185.00,0.0464
1184.00,0.0463
1183.00,0.0462
1182.00,0.0462
1181.00,0.0463
1180.00,0.0464
1179.00,0.0467
1178.00,0.0471
1177.00,0.0476
1176.00,0.0482
1175.00,0.0487
1174.00,0.0492
1173.00,0.0496
1172.00,0.0499
1171.00,0.0500
1170.00,0.0499
1169.00,0.0496
1168.00,0.0493
1167.00,0.0489
1166.00,0.0485
1165.00,0.0482
1164.00,0.0480
1163.00,0.0479
1162.00,0.0478
1161.00,0.0477
1160.00,0.0477
1159.00,0.0477
1158.00,0.0476
1157.00,0.0476
1156.00,0.0475
1155.00,0.0473
1154.00,0.0472
1153.00,0.0470
1152.00,0.0470
1151.00,0.0469
1150.00,0.0469
1149.00,0.0467
1148.00,0.0463
1147.00,0.0458
1146.00,0.0452
1145.00,0.0445
1144.00,0.0440
1143.00,0.0435
1142.00,0.0432
1141.00,0.0429
1140.00,0.0427
1139.00,0.0426
1138.00,0.0425
1137.00,0.0425
1136.00,0.0425
1135.00,0.0426
1134.00,0.0427
1133.00,0.0429
1132.00,0.0431
1131.00,0.0432
1130.00,0.0435
1129.00,0.0436
1128.00,0.0438
1127.00,0.0440
1126.00,0.0441
1125.00,0.0442
1124.00,0.0443
1123.00,0.0444
1122.00,0.0445
1121.00,0.0446
1120.00,0.0447
1119.00,0.0448
1118.00,0.0450
1117.00,0.0451
1116.00,0.0453
1115.00,0.0454
1114.00,0.0456
1113.00,0.0458
1112.00,0.0460
1111.00,0.0462
1110.00,0.0464
1109.00,0.0466
1108.00,0.0468
1107.00,0.0471
1106.00,0.0473
1105.00,0.0474
1104.00,0.0476
1103.00,0.0477
1102.00,0.0479
1101.00,0.0480
1100.00,0.0481
1099.00,0.0481
1098.00,0.0481
1097.00,0.0481
1096.00,0.0480
1095.00,0.0480
1094.00,0.0480
1093.00,0.0481
1092.00,0.0481
1091.00,0.0482
1090.00,0.0483
1089.00,0.0485
1088.00,0.0486
1087.00,0.0488
1086.00,0.0490
1085.00,0.0492
1084.00,0.0494
1083.00,0.0496
1082.00,0.0499
1081.00,0.0500
1080.00,0.0501
1079.00,0.0502
1078.00,0.0503
1077.00,0.0504
1076.00,0.0504
1075.00,0.0503
1074.00,0.0503
1073.00,0.0501
1072.00,0.0500
1071.00,0.0499
1070.00,0.0497
1069.00,0.0496
1068.00,0.0495
1067.00,0.0494
1066.00,0.0494
1065.00,0.0494
1064.00,0.0493
1063.00,0.0493
1062.00,0.0493
1061.00,0.0493
1060.00,0.0494
1059.00,0.0495
1058.00,0.0497
1057.00,0.0499
1056.00,0.0501
1055.00,0.0503
1054.00,0.0505
1053.00,0.0504
1052.00,0.0501
1051.00,0.0497
1050.00,0.0493
1049.00,0.0489
1048.00,0.0486
1047.00,0.0484
1046.00,0.0482
1045.00,0.0479
1044.00,0.0477
1043.00,0.0474
1042.00,0.0472
1041.00,0.0470
1040.00,0.0469
1039.00,0.0468
1038.00,0.0467
1037.00,0.0467
1036.00,0.0468
1035.00,0.0468
1034.00,0.0468
1033.00,0.0467
1032.00,0.0465
1031.00,0.0461
1030.00,0.0457
1029.00,0.0453
1028.00,0.0448
1027.00,0.0442
1026.00,0.0437
1025.00,0.0432
1024.00,0.0427
1023.00,0.0423
1022.00,0.0419
1021.00,0.0415
1020.00,0.0411
1019.00,0.0407
1018.00,0.0403
1017.00,0.0399
1016.00,0.0395
1015.00,0.0391
1014.00,0.0387
1013.00,0.0382
1012.00,0.0378
1011.00,0.0373
1010.00,0.0368
1009.00,0.0363
1008.00,0.0358
1007.00,0.0353
1006.00,0.0348
1005.00,0.0344
1004.00,0.0340
1003.00,0.0337
1002.00,0.0334
1001.00,0.0332
1000.00,0.0330
999.00,0.0328
998.00,0.0325
997.00,0.0323
996.00,0.0320
995.00,0.0318
994.00,0.0316
993.00,0.0315
992.00,0.0313
991.00,0.0312
990.00,0.0310
989.00,0.0309
988.00,0.0308
987.00,0.0307
986.00,0.0306
985.00,0.0305
984.00,0.0303
983.00,0.0302
982.00,0.0300
981.00,0.0299
980.00,0.0298
979.00,0.0297
978.00,0.0296
977.00,0.0295
976.00,0.0294
975.00,0.0293
974.00,0.0293
973.00,0.0293
972.00,0.0293
971.00,0.0292
970.00,0.0291
969.00,0.0290
968.00,0.0290
967.00,0.0289
966.00,0.0289
965.00,0.0289
964.00,0.0290
963.00,0.0290
962.00,0.0291
961.00,0.0291
960.00,0.0291
959.00,0.0291
958.00,0.0291
957.00,0.0290
956.00,0.0289
955.00,0.0289
954.00,0.0289
953.00,0.0288
952.00,0.0288
951.00,0.0289
950.00,0.0289
949.00,0.0290
948.00,0.0291
947.00,0.0293
946.00,0.0294
945.00,0.0296
944.00,0.0297
943.00,0.0299
942.00,0.0302
941.00,0.0304
940.00,0.0305
939.00,0.0307
938.00,0.0309
937.00,0.0310
936.00,0.0312
935.00,0.0314
934.00,0.0315
933.00,0.0316
932.00,0.0317
931.00,0.0317
930.00,0.0317
929.00,0.0316
928.00,0.0316
927.00,0.0315
926.00,0.0315
925.00,0.0313
924.00,0.0312
923.00,0.0311
922.00,0.0309
921.00,0.0308
920.00,0.0306
919.00,0.0305
918.00,0.0304
917.00,0.0303
916.00,0.0302
915.00,0.0302
914.00,0.0301
913.00,0.0300
912.00,0.0298
911.00,0.0297
910.00,0.0297
909.00,0.0298
908.00,0.0298
907.00,0.0299
906.00,0.0301
905.00,0.0303
904.00,0.0304
903.00,0.0305
902.00,0.0305
901.00,0.0305
900.00,0.0305
899.00,0.0304
898.00,0.0304
897.00,0.0302
896.00,0.0301
895.00,0.0301
894.00,0.0301
893.00,0.0303
892.00,0.0306
891.00,0.0309
890.00,0.0312
889.00,0.0312
888.00,0.0311
887.00,0.0310
886.00,0.0310
885.00,0.0311
884.00,0.0311
883.00,0.0309
882.00,0.0306
881.00,0.0304
880.00,0.0302
879.00,0.0300
878.00,0.0299
877.00,0.0299
876.00,0.0298
875.00,0.0297
874.00,0.0296
873.00,0.0295
872.00,0.0295
871.00,0.0295
870.00,0.0296
869.00,0.0296
868.00,0.0297
867.00,0.0298
866.00,0.0300
865.00,0.0303
864.00,0.0306
863.00,0.0310
862.00,0.0314
861.00,0.0316
860.00,0.0319
859.00,0.0321
858.00,0.0323
857.00,0.0326
856.00,0.0329
855.00,0.0331
854.00,0.0332
853.00,0.0332
852.00,0.0332
851.00,0.0333
850.00,0.0333
849.00,0.0335
848.00,0.0335
847.00,0.0336
846.00,0.0337
845.00,0.0338
844.00,0.0339
843.00,0.0341
842.00,0.0343
841.00,0.0346
840.00,0.0348
839.00,0.0352
838.00,0.0355
837.00,0.0357
836.00,0.0359
835.00,0.0361
834.00,0.0363
833.00,0.0365
832.00,0.0367
831.00,0.0370
830.00,0.0373
829.00,0.0376
828.00,0.0379
827.00,0.0381
826.00,0.0383
825.00,0.0384
824.00,0.0386
823.00,0.0387
822.00,0.0388
821.00,0.0389
820.00,0.0390
819.00,0.0391
818.00,0.0393
817.00,0.0394
816.00,0.0397
815.00,0.0400
814.00,0.0403
813.00,0.0406
812.00,0.0408
811.00,0.0411
810.00,0.0413
809.00,0.0416
808.00,0.0420
807.00,0.0423
806.00,0.0427
805.00,0.0431
804.00,0.0434
803.00,0.0437
802.00,0.0438
801.00,0.0439
800.00,0.0441
799.00,0.0443
798.00,0.0446
797.00,0.0448
796.00,0.0451
795.00,0.0453
794.00,0.0455
793.00,0.0456
792.00,0.0457
791.00,0.0457
790.00,0.0457
789.00,0.0458
788.00,0.0459
787.00,0.0459
786.00,0.0460
785.00,0.0461
784.00,0.0463
783.00,0.0465
782.00,0.0467
781.00,0.0469
780.00,0.0470
779.00,0.0472
778.00,0.0474
777.00,0.0476
776.00,0.0479
775.00,0.0481
774.00,0.0484
773.00,0.0486
772.00,0.0489
771.00,0.0491
770.00,0.0494
769.00,0.0496
768.00,0.0498
767.00,0.0500
766.00,0.0502
765.00,0.0505
764.00,0.0507
763.00,0.0510
762.00,0.0513
761.00,0.0516
760.00,0.0519
759.00,0.0522
758.00,0.0525
757.00,0.0527
756.00,0.0530
755.00,0.0532
754.00,0.0535
753.00,0.0538
752.00,0.0541
751.00,0.0544
750.00,0.0546
749.00,0.0549
748.00,0.0552
747.00,0.0555
746.00,0.0558
745.00,0.0560
744.00,0.0563
743.00,0.0567
742.00,0.0569
741.00,0.0572
740.00,0.0574
739.00,0.0576
738.00,0.0579
737.00,0.0582
736.00,0.0586
735.00,0.0589
734.00,0.0592
733.00,0.0595
732.00,0.0598
731.00,0.0602
730.00,0.0605
729.00,0.0608
728.00,0.0611
727.00,0.0615
726.00,0.0618
725.00,0.0622
724.00,0.0626
723.00,0.0631
722.00,0.0636
721.00,0.0641
720.00,0.0646
719.00,0.0651
718.00,0.0656
717.00,0.0661
716.00,0.0666
715.00,0.0671
714.00,0.0676
713.00,0.0682
712.00,0.0688
711.00,0.0694
710.00,0.0701
709.00,0.0708
708.00,0.0716
707.00,0.0724
706.00,0.0731
705.00,0.0737
704.00,0.0744
703.00,0.0750
702.00,0.0755
701.00,0.0760
700.00,0.0765
699.00,0.0769
698.00,0.0771
697.00,0.0773
696.00,0.0775
695.00,0.0776
694.00,0.0778
693.00,0.0779
692.00,0.0781
691.00,0.0783
690.00,0.0785
689.00,0.0788
688.00,0.0791
687.00,0.0795
686.00,0.0799
685.00,0.0803
684.00,0.0808
683.00,0.0812
682.00,0.0815
681.00,0.0819
680.00,0.0822
679.00,0.0825
678.00,0.0828
677.00,0.0831
676.00,0.0835
675.00,0.0838
674.00,0.0840
673.00,0.0842
672.00,0.0844
671.00,0.0845
670.00,0.0847
669.00,0.0854
668.00,0.0865
667.00,0.0872
666.00,0.0873
665.00,0.0870
664.00,0.0869
663.00,0.0869
662.00,0.0872
661.00,0.0874
660.00,0.0876
659.00,0.0877
658.00,0.0879
657.00,0.0881
656.00,0.0883
655.00,0.0885
654.00,0.0887
653.00,0.0888
652.00,0.0889
651.00,0.0890
650.00,0.0891
649.00,0.0892
648.00,0.0893
647.00,0.0895
646.00,0.0897
645.00,0.0899
644.00,0.0901
643.00,0.0903
642.00,0.0906
641.00,0.0909
640.00,0.0911
639.00,0.0914
638.00,0.0916
637.00,0.0917
636.00,0.0919
635.00,0.0922
634.00,0.0924
633.00,0.0927
632.00,0.0930
631.00,0.0933
630.00,0.0935
629.00,0.0938
628.00,0.0941
627.00,0.0944
626.00,0.0946
625.00,0.0947
624.00,0.0948
623.00,0.0950
622.00,0.0951
621.00,0.0953
620.00,0.0956
619.00,0.0958
618.00,0.0961
617.00,0.0963
616.00,0.0966
615.00,0.0968
614.00,0.0970
613.00,0.0970
612.00,0.0971
611.00,0.0972
610.00,0.0973
609.00,0.0974
608.00,0.0975
607.00,0.0975
606.00,0.0976
605.00,0.0977
604.00,0.0979
603.00,0.0981
602.00,0.0983
601.00,0.0984
600.00,0.0984
599.00,0.0984
598.00,0.0984
597.00,0.0984
596.00,0.0985
595.00,0.0988
594.00,0.0990
593.00,0.0993
592.00,0.0996
591.00,0.0998
590.00,0.0999
589.00,0.1001
588.00,0.1004
587.00,0.1007
586.00,0.1009
585.00,0.1011
584.00,0.1013
583.00,0.1016
582.00,0.1019
581.00,0.1024
580.00,0.1031
579.00,0.1037
578.00,0.1042
577.00,0.1043
576.00,0.1042
575.00,0.1039
574.00,0.1037
573.00,0.1035
572.00,0.1035
571.00,0.1036
570.00,0.1037
569.00,0.1038
568.00,0.1039
567.00,0.1040
566.00,0.1042
565.00,0.1044
564.00,0.1047
563.00,0.1050
562.00,0.1052
561.00,0.1053
560.00,0.1055
559.00,0.1058
558.00,0.1061
557.00,0.1066
556.00,0.1073
555.00,0.1079
554.00,0.1085
553.00,0.1089
552.00,0.1093
551.00,0.1094
550.00,0.1094
549.00,0.1091
548.00,0.1089
547.00,0.1087
546.00,0.1086
545.00,0.1086
544.00,0.1086
543.00,0.1087
542.00,0.1087
541.00,0.1088
540.00,0.1089
539.00,0.1091
538.00,0.1092
537.00,0.1093
536.00,0.1095
535.00,0.1097
534.00,0.1096
533.00,0.1094
532.00,0.1093
531.00,0.1092
530.00,0.1091
529.00,0.1092
528.00,0.1093
527.00,0.1094
526.00,0.1096
525.00,0.1097
524.00,0.1098
523.00,0.1097
522.00,0.1095
521.00,0.1093
520.00,0.1090
519.00,0.1087
518.00,0.1084
517.00,0.1082
516.00,0.1082
515.00,0.1081
514.00,0.1081
513.00,0.1081
512.00,0.1082
511.00,0.1082
510.00,0.1080
509.00,0.1078
508.00,0.1076
507.00,0.1075
506.00,0.1074
505.00,0.1072
504.00,0.1070
503.00,0.1068
502.00,0.1068
501.00,0.1070
500.00,0.1072
499.00,0.1075
498.00,0.1076
497.00,0.1078
496.00,0.1080
495.00,0.1083
494.00,0.1084
493.00,0.1087
492.00,0.1090
491.00,0.1092
490.00,0.1092
489.00,0.1092
488.00,0.1092
487.00,0.1093
486.00,0.1094
485.00,0.1094
484.00,0.1092
483.00,0.1089
482.00,0.1085
481.00,0.1083
480.00,0.1083
479.00,0.1084
478.00,0.1085
477.00,0.1085
476.00,0.1085
475.00,0.1084
474.00,0.1082
473.00,0.1079
472.00,0.1079
471.00,0.1079
470.00,0.1079
469.00,0.1077
468.00,0.1077
467.00,0.1078
466.00,0.1078
465.00,0.1078
464.00,0.1076
463.00,0.1072
462.00,0.1067
461.00,0.1062
460.00,0.1057
459.00,0.1054
458.00,0.1051
457.00,0.1049
456.00,0.1047
455.00,0.1046
454.00,0.1045
453.00,0.1044
452.00,0.1042
451.00,0.1037
450.00,0.1030
449.00,0.1022
448.00,0.1015
447.00,0.1010
446.00,0.1008
445.00,0.1007
444.00,0.1007
443.00,0.1008
442.00,0.1007
441.00,0.1005
440.00,0.1001
439.00,0.0996
438.00,0.0991
437.00,0.0990
436.00,0.0992
435.00,0.0992
434.00,0.0987
433.00,0.0981
432.00,0.0976
431.00,0.0974
430.00,0.0974
429.00,0.0976
428.00,0.0979
427.00,0.0980
426.00,0.0978
425.00,0.0976
424.00,0.0976
423.00,0.0975
422.00,0.0968
421.00,0.0959
420.00,0.0952
419.00,0.0953
418.00,0.0956
417.00,0.0955
416.00,0.0952
415.00,0.0948
414.00,0.0946
413.00,0.0948
412.00,0.0952
411.00,0.0954
410.00,0.0951
409.00,0.0947
408.00,0.0944
407.00,0.0939
406.00,0.0933
405.00,0.0927
404.00,0.0921
403.00,0.0914
402.00,0.0906
401.00,0.0906
400.00,0.0916
