Created as New Dataset,Sample 664 By YargerLab Date Wednesday, June 11 2025
cm-1,A
4000.00,0.0070
3999.00,0.0069
3998.00,0.0069
3997.00,0.0069
3996.00,0.0069
3995.00,0.0069
3994.00,0.0069
3993.00,0.0069
3992.00,0.0069
3991.00,0.0070
3990.00,0.0071
3989.00,0.0072
3988.00,0.0072
3987.00,0.0071
3986.00,0.0071
3985.00,0.0070
3984.00,0.0070
3983.00,0.0069
3982.00,0.0069
3981.00,0.0070
3980.00,0.0070
3979.00,0.0071
3978.00,0.0071
3977.00,0.0070
3976.00,0.0070
3975.00,0.0069
3974.00,0.0069
3973.00,0.0069
3972.00,0.0069
3971.00,0.0070
3970.00,0.0070
3969.00,0.0070
3968.00,0.0071
3967.00,0.0070
3966.00,0.0070
3965.00,0.0070
3964.00,0.0070
3963.00,0.0070
3962.00,0.0070
3961.00,0.0069
3960.00,0.0069
3959.00,0.0069
3958.00,0.0069
3957.00,0.0070
3956.00,0.0069
3955.00,0.0069
3954.00,0.0069
3953.00,0.0069
3952.00,0.0069
3951.00,0.0069
3950.00,0.0069
3949.00,0.0069
3948.00,0.0069
3947.00,0.0069
3946.00,0.0068
3945.00,0.0068
3944.00,0.0067
3943.00,0.0067
3942.00,0.0068
3941.00,0.0069
3940.00,0.0069
3939.00,0.0069
3938.00,0.0069
3937.00,0.0069
3936.00,0.0069
3935.00,0.0069
3934.00,0.0069
3933.00,0.0069
3932.00,0.0069
3931.00,0.0069
3930.00,0.0070
3929.00,0.0070
3928.00,0.0069
3927.00,0.0069
3926.00,0.0068
3925.00,0.0068
3924.00,0.0068
3923.00,0.0069
3922.00,0.0070
3921.00,0.0070
3920.00,0.0070
3919.00,0.0069
3918.00,0.0069
3917.00,0.0069
3916.00,0.0069
3915.00,0.0069
3914.00,0.0070
3913.00,0.0070
3912.00,0.0070
3911.00,0.0070
3910.00,0.0070
3909.00,0.0070
3908.00,0.0070
3907.00,0.0070
3906.00,0.0069
3905.00,0.0069
3904.00,0.0068
3903.00,0.0067
3902.00,0.0067
3901.00,0.0067
3900.00,0.0067
3899.00,0.0068
3898.00,0.0069
3897.00,0.0069
3896.00,0.0069
3895.00,0.0069
3894.00,0.0068
3893.00,0.0068
3892.00,0.0068
3891.00,0.0068
3890.00,0.0068
3889.00,0.0069
3888.00,0.0068
3887.00,0.0068
3886.00,0.0066
3885.00,0.0066
3884.00,0.0067
3883.00,0.0067
3882.00,0.0067
3881.00,0.0067
3880.00,0.0068
3879.00,0.0069
3878.00,0.0070
3877.00,0.0070
3876.00,0.0070
3875.00,0.0069
3874.00,0.0069
3873.00,0.0070
3872.00,0.0070
3871.00,0.0070
3870.00,0.0070
3869.00,0.0070
3868.00,0.0070
3867.00,0.0070
3866.00,0.0069
3865.00,0.0068
3864.00,0.0069
3863.00,0.0069
3862.00,0.0070
3861.00,0.0070
3860.00,0.0070
3859.00,0.0070
3858.00,0.0070
3857.00,0.0071
3856.00,0.0071
3855.00,0.0070
3854.00,0.0069
3853.00,0.0068
3852.00,0.0069
3851.00,0.0069
3850.00,0.0069
3849.00,0.0069
3848.00,0.0068
3847.00,0.0068
3846.00,0.0068
3845.00,0.0067
3844.00,0.0067
3843.00,0.0068
3842.00,0.0068
3841.00,0.0068
3840.00,0.0069
3839.00,0.0069
3838.00,0.0069
3837.00,0.0070
3836.00,0.0070
3835.00,0.0070
3834.00,0.0071
3833.00,0.0071
3832.00,0.0071
3831.00,0.0070
3830.00,0.0069
3829.00,0.0068
3828.00,0.0068
3827.00,0.0068
3826.00,0.0068
3825.00,0.0069
3824.00,0.0070
3823.00,0.0070
3822.00,0.0069
3821.00,0.0068
3820.00,0.0068
3819.00,0.0068
3818.00,0.0067
3817.00,0.0067
3816.00,0.0066
3815.00,0.0066
3814.00,0.0067
3813.00,0.0068
3812.00,0.0068
3811.00,0.0068
3810.00,0.0068
3809.00,0.0068
3808.00,0.0068
3807.00,0.0067
3806.00,0.0067
3805.00,0.0068
3804.00,0.0068
3803.00,0.0069
3802.00,0.0069
3801.00,0.0070
3800.00,0.0071
3799.00,0.0071
3798.00,0.0071
3797.00,0.0069
3796.00,0.0067
3795.00,0.0067
3794.00,0.0066
3793.00,0.0066
3792.00,0.0066
3791.00,0.0067
3790.00,0.0068
3789.00,0.0068
3788.00,0.0068
3787.00,0.0068
3786.00,0.0067
3785.00,0.0067
3784.00,0.0067
3783.00,0.0067
3782.00,0.0067
3781.00,0.0068
3780.00,0.0068
3779.00,0.0069
3778.00,0.0069
3777.00,0.0069
3776.00,0.0069
3775.00,0.0068
3774.00,0.0068
3773.00,0.0068
3772.00,0.0068
3771.00,0.0068
3770.00,0.0069
3769.00,0.0070
3768.00,0.0070
3767.00,0.0069
3766.00,0.0068
3765.00,0.0067
3764.00,0.0067
3763.00,0.0067
3762.00,0.0067
3761.00,0.0066
3760.00,0.0066
3759.00,0.0066
3758.00,0.0067
3757.00,0.0068
3756.00,0.0068
3755.00,0.0069
3754.00,0.0069
3753.00,0.0070
3752.00,0.0070
3751.00,0.0071
3750.00,0.0070
3749.00,0.0069
3748.00,0.0068
3747.00,0.0068
3746.00,0.0067
3745.00,0.0066
3744.00,0.0067
3743.00,0.0068
3742.00,0.0068
3741.00,0.0068
3740.00,0.0067
3739.00,0.0067
3738.00,0.0067
3737.00,0.0067
3736.00,0.0066
3735.00,0.0065
3734.00,0.0064
3733.00,0.0063
3732.00,0.0063
3731.00,0.0064
3730.00,0.0065
3729.00,0.0066
3728.00,0.0066
3727.00,0.0067
3726.00,0.0066
3725.00,0.0065
3724.00,0.0064
3723.00,0.0063
3722.00,0.0062
3721.00,0.0062
3720.00,0.0063
3719.00,0.0063
3718.00,0.0064
3717.00,0.0064
3716.00,0.0065
3715.00,0.0066
3714.00,0.0066
3713.00,0.0067
3712.00,0.0067
3711.00,0.0067
3710.00,0.0066
3709.00,0.0066
3708.00,0.0065
3707.00,0.0065
3706.00,0.0065
3705.00,0.0065
3704.00,0.0065
3703.00,0.0064
3702.00,0.0064
3701.00,0.0064
3700.00,0.0065
3699.00,0.0067
3698.00,0.0067
3697.00,0.0067
3696.00,0.0066
3695.00,0.0066
3694.00,0.0066
3693.00,0.0066
3692.00,0.0065
3691.00,0.0065
3690.00,0.0065
3689.00,0.0064
3688.00,0.0064
3687.00,0.0064
3686.00,0.0064
3685.00,0.0064
3684.00,0.0063
3683.00,0.0063
3682.00,0.0063
3681.00,0.0064
3680.00,0.0065
3679.00,0.0067
3678.00,0.0069
3677.00,0.0070
3676.00,0.0070
3675.00,0.0069
3674.00,0.0068
3673.00,0.0067
3672.00,0.0066
3671.00,0.0065
3670.00,0.0065
3669.00,0.0067
3668.00,0.0068
3667.00,0.0069
3666.00,0.0069
3665.00,0.0068
3664.00,0.0067
3663.00,0.0067
3662.00,0.0067
3661.00,0.0068
3660.00,0.0069
3659.00,0.0069
3658.00,0.0070
3657.00,0.0070
3656.00,0.0071
3655.00,0.0071
3654.00,0.0071
3653.00,0.0071
3652.00,0.0069
3651.00,0.0068
3650.00,0.0067
3649.00,0.0067
3648.00,0.0069
3647.00,0.0071
3646.00,0.0072
3645.00,0.0073
3644.00,0.0072
3643.00,0.0071
3642.00,0.0070
3641.00,0.0070
3640.00,0.0070
3639.00,0.0071
3638.00,0.0071
3637.00,0.0072
3636.00,0.0072
3635.00,0.0073
3634.00,0.0073
3633.00,0.0074
3632.00,0.0076
3631.00,0.0077
3630.00,0.0077
3629.00,0.0077
3628.00,0.0077
3627.00,0.0077
3626.00,0.0077
3625.00,0.0077
3624.00,0.0078
3623.00,0.0079
3622.00,0.0080
3621.00,0.0081
3620.00,0.0080
3619.00,0.0079
3618.00,0.0078
3617.00,0.0078
3616.00,0.0078
3615.00,0.0078
3614.00,0.0078
3613.00,0.0077
3612.00,0.0077
3611.00,0.0077
3610.00,0.0077
3609.00,0.0078
3608.00,0.0079
3607.00,0.0080
3606.00,0.0081
3605.00,0.0082
3604.00,0.0082
3603.00,0.0082
3602.00,0.0083
3601.00,0.0084
3600.00,0.0084
3599.00,0.0084
3598.00,0.0084
3597.00,0.0084
3596.00,0.0083
3595.00,0.0083
3594.00,0.0083
3593.00,0.0083
3592.00,0.0084
3591.00,0.0085
3590.00,0.0085
3589.00,0.0085
3588.00,0.0086
3587.00,0.0087
3586.00,0.0088
3585.00,0.0088
3584.00,0.0089
3583.00,0.0089
3582.00,0.0090
3581.00,0.0091
3580.00,0.0092
3579.00,0.0093
3578.00,0.0094
3577.00,0.0094
3576.00,0.0095
3575.00,0.0096
3574.00,0.0096
3573.00,0.0095
3572.00,0.0095
3571.00,0.0095
3570.00,0.0095
3569.00,0.0095
3568.00,0.0095
3567.00,0.0094
3566.00,0.0094
3565.00,0.0096
3564.00,0.0098
3563.00,0.0099
3562.00,0.0100
3561.00,0.0101
3560.00,0.0101
3559.00,0.0102
3558.00,0.0102
3557.00,0.0103
3556.00,0.0104
3555.00,0.0105
3554.00,0.0106
3553.00,0.0106
3552.00,0.0106
3551.00,0.0106
3550.00,0.0107
3549.00,0.0107
3548.00,0.0108
3547.00,0.0108
3546.00,0.0108
3545.00,0.0109
3544.00,0.0109
3543.00,0.0110
3542.00,0.0111
3541.00,0.0112
3540.00,0.0113
3539.00,0.0114
3538.00,0.0115
3537.00,0.0116
3536.00,0.0116
3535.00,0.0117
3534.00,0.0117
3533.00,0.0117
3532.00,0.0117
3531.00,0.0117
3530.00,0.0117
3529.00,0.0117
3528.00,0.0118
3527.00,0.0118
3526.00,0.0118
3525.00,0.0118
3524.00,0.0119
3523.00,0.0121
3522.00,0.0123
3521.00,0.0125
3520.00,0.0127
3519.00,0.0128
3518.00,0.0127
3517.00,0.0126
3516.00,0.0126
3515.00,0.0126
3514.00,0.0126
3513.00,0.0126
3512.00,0.0126
3511.00,0.0126
3510.00,0.0127
3509.00,0.0127
3508.00,0.0127
3507.00,0.0128
3506.00,0.0128
3505.00,0.0129
3504.00,0.0130
3503.00,0.0130
3502.00,0.0131
3501.00,0.0131
3500.00,0.0132
3499.00,0.0132
3498.00,0.0132
3497.00,0.0133
3496.00,0.0133
3495.00,0.0134
3494.00,0.0135
3493.00,0.0136
3492.00,0.0137
3491.00,0.0138
3490.00,0.0139
3489.00,0.0140
3488.00,0.0141
3487.00,0.0142
3486.00,0.0142
3485.00,0.0143
3484.00,0.0143
3483.00,0.0143
3482.00,0.0143
3481.00,0.0144
3480.00,0.0146
3479.00,0.0147
3478.00,0.0148
3477.00,0.0148
3476.00,0.0148
3475.00,0.0148
3474.00,0.0149
3473.00,0.0150
3472.00,0.0151
3471.00,0.0151
3470.00,0.0151
3469.00,0.0151
3468.00,0.0152
3467.00,0.0152
3466.00,0.0153
3465.00,0.0154
3464.00,0.0155
3463.00,0.0155
3462.00,0.0156
3461.00,0.0156
3460.00,0.0157
3459.00,0.0158
3458.00,0.0159
3457.00,0.0160
3456.00,0.0161
3455.00,0.0162
3454.00,0.0163
3453.00,0.0163
3452.00,0.0164
3451.00,0.0164
3450.00,0.0165
3449.00,0.0166
3448.00,0.0166
3447.00,0.0167
3446.00,0.0167
3445.00,0.0168
3444.00,0.0169
3443.00,0.0170
3442.00,0.0171
3441.00,0.0171
3440.00,0.0171
3439.00,0.0171
3438.00,0.0171
3437.00,0.0171
3436.00,0.0171
3435.00,0.0172
3434.00,0.0173
3433.00,0.0174
3432.00,0.0175
3431.00,0.0176
3430.00,0.0176
3429.00,0.0177
3428.00,0.0178
3427.00,0.0180
3426.00,0.0181
3425.00,0.0182
3424.00,0.0182
3423.00,0.0183
3422.00,0.0183
3421.00,0.0183
3420.00,0.0183
3419.00,0.0184
3418.00,0.0184
3417.00,0.0185
3416.00,0.0185
3415.00,0.0186
3414.00,0.0187
3413.00,0.0187
3412.00,0.0188
3411.00,0.0189
3410.00,0.0190
3409.00,0.0191
3408.00,0.0191
3407.00,0.0192
3406.00,0.0192
3405.00,0.0193
3404.00,0.0194
3403.00,0.0195
3402.00,0.0195
3401.00,0.0196
3400.00,0.0196
3399.00,0.0198
3398.00,0.0199
3397.00,0.0200
3396.00,0.0200
3395.00,0.0200
3394.00,0.0201
3393.00,0.0202
3392.00,0.0203
3391.00,0.0203
3390.00,0.0204
3389.00,0.0204
3388.00,0.0205
3387.00,0.0205
3386.00,0.0205
3385.00,0.0205
3384.00,0.0206
3383.00,0.0206
3382.00,0.0206
3381.00,0.0206
3380.00,0.0207
3379.00,0.0208
3378.00,0.0210
3377.00,0.0212
3376.00,0.0213
3375.00,0.0214
3374.00,0.0215
3373.00,0.0214
3372.00,0.0213
3371.00,0.0213
3370.00,0.0214
3369.00,0.0215
3368.00,0.0216
3367.00,0.0218
3366.00,0.0219
3365.00,0.0220
3364.00,0.0222
3363.00,0.0223
3362.00,0.0224
3361.00,0.0224
3360.00,0.0225
3359.00,0.0226
3358.00,0.0227
3357.00,0.0227
3356.00,0.0227
3355.00,0.0228
3354.00,0.0230
3353.00,0.0233
3352.00,0.0236
3351.00,0.0238
3350.00,0.0239
3349.00,0.0240
3348.00,0.0239
3347.00,0.0239
3346.00,0.0238
3345.00,0.0239
3344.00,0.0240
3343.00,0.0242
3342.00,0.0244
3341.00,0.0245
3340.00,0.0246
3339.00,0.0248
3338.00,0.0249
3337.00,0.0252
3336.00,0.0254
3335.00,0.0256
3334.00,0.0258
3333.00,0.0260
3332.00,0.0261
3331.00,0.0262
3330.00,0.0264
3329.00,0.0265
3328.00,0.0266
3327.00,0.0268
3326.00,0.0271
3325.00,0.0273
3324.00,0.0276
3323.00,0.0277
3322.00,0.0278
3321.00,0.0279
3320.00,0.0281
3319.00,0.0284
3318.00,0.0288
3317.00,0.0291
3316.00,0.0293
3315.00,0.0295
3314.00,0.0297
3313.00,0.0299
3312.00,0.0301
3311.00,0.0302
3310.00,0.0303
3309.00,0.0304
3308.00,0.0304
3307.00,0.0305
3306.00,0.0307
3305.00,0.0310
3304.00,0.0313
3303.00,0.0316
3302.00,0.0319
3301.00,0.0321
3300.00,0.0323
3299.00,0.0324
3298.00,0.0325
3297.00,0.0326
3296.00,0.0327
3295.00,0.0329
3294.00,0.0331
3293.00,0.0334
3292.00,0.0336
3291.00,0.0337
3290.00,0.0338
3289.00,0.0340
3288.00,0.0341
3287.00,0.0343
3286.00,0.0344
3285.00,0.0346
3284.00,0.0347
3283.00,0.0347
3282.00,0.0347
3281.00,0.0347
3280.00,0.0347
3279.00,0.0348
3278.00,0.0349
3277.00,0.0349
3276.00,0.0349
3275.00,0.0349
3274.00,0.0348
3273.00,0.0347
3272.00,0.0347
3271.00,0.0347
3270.00,0.0348
3269.00,0.0349
3268.00,0.0349
3267.00,0.0348
3266.00,0.0346
3265.00,0.0344
3264.00,0.0341
3263.00,0.0339
3262.00,0.0336
3261.00,0.0333
3260.00,0.0331
3259.00,0.0329
3258.00,0.0327
3257.00,0.0325
3256.00,0.0323
3255.00,0.0322
3254.00,0.0320
3253.00,0.0319
3252.00,0.0319
3251.00,0.0318
3250.00,0.0317
3249.00,0.0315
3248.00,0.0312
3247.00,0.0309
3246.00,0.0307
3245.00,0.0305
3244.00,0.0304
3243.00,0.0303
3242.00,0.0302
3241.00,0.0300
3240.00,0.0299
3239.00,0.0298
3238.00,0.0296
3237.00,0.0294
3236.00,0.0293
3235.00,0.0291
3234.00,0.0289
3233.00,0.0288
3232.00,0.0287
3231.00,0.0286
3230.00,0.0285
3229.00,0.0285
3228.00,0.0284
3227.00,0.0283
3226.00,0.0282
3225.00,0.0280
3224.00,0.0278
3223.00,0.0277
3222.00,0.0276
3221.00,0.0275
3220.00,0.0275
3219.00,0.0274
3218.00,0.0274
3217.00,0.0273
3216.00,0.0272
3215.00,0.0271
3214.00,0.0269
3213.00,0.0268
3212.00,0.0268
3211.00,0.0267
3210.00,0.0267
3209.00,0.0265
3208.00,0.0264
3207.00,0.0263
3206.00,0.0262
3205.00,0.0261
3204.00,0.0261
3203.00,0.0260
3202.00,0.0258
3201.00,0.0256
3200.00,0.0255
3199.00,0.0254
3198.00,0.0254
3197.00,0.0254
3196.00,0.0254
3195.00,0.0253
3194.00,0.0252
3193.00,0.0251
3192.00,0.0249
3191.00,0.0248
3190.00,0.0247
3189.00,0.0246
3188.00,0.0245
3187.00,0.0243
3186.00,0.0241
3185.00,0.0239
3184.00,0.0237
3183.00,0.0236
3182.00,0.0235
3181.00,0.0235
3180.00,0.0234
3179.00,0.0233
3178.00,0.0231
3177.00,0.0230
3176.00,0.0229
3175.00,0.0228
3174.00,0.0228
3173.00,0.0228
3172.00,0.0227
3171.00,0.0225
3170.00,0.0223
3169.00,0.0222
3168.00,0.0220
3167.00,0.0219
3166.00,0.0218
3165.00,0.0216
3164.00,0.0215
3163.00,0.0214
3162.00,0.0213
3161.00,0.0212
3160.00,0.0211
3159.00,0.0210
3158.00,0.0209
3157.00,0.0208
3156.00,0.0207
3155.00,0.0206
3154.00,0.0204
3153.00,0.0203
3152.00,0.0202
3151.00,0.0202
3150.00,0.0201
3149.00,0.0200
3148.00,0.0199
3147.00,0.0199
3146.00,0.0198
3145.00,0.0197
3144.00,0.0196
3143.00,0.0195
3142.00,0.0193
3141.00,0.0192
3140.00,0.0192
3139.00,0.0192
3138.00,0.0192
3137.00,0.0191
3136.00,0.0191
3135.00,0.0189
3134.00,0.0188
3133.00,0.0187
3132.00,0.0186
3131.00,0.0186
3130.00,0.0186
3129.00,0.0186
3128.00,0.0186
3127.00,0.0185
3126.00,0.0185
3125.00,0.0184
3124.00,0.0184
3123.00,0.0183
3122.00,0.0181
3121.00,0.0180
3120.00,0.0180
3119.00,0.0179
3118.00,0.0179
3117.00,0.0180
3116.00,0.0180
3115.00,0.0182
3114.00,0.0183
3113.00,0.0183
3112.00,0.0183
3111.00,0.0182
3110.00,0.0181
3109.00,0.0181
3108.00,0.0182
3107.00,0.0182
3106.00,0.0183
3105.00,0.0184
3104.00,0.0184
3103.00,0.0183
3102.00,0.0183
3101.00,0.0184
3100.00,0.0184
3099.00,0.0186
3098.00,0.0187
3097.00,0.0187
3096.00,0.0187
3095.00,0.0187
3094.00,0.0186
3093.00,0.0186
3092.00,0.0186
3091.00,0.0187
3090.00,0.0188
3089.00,0.0189
3088.00,0.0188
3087.00,0.0187
3086.00,0.0187
3085.00,0.0187
3084.00,0.0188
3083.00,0.0188
3082.00,0.0188
3081.00,0.0188
3080.00,0.0188
3079.00,0.0188
3078.00,0.0187
3077.00,0.0187
3076.00,0.0188
3075.00,0.0188
3074.00,0.0189
3073.00,0.0189
3072.00,0.0190
3071.00,0.0190
3070.00,0.0189
3069.00,0.0188
3068.00,0.0188
3067.00,0.0188
3066.00,0.0188
3065.00,0.0188
3064.00,0.0187
3063.00,0.0187
3062.00,0.0186
3061.00,0.0186
3060.00,0.0186
3059.00,0.0185
3058.00,0.0185
3057.00,0.0185
3056.00,0.0185
3055.00,0.0185
3054.00,0.0184
3053.00,0.0184
3052.00,0.0183
3051.00,0.0182
3050.00,0.0181
3049.00,0.0181
3048.00,0.0180
3047.00,0.0179
3046.00,0.0178
3045.00,0.0176
3044.00,0.0176
3043.00,0.0176
3042.00,0.0176
3041.00,0.0177
3040.00,0.0177
3039.00,0.0176
3038.00,0.0174
3037.00,0.0172
3036.00,0.0171
3035.00,0.0170
3034.00,0.0170
3033.00,0.0171
3032.00,0.0171
3031.00,0.0170
3030.00,0.0170
3029.00,0.0169
3028.00,0.0169
3027.00,0.0168
3026.00,0.0167
3025.00,0.0167
3024.00,0.0166
3023.00,0.0166
3022.00,0.0165
3021.00,0.0164
3020.00,0.0162
3019.00,0.0160
3018.00,0.0159
3017.00,0.0158
3016.00,0.0158
3015.00,0.0159
3014.00,0.0160
3013.00,0.0160
3012.00,0.0159
3011.00,0.0159
3010.00,0.0159
3009.00,0.0159
3008.00,0.0159
3007.00,0.0160
3006.00,0.0160
3005.00,0.0161
3004.00,0.0162
3003.00,0.0162
3002.00,0.0161
3001.00,0.0161
3000.00,0.0161
2999.00,0.0160
2998.00,0.0160
2997.00,0.0160
2996.00,0.0160
2995.00,0.0161
2994.00,0.0162
2993.00,0.0163
2992.00,0.0164
2991.00,0.0165
2990.00,0.0167
2989.00,0.0168
2988.00,0.0170
2987.00,0.0172
2986.00,0.0173
2985.00,0.0173
2984.00,0.0174
2983.00,0.0176
2982.00,0.0177
2981.00,0.0178
2980.00,0.0180
2979.00,0.0181
2978.00,0.0182
2977.00,0.0183
2976.00,0.0185
2975.00,0.0187
2974.00,0.0188
2973.00,0.0190
2972.00,0.0191
2971.00,0.0191
2970.00,0.0192
2969.00,0.0193
2968.00,0.0194
2967.00,0.0195
2966.00,0.0196
2965.00,0.0197
2964.00,0.0197
2963.00,0.0197
2962.00,0.0197
2961.00,0.0197
2960.00,0.0197
2959.00,0.0197
2958.00,0.0197
2957.00,0.0196
2956.00,0.0195
2955.00,0.0194
2954.00,0.0193
2953.00,0.0193
2952.00,0.0192
2951.00,0.0191
2950.00,0.0190
2949.00,0.0189
2948.00,0.0189
2947.00,0.0189
2946.00,0.0190
2945.00,0.0190
2944.00,0.0192
2943.00,0.0194
2942.00,0.0196
2941.00,0.0198
2940.00,0.0200
2939.00,0.0202
2938.00,0.0202
2937.00,0.0203
2936.00,0.0204
2935.00,0.0205
2934.00,0.0205
2933.00,0.0204
2932.00,0.0204
2931.00,0.0203
2930.00,0.0203
2929.00,0.0204
2928.00,0.0204
2927.00,0.0204
2926.00,0.0203
2925.00,0.0202
2924.00,0.0201
2923.00,0.0201
2922.00,0.0201
2921.00,0.0200
2920.00,0.0199
2919.00,0.0197
2918.00,0.0195
2917.00,0.0193
2916.00,0.0191
2915.00,0.0190
2914.00,0.0188
2913.00,0.0186
2912.00,0.0185
2911.00,0.0183
2910.00,0.0181
2909.00,0.0179
2908.00,0.0178
2907.00,0.0178
2906.00,0.0177
2905.00,0.0177
2904.00,0.0177
2903.00,0.0177
2902.00,0.0176
2901.00,0.0175
2900.00,0.0174
2899.00,0.0172
2898.00,0.0172
2897.00,0.0171
2896.00,0.0171
2895.00,0.0171
2894.00,0.0171
2893.00,0.0171
2892.00,0.0171
2891.00,0.0172
2890.00,0.0172
2889.00,0.0172
2888.00,0.0172
2887.00,0.0172
2886.00,0.0173
2885.00,0.0173
2884.00,0.0173
2883.00,0.0174
2882.00,0.0174
2881.00,0.0175
2880.00,0.0176
2879.00,0.0176
2878.00,0.0176
2877.00,0.0176
2876.00,0.0176
2875.00,0.0175
2874.00,0.0175
2873.00,0.0174
2872.00,0.0174
2871.00,0.0173
2870.00,0.0172
2869.00,0.0171
2868.00,0.0170
2867.00,0.0168
2866.00,0.0167
2865.00,0.0166
2864.00,0.0165
2863.00,0.0165
2862.00,0.0165
2861.00,0.0165
2860.00,0.0164
2859.00,0.0163
2858.00,0.0162
2857.00,0.0162
2856.00,0.0161
2855.00,0.0161
2854.00,0.0160
2853.00,0.0159
2852.00,0.0159
2851.00,0.0159
2850.00,0.0159
2849.00,0.0158
2848.00,0.0158
2847.00,0.0157
2846.00,0.0156
2845.00,0.0155
2844.00,0.0153
2843.00,0.0151
2842.00,0.0150
2841.00,0.0149
2840.00,0.0148
2839.00,0.0147
2838.00,0.0147
2837.00,0.0147
2836.00,0.0146
2835.00,0.0146
2834.00,0.0146
2833.00,0.0146
2832.00,0.0145
2831.00,0.0145
2830.00,0.0144
2829.00,0.0144
2828.00,0.0143
2827.00,0.0143
2826.00,0.0143
2825.00,0.0142
2824.00,0.0142
2823.00,0.0141
2822.00,0.0141
2821.00,0.0141
2820.00,0.0140
2819.00,0.0140
2818.00,0.0139
2817.00,0.0138
2816.00,0.0138
2815.00,0.0138
2814.00,0.0139
2813.00,0.0139
2812.00,0.0139
2811.00,0.0139
2810.00,0.0139
2809.00,0.0139
2808.00,0.0139
2807.00,0.0138
2806.00,0.0137
2805.00,0.0136
2804.00,0.0136
2803.00,0.0136
2802.00,0.0136
2801.00,0.0136
2800.00,0.0136
2799.00,0.0136
2798.00,0.0136
2797.00,0.0136
2796.00,0.0136
2795.00,0.0136
2794.00,0.0136
2793.00,0.0135
2792.00,0.0135
2791.00,0.0134
2790.00,0.0134
2789.00,0.0133
2788.00,0.0133
2787.00,0.0134
2786.00,0.0134
2785.00,0.0135
2784.00,0.0135
2783.00,0.0134
2782.00,0.0133
2781.00,0.0133
2780.00,0.0132
2779.00,0.0132
2778.00,0.0132
2777.00,0.0131
2776.00,0.0131
2775.00,0.0130
2774.00,0.0130
2773.00,0.0131
2772.00,0.0131
2771.00,0.0131
2770.00,0.0131
2769.00,0.0131
2768.00,0.0130
2767.00,0.0130
2766.00,0.0130
2765.00,0.0130
2764.00,0.0130
2763.00,0.0130
2762.00,0.0130
2761.00,0.0129
2760.00,0.0129
2759.00,0.0128
2758.00,0.0127
2757.00,0.0127
2756.00,0.0127
2755.00,0.0127
2754.00,0.0126
2753.00,0.0127
2752.00,0.0127
2751.00,0.0127
2750.00,0.0127
2749.00,0.0127
2748.00,0.0127
2747.00,0.0126
2746.00,0.0125
2745.00,0.0124
2744.00,0.0124
2743.00,0.0124
2742.00,0.0125
2741.00,0.0125
2740.00,0.0125
2739.00,0.0125
2738.00,0.0125
2737.00,0.0125
2736.00,0.0125
2735.00,0.0125
2734.00,0.0125
2733.00,0.0125
2732.00,0.0124
2731.00,0.0124
2730.00,0.0123
2729.00,0.0123
2728.00,0.0123
2727.00,0.0123
2726.00,0.0123
2725.00,0.0122
2724.00,0.0122
2723.00,0.0121
2722.00,0.0121
2721.00,0.0121
2720.00,0.0122
2719.00,0.0122
2718.00,0.0122
2717.00,0.0122
2716.00,0.0121
2715.00,0.0121
2714.00,0.0120
2713.00,0.0120
2712.00,0.0120
2711.00,0.0120
2710.00,0.0119
2709.00,0.0119
2708.00,0.0119
2707.00,0.0119
2706.00,0.0119
2705.00,0.0120
2704.00,0.0120
2703.00,0.0121
2702.00,0.0121
2701.00,0.0120
2700.00,0.0119
2699.00,0.0118
2698.00,0.0117
2697.00,0.0117
2696.00,0.0118
2695.00,0.0118
2694.00,0.0118
2693.00,0.0118
2692.00,0.0118
2691.00,0.0118
2690.00,0.0117
2689.00,0.0117
2688.00,0.0117
2687.00,0.0117
2686.00,0.0117
2685.00,0.0117
2684.00,0.0116
2683.00,0.0116
2682.00,0.0115
2681.00,0.0116
2680.00,0.0116
2679.00,0.0117
2678.00,0.0116
2677.00,0.0116
2676.00,0.0115
2675.00,0.0115
2674.00,0.0115
2673.00,0.0115
2672.00,0.0116
2671.00,0.0116
2670.00,0.0116
2669.00,0.0116
2668.00,0.0116
2667.00,0.0116
2666.00,0.0116
2665.00,0.0117
2664.00,0.0118
2663.00,0.0119
2662.00,0.0119
2661.00,0.0119
2660.00,0.0118
2659.00,0.0118
2658.00,0.0118
2657.00,0.0118
2656.00,0.0118
2655.00,0.0118
2654.00,0.0118
2653.00,0.0118
2652.00,0.0117
2651.00,0.0117
2650.00,0.0118
2649.00,0.0118
2648.00,0.0118
2647.00,0.0118
2646.00,0.0117
2645.00,0.0117
2644.00,0.0116
2643.00,0.0116
2642.00,0.0115
2641.00,0.0115
2640.00,0.0115
2639.00,0.0115
2638.00,0.0114
2637.00,0.0114
2636.00,0.0114
2635.00,0.0114
2634.00,0.0115
2633.00,0.0116
2632.00,0.0116
2631.00,0.0117
2630.00,0.0116
2629.00,0.0116
2628.00,0.0115
2627.00,0.0115
2626.00,0.0115
2625.00,0.0115
2624.00,0.0115
2623.00,0.0114
2622.00,0.0115
2621.00,0.0115
2620.00,0.0116
2619.00,0.0116
2618.00,0.0115
2617.00,0.0114
2616.00,0.0113
2615.00,0.0113
2614.00,0.0113
2613.00,0.0113
2612.00,0.0114
2611.00,0.0114
2610.00,0.0113
2609.00,0.0113
2608.00,0.0112
2607.00,0.0112
2606.00,0.0112
2605.00,0.0112
2604.00,0.0111
2603.00,0.0110
2602.00,0.0109
2601.00,0.0109
2600.00,0.0110
2599.00,0.0110
2598.00,0.0110
2597.00,0.0110
2596.00,0.0109
2595.00,0.0110
2594.00,0.0110
2593.00,0.0111
2592.00,0.0111
2591.00,0.0111
2590.00,0.0110
2589.00,0.0109
2588.00,0.0108
2587.00,0.0107
2586.00,0.0107
2585.00,0.0108
2584.00,0.0108
2583.00,0.0109
2582.00,0.0110
2581.00,0.0110
2580.00,0.0110
2579.00,0.0110
2578.00,0.0109
2577.00,0.0109
2576.00,0.0109
2575.00,0.0108
2574.00,0.0107
2573.00,0.0107
2572.00,0.0107
2571.00,0.0108
2570.00,0.0108
2569.00,0.0107
2568.00,0.0106
2567.00,0.0105
2566.00,0.0105
2565.00,0.0105
2564.00,0.0105
2563.00,0.0105
2562.00,0.0105
2561.00,0.0105
2560.00,0.0104
2559.00,0.0104
2558.00,0.0104
2557.00,0.0104
2556.00,0.0104
2555.00,0.0105
2554.00,0.0105
2553.00,0.0105
2552.00,0.0105
2551.00,0.0106
2550.00,0.0107
2549.00,0.0107
2548.00,0.0106
2547.00,0.0104
2546.00,0.0103
2545.00,0.0102
2544.00,0.0103
2543.00,0.0103
2542.00,0.0103
2541.00,0.0103
2540.00,0.0103
2539.00,0.0103
2538.00,0.0103
2537.00,0.0103
2536.00,0.0102
2535.00,0.0102
2534.00,0.0102
2533.00,0.0101
2532.00,0.0101
2531.00,0.0101
2530.00,0.0102
2529.00,0.0102
2528.00,0.0103
2527.00,0.0103
2526.00,0.0103
2525.00,0.0103
2524.00,0.0103
2523.00,0.0104
2522.00,0.0104
2521.00,0.0104
2520.00,0.0104
2519.00,0.0103
2518.00,0.0103
2517.00,0.0104
2516.00,0.0104
2515.00,0.0105
2514.00,0.0104
2513.00,0.0102
2512.00,0.0101
2511.00,0.0101
2510.00,0.0101
2509.00,0.0102
2508.00,0.0102
2507.00,0.0101
2506.00,0.0100
2505.00,0.0100
2504.00,0.0101
2503.00,0.0102
2502.00,0.0103
2501.00,0.0104
2500.00,0.0105
2499.00,0.0105
2498.00,0.0106
2497.00,0.0107
2496.00,0.0107
2495.00,0.0107
2494.00,0.0108
2493.00,0.0109
2492.00,0.0109
2491.00,0.0110
2490.00,0.0110
2489.00,0.0110
2488.00,0.0111
2487.00,0.0112
2486.00,0.0114
2485.00,0.0115
2484.00,0.0116
2483.00,0.0116
2482.00,0.0116
2481.00,0.0116
2480.00,0.0117
2479.00,0.0117
2478.00,0.0117
2477.00,0.0117
2476.00,0.0117
2475.00,0.0117
2474.00,0.0117
2473.00,0.0118
2472.00,0.0120
2471.00,0.0120
2470.00,0.0120
2469.00,0.0119
2468.00,0.0118
2467.00,0.0118
2466.00,0.0118
2465.00,0.0117
2464.00,0.0117
2463.00,0.0117
2462.00,0.0117
2461.00,0.0117
2460.00,0.0117
2459.00,0.0118
2458.00,0.0120
2457.00,0.0121
2456.00,0.0122
2455.00,0.0122
2454.00,0.0122
2453.00,0.0121
2452.00,0.0121
2451.00,0.0120
2450.00,0.0120
2449.00,0.0120
2448.00,0.0120
2447.00,0.0119
2446.00,0.0119
2445.00,0.0119
2444.00,0.0119
2443.00,0.0119
2442.00,0.0119
2441.00,0.0119
2440.00,0.0120
2439.00,0.0120
2438.00,0.0120
2437.00,0.0120
2436.00,0.0120
2435.00,0.0121
2434.00,0.0123
2433.00,0.0124
2432.00,0.0125
2431.00,0.0125
2430.00,0.0125
2429.00,0.0125
2428.00,0.0125
2427.00,0.0126
2426.00,0.0126
2425.00,0.0126
2424.00,0.0126
2423.00,0.0126
2422.00,0.0126
2421.00,0.0127
2420.00,0.0129
2419.00,0.0129
2418.00,0.0129
2417.00,0.0128
2416.00,0.0126
2415.00,0.0124
2414.00,0.0124
2413.00,0.0124
2412.00,0.0125
2411.00,0.0125
2410.00,0.0125
2409.00,0.0124
2408.00,0.0122
2407.00,0.0120
2406.00,0.0119
2405.00,0.0118
2404.00,0.0118
2403.00,0.0118
2402.00,0.0117
2401.00,0.0116
2400.00,0.0115
2399.00,0.0115
2398.00,0.0114
2397.00,0.0113
2396.00,0.0112
2395.00,0.0111
2394.00,0.0110
2393.00,0.0109
2392.00,0.0108
2391.00,0.0107
2390.00,0.0107
2389.00,0.0106
2388.00,0.0106
2387.00,0.0105
2386.00,0.0105
2385.00,0.0105
2384.00,0.0104
2383.00,0.0103
2382.00,0.0101
2381.00,0.0099
2380.00,0.0098
2379.00,0.0097
2378.00,0.0097
2377.00,0.0098
2376.00,0.0098
2375.00,0.0099
2374.00,0.0100
2373.00,0.0100
2372.00,0.0100
2371.00,0.0100
2370.00,0.0098
2369.00,0.0097
2368.00,0.0095
2367.00,0.0094
2366.00,0.0093
2365.00,0.0093
2364.00,0.0093
2363.00,0.0094
2362.00,0.0095
2361.00,0.0095
2360.00,0.0096
2359.00,0.0097
2358.00,0.0098
2357.00,0.0099
2356.00,0.0098
2355.00,0.0098
2354.00,0.0096
2353.00,0.0095
2352.00,0.0094
2351.00,0.0094
2350.00,0.0094
2349.00,0.0095
2348.00,0.0095
2347.00,0.0095
2346.00,0.0095
2345.00,0.0095
2344.00,0.0096
2343.00,0.0097
2342.00,0.0097
2341.00,0.0096
2340.00,0.0096
2339.00,0.0096
2338.00,0.0096
2337.00,0.0096
2336.00,0.0096
2335.00,0.0095
2334.00,0.0094
2333.00,0.0093
2332.00,0.0093
2331.00,0.0093
2330.00,0.0093
2329.00,0.0094
2328.00,0.0097
2327.00,0.0100
2326.00,0.0104
2325.00,0.0106
2324.00,0.0106
2323.00,0.0105
2322.00,0.0104
2321.00,0.0104
2320.00,0.0103
2319.00,0.0101
2318.00,0.0099
2317.00,0.0098
2316.00,0.0097
2315.00,0.0097
2314.00,0.0097
2313.00,0.0097
2312.00,0.0097
2311.00,0.0097
2310.00,0.0098
2309.00,0.0098
2308.00,0.0098
2307.00,0.0097
2306.00,0.0096
2305.00,0.0094
2304.00,0.0094
2303.00,0.0094
2302.00,0.0095
2301.00,0.0096
2300.00,0.0098
2299.00,0.0099
2298.00,0.0100
2297.00,0.0100
2296.00,0.0100
2295.00,0.0099
2294.00,0.0098
2293.00,0.0098
2292.00,0.0098
2291.00,0.0099
2290.00,0.0100
2289.00,0.0102
2288.00,0.0103
2287.00,0.0103
2286.00,0.0103
2285.00,0.0103
2284.00,0.0102
2283.00,0.0101
2282.00,0.0101
2281.00,0.0101
2280.00,0.0102
2279.00,0.0103
2278.00,0.0103
2277.00,0.0102
2276.00,0.0101
2275.00,0.0099
2274.00,0.0098
2273.00,0.0098
2272.00,0.0098
2271.00,0.0098
2270.00,0.0098
2269.00,0.0098
2268.00,0.0097
2267.00,0.0096
2266.00,0.0094
2265.00,0.0091
2264.00,0.0087
2263.00,0.0085
2262.00,0.0085
2261.00,0.0087
2260.00,0.0090
2259.00,0.0092
2258.00,0.0092
2257.00,0.0091
2256.00,0.0091
2255.00,0.0091
2254.00,0.0092
2253.00,0.0092
2252.00,0.0091
2251.00,0.0089
2250.00,0.0088
2249.00,0.0088
2248.00,0.0089
2247.00,0.0090
2246.00,0.0091
2245.00,0.0091
2244.00,0.0091
2243.00,0.0091
2242.00,0.0093
2241.00,0.0094
2240.00,0.0094
2239.00,0.0092
2238.00,0.0090
2237.00,0.0088
2236.00,0.0088
2235.00,0.0088
2234.00,0.0089
2233.00,0.0090
2232.00,0.0091
2231.00,0.0091
2230.00,0.0091
2229.00,0.0091
2228.00,0.0091
2227.00,0.0090
2226.00,0.0090
2225.00,0.0089
2224.00,0.0089
2223.00,0.0087
2222.00,0.0087
2221.00,0.0087
2220.00,0.0088
2219.00,0.0089
2218.00,0.0090
2217.00,0.0090
2216.00,0.0089
2215.00,0.0089
2214.00,0.0089
2213.00,0.0090
2212.00,0.0092
2211.00,0.0092
2210.00,0.0092
2209.00,0.0091
2208.00,0.0091
2207.00,0.0090
2206.00,0.0089
2205.00,0.0088
2204.00,0.0089
2203.00,0.0090
2202.00,0.0091
2201.00,0.0092
2200.00,0.0092
2199.00,0.0091
2198.00,0.0089
2197.00,0.0088
2196.00,0.0090
2195.00,0.0092
2194.00,0.0092
2193.00,0.0091
2192.00,0.0091
2191.00,0.0090
2190.00,0.0090
2189.00,0.0090
2188.00,0.0090
2187.00,0.0091
2186.00,0.0091
2185.00,0.0087
2184.00,0.0082
2183.00,0.0077
2182.00,0.0074
2181.00,0.0075
2180.00,0.0078
2179.00,0.0079
2178.00,0.0079
2177.00,0.0077
2176.00,0.0076
2175.00,0.0078
2174.00,0.0083
2173.00,0.0090
2172.00,0.0095
2171.00,0.0099
2170.00,0.0101
2169.00,0.0104
2168.00,0.0107
2167.00,0.0109
2166.00,0.0107
2165.00,0.0102
2164.00,0.0099
2163.00,0.0097
2162.00,0.0093
2161.00,0.0084
2160.00,0.0071
2159.00,0.0060
2158.00,0.0055
2157.00,0.0056
2156.00,0.0058
2155.00,0.0059
2154.00,0.0060
2153.00,0.0063
2152.00,0.0067
2151.00,0.0070
2150.00,0.0072
2149.00,0.0073
2148.00,0.0073
2147.00,0.0072
2146.00,0.0073
2145.00,0.0076
2144.00,0.0078
2143.00,0.0080
2142.00,0.0080
2141.00,0.0078
2140.00,0.0076
2139.00,0.0073
2138.00,0.0071
2137.00,0.0069
2136.00,0.0067
2135.00,0.0066
2134.00,0.0065
2133.00,0.0067
2132.00,0.0070
2131.00,0.0072
2130.00,0.0074
2129.00,0.0074
2128.00,0.0073
2127.00,0.0072
2126.00,0.0072
2125.00,0.0074
2124.00,0.0076
2123.00,0.0077
2122.00,0.0079
2121.00,0.0081
2120.00,0.0083
2119.00,0.0083
2118.00,0.0084
2117.00,0.0084
2116.00,0.0084
2115.00,0.0085
2114.00,0.0085
2113.00,0.0086
2112.00,0.0087
2111.00,0.0088
2110.00,0.0088
2109.00,0.0087
2108.00,0.0087
2107.00,0.0087
2106.00,0.0086
2105.00,0.0085
2104.00,0.0085
2103.00,0.0085
2102.00,0.0086
2101.00,0.0087
2100.00,0.0088
2099.00,0.0089
2098.00,0.0087
2097.00,0.0083
2096.00,0.0079
2095.00,0.0077
2094.00,0.0078
2093.00,0.0081
2092.00,0.0083
2091.00,0.0084
2090.00,0.0084
2089.00,0.0083
2088.00,0.0082
2087.00,0.0082
2086.00,0.0083
2085.00,0.0084
2084.00,0.0084
2083.00,0.0083
2082.00,0.0082
2081.00,0.0082
2080.00,0.0083
2079.00,0.0084
2078.00,0.0085
2077.00,0.0084
2076.00,0.0084
2075.00,0.0084
2074.00,0.0084
2073.00,0.0085
2072.00,0.0085
2071.00,0.0084
2070.00,0.0082
2069.00,0.0081
2068.00,0.0081
2067.00,0.0082
2066.00,0.0083
2065.00,0.0084
2064.00,0.0084
2063.00,0.0086
2062.00,0.0086
2061.00,0.0086
2060.00,0.0085
2059.00,0.0082
2058.00,0.0080
2057.00,0.0078
2056.00,0.0078
2055.00,0.0080
2054.00,0.0083
2053.00,0.0089
2052.00,0.0094
2051.00,0.0096
2050.00,0.0094
2049.00,0.0090
2048.00,0.0087
2047.00,0.0086
2046.00,0.0086
2045.00,0.0086
2044.00,0.0084
2043.00,0.0080
2042.00,0.0076
2041.00,0.0074
2040.00,0.0075
2039.00,0.0078
2038.00,0.0081
2037.00,0.0081
2036.00,0.0078
2035.00,0.0072
2034.00,0.0066
2033.00,0.0064
2032.00,0.0066
2031.00,0.0068
2030.00,0.0070
2029.00,0.0071
2028.00,0.0070
2027.00,0.0069
2026.00,0.0069
2025.00,0.0069
2024.00,0.0070
2023.00,0.0068
2022.00,0.0065
2021.00,0.0061
2020.00,0.0059
2019.00,0.0059
2018.00,0.0061
2017.00,0.0063
2016.00,0.0064
2015.00,0.0064
2014.00,0.0064
2013.00,0.0064
2012.00,0.0066
2011.00,0.0071
2010.00,0.0077
2009.00,0.0082
2008.00,0.0082
2007.00,0.0077
2006.00,0.0071
2005.00,0.0067
2004.00,0.0067
2003.00,0.0069
2002.00,0.0070
2001.00,0.0073
2000.00,0.0075
1999.00,0.0077
1998.00,0.0079
1997.00,0.0081
1996.00,0.0083
1995.00,0.0083
1994.00,0.0082
1993.00,0.0081
1992.00,0.0082
1991.00,0.0086
1990.00,0.0088
1989.00,0.0088
1988.00,0.0085
1987.00,0.0081
1986.00,0.0079
1985.00,0.0080
1984.00,0.0083
1983.00,0.0085
1982.00,0.0086
1981.00,0.0084
1980.00,0.0080
1979.00,0.0075
1978.00,0.0068
1977.00,0.0062
1976.00,0.0058
1975.00,0.0057
1974.00,0.0059
1973.00,0.0062
1972.00,0.0066
1971.00,0.0067
1970.00,0.0068
1969.00,0.0070
1968.00,0.0072
1967.00,0.0073
1966.00,0.0071
1965.00,0.0070
1964.00,0.0069
1963.00,0.0068
1962.00,0.0066
1961.00,0.0064
1960.00,0.0062
1959.00,0.0061
1958.00,0.0060
1957.00,0.0061
1956.00,0.0063
1955.00,0.0065
1954.00,0.0065
1953.00,0.0065
1952.00,0.0064
1951.00,0.0065
1950.00,0.0067
1949.00,0.0069
1948.00,0.0070
1947.00,0.0069
1946.00,0.0066
1945.00,0.0064
1944.00,0.0062
1943.00,0.0061
1942.00,0.0061
1941.00,0.0062
1940.00,0.0063
1939.00,0.0064
1938.00,0.0065
1937.00,0.0065
1936.00,0.0066
1935.00,0.0067
1934.00,0.0068
1933.00,0.0069
1932.00,0.0069
1931.00,0.0069
1930.00,0.0068
1929.00,0.0068
1928.00,0.0068
1927.00,0.0069
1926.00,0.0069
1925.00,0.0069
1924.00,0.0069
1923.00,0.0069
1922.00,0.0069
1921.00,0.0070
1920.00,0.0071
1919.00,0.0072
1918.00,0.0071
1917.00,0.0071
1916.00,0.0070
1915.00,0.0069
1914.00,0.0068
1913.00,0.0066
1912.00,0.0064
1911.00,0.0064
1910.00,0.0065
1909.00,0.0066
1908.00,0.0067
1907.00,0.0067
1906.00,0.0067
1905.00,0.0067
1904.00,0.0067
1903.00,0.0067
1902.00,0.0067
1901.00,0.0068
1900.00,0.0069
1899.00,0.0069
1898.00,0.0068
1897.00,0.0067
1896.00,0.0067
1895.00,0.0067
1894.00,0.0067
1893.00,0.0067
1892.00,0.0067
1891.00,0.0066
1890.00,0.0066
1889.00,0.0067
1888.00,0.0068
1887.00,0.0069
1886.00,0.0069
1885.00,0.0068
1884.00,0.0069
1883.00,0.0069
1882.00,0.0069
1881.00,0.0068
1880.00,0.0068
1879.00,0.0067
1878.00,0.0066
1877.00,0.0065
1876.00,0.0064
1875.00,0.0064
1874.00,0.0065
1873.00,0.0065
1872.00,0.0065
1871.00,0.0065
1870.00,0.0065
1869.00,0.0065
1868.00,0.0065
1867.00,0.0066
1866.00,0.0066
1865.00,0.0067
1864.00,0.0066
1863.00,0.0065
1862.00,0.0065
1861.00,0.0065
1860.00,0.0067
1859.00,0.0068
1858.00,0.0068
1857.00,0.0068
1856.00,0.0068
1855.00,0.0067
1854.00,0.0066
1853.00,0.0065
1852.00,0.0065
1851.00,0.0065
1850.00,0.0065
1849.00,0.0065
1848.00,0.0065
1847.00,0.0064
1846.00,0.0063
1845.00,0.0062
1844.00,0.0063
1843.00,0.0064
1842.00,0.0065
1841.00,0.0065
1840.00,0.0065
1839.00,0.0064
1838.00,0.0064
1837.00,0.0064
1836.00,0.0065
1835.00,0.0065
1834.00,0.0065
1833.00,0.0064
1832.00,0.0064
1831.00,0.0065
1830.00,0.0065
1829.00,0.0066
1828.00,0.0065
1827.00,0.0065
1826.00,0.0064
1825.00,0.0064
1824.00,0.0064
1823.00,0.0064
1822.00,0.0064
1821.00,0.0064
1820.00,0.0064
1819.00,0.0063
1818.00,0.0062
1817.00,0.0061
1816.00,0.0061
1815.00,0.0062
1814.00,0.0062
1813.00,0.0061
1812.00,0.0061
1811.00,0.0062
1810.00,0.0064
1809.00,0.0065
1808.00,0.0065
1807.00,0.0064
1806.00,0.0064
1805.00,0.0063
1804.00,0.0062
1803.00,0.0061
1802.00,0.0061
1801.00,0.0061
1800.00,0.0061
1799.00,0.0062
1798.00,0.0062
1797.00,0.0063
1796.00,0.0063
1795.00,0.0063
1794.00,0.0063
1793.00,0.0063
1792.00,0.0064
1791.00,0.0064
1790.00,0.0064
1789.00,0.0063
1788.00,0.0063
1787.00,0.0062
1786.00,0.0062
1785.00,0.0063
1784.00,0.0063
1783.00,0.0063
1782.00,0.0063
1781.00,0.0063
1780.00,0.0063
1779.00,0.0062
1778.00,0.0062
1777.00,0.0062
1776.00,0.0062
1775.00,0.0061
1774.00,0.0061
1773.00,0.0061
1772.00,0.0061
1771.00,0.0061
1770.00,0.0061
1769.00,0.0061
1768.00,0.0062
1767.00,0.0062
1766.00,0.0062
1765.00,0.0061
1764.00,0.0061
1763.00,0.0061
1762.00,0.0062
1761.00,0.0062
1760.00,0.0062
1759.00,0.0062
1758.00,0.0063
1757.00,0.0064
1756.00,0.0064
1755.00,0.0064
1754.00,0.0063
1753.00,0.0062
1752.00,0.0062
1751.00,0.0062
1750.00,0.0062
1749.00,0.0063
1748.00,0.0064
1747.00,0.0065
1746.00,0.0066
1745.00,0.0066
1744.00,0.0067
1743.00,0.0067
1742.00,0.0068
1741.00,0.0068
1740.00,0.0070
1739.00,0.0071
1738.00,0.0072
1737.00,0.0072
1736.00,0.0073
1735.00,0.0073
1734.00,0.0073
1733.00,0.0073
1732.00,0.0074
1731.00,0.0074
1730.00,0.0075
1729.00,0.0076
1728.00,0.0077
1727.00,0.0078
1726.00,0.0078
1725.00,0.0079
1724.00,0.0079
1723.00,0.0080
1722.00,0.0081
1721.00,0.0082
1720.00,0.0083
1719.00,0.0083
1718.00,0.0083
1717.00,0.0085
1716.00,0.0088
1715.00,0.0091
1714.00,0.0094
1713.00,0.0097
1712.00,0.0101
1711.00,0.0105
1710.00,0.0109
1709.00,0.0113
1708.00,0.0119
1707.00,0.0126
1706.00,0.0135
1705.00,0.0144
1704.00,0.0154
1703.00,0.0163
1702.00,0.0176
1701.00,0.0196
1700.00,0.0223
1699.00,0.0244
1698.00,0.0259
1697.00,0.0274
1696.00,0.0292
1695.00,0.0308
1694.00,0.0318
1693.00,0.0324
1692.00,0.0329
1691.00,0.0334
1690.00,0.0340
1689.00,0.0346
1688.00,0.0352
1687.00,0.0357
1686.00,0.0363
1685.00,0.0374
1684.00,0.0388
1683.00,0.0401
1682.00,0.0409
1681.00,0.0417
1680.00,0.0425
1679.00,0.0434
1678.00,0.0442
1677.00,0.0451
1676.00,0.0462
1675.00,0.0476
1674.00,0.0488
1673.00,0.0496
1672.00,0.0504
1671.00,0.0513
1670.00,0.0525
1669.00,0.0539
1668.00,0.0552
1667.00,0.0562
1666.00,0.0570
1665.00,0.0578
1664.00,0.0588
1663.00,0.0600
1662.00,0.0612
1661.00,0.0623
1660.00,0.0632
1659.00,0.0640
1658.00,0.0647
1657.00,0.0652
1656.00,0.0656
1655.00,0.0660
1654.00,0.0672
1653.00,0.0693
1652.00,0.0712
1651.00,0.0719
1650.00,0.0720
1649.00,0.0720
1648.00,0.0724
1647.00,0.0734
1646.00,0.0746
1645.00,0.0755
1644.00,0.0762
1643.00,0.0766
1642.00,0.0770
1641.00,0.0774
1640.00,0.0778
1639.00,0.0781
1638.00,0.0784
1637.00,0.0791
1636.00,0.0804
1635.00,0.0821
1634.00,0.0833
1633.00,0.0839
1632.00,0.0844
1631.00,0.0848
1630.00,0.0854
1629.00,0.0863
1628.00,0.0874
1627.00,0.0885
1626.00,0.0894
1625.00,0.0902
1624.00,0.0914
1623.00,0.0927
1622.00,0.0939
1621.00,0.0947
1620.00,0.0949
1619.00,0.0949
1618.00,0.0950
1617.00,0.0952
1616.00,0.0954
1615.00,0.0952
1614.00,0.0944
1613.00,0.0931
1612.00,0.0916
1611.00,0.0899
1610.00,0.0880
1609.00,0.0861
1608.00,0.0840
1607.00,0.0819
1606.00,0.0797
1605.00,0.0775
1604.00,0.0751
1603.00,0.0728
1602.00,0.0705
1601.00,0.0683
1600.00,0.0662
1599.00,0.0642
1598.00,0.0622
1597.00,0.0604
1596.00,0.0586
1595.00,0.0569
1594.00,0.0552
1593.00,0.0537
1592.00,0.0522
1591.00,0.0509
1590.00,0.0497
1589.00,0.0486
1588.00,0.0475
1587.00,0.0466
1586.00,0.0458
1585.00,0.0451
1584.00,0.0445
1583.00,0.0439
1582.00,0.0434
1581.00,0.0430
1580.00,0.0426
1579.00,0.0422
1578.00,0.0419
1577.00,0.0419
1576.00,0.0421
1575.00,0.0424
1574.00,0.0425
1573.00,0.0426
1572.00,0.0425
1571.00,0.0427
1570.00,0.0432
1569.00,0.0439
1568.00,0.0445
1567.00,0.0449
1566.00,0.0455
1565.00,0.0461
1564.00,0.0468
1563.00,0.0473
1562.00,0.0477
1561.00,0.0482
1560.00,0.0491
1559.00,0.0510
1558.00,0.0530
1557.00,0.0542
1556.00,0.0549
1555.00,0.0556
1554.00,0.0566
1553.00,0.0576
1552.00,0.0584
1551.00,0.0593
1550.00,0.0603
1549.00,0.0614
1548.00,0.0623
1547.00,0.0630
1546.00,0.0637
1545.00,0.0646
1544.00,0.0655
1543.00,0.0662
1542.00,0.0669
1541.00,0.0680
1540.00,0.0696
1539.00,0.0712
1538.00,0.0722
1537.00,0.0725
1536.00,0.0726
1535.00,0.0728
1534.00,0.0734
1533.00,0.0743
1532.00,0.0750
1531.00,0.0755
1530.00,0.0757
1529.00,0.0759
1528.00,0.0762
1527.00,0.0766
1526.00,0.0770
1525.00,0.0773
1524.00,0.0773
1523.00,0.0774
1522.00,0.0778
1521.00,0.0785
1520.00,0.0791
1519.00,0.0792
1518.00,0.0793
1517.00,0.0793
1516.00,0.0795
1515.00,0.0794
1514.00,0.0790
1513.00,0.0785
1512.00,0.0778
1511.00,0.0769
1510.00,0.0759
1509.00,0.0748
1508.00,0.0736
1507.00,0.0728
1506.00,0.0724
1505.00,0.0718
1504.00,0.0708
1503.00,0.0695
1502.00,0.0682
1501.00,0.0669
1500.00,0.0656
1499.00,0.0644
1498.00,0.0632
1497.00,0.0620
1496.00,0.0607
1495.00,0.0595
1494.00,0.0581
1493.00,0.0567
1492.00,0.0553
1491.00,0.0540
1490.00,0.0527
1489.00,0.0517
1488.00,0.0508
1487.00,0.0500
1486.00,0.0492
1485.00,0.0485
1484.00,0.0479
1483.00,0.0474
1482.00,0.0471
1481.00,0.0469
1480.00,0.0469
1479.00,0.0468
1478.00,0.0469
1477.00,0.0471
1476.00,0.0474
1475.00,0.0478
1474.00,0.0483
1473.00,0.0491
1472.00,0.0501
1471.00,0.0509
1470.00,0.0515
1469.00,0.0518
1468.00,0.0521
1467.00,0.0524
1466.00,0.0529
1465.00,0.0535
1464.00,0.0540
1463.00,0.0544
1462.00,0.0546
1461.00,0.0546
1460.00,0.0547
1459.00,0.0549
1458.00,0.0556
1457.00,0.0568
1456.00,0.0579
1455.00,0.0585
1454.00,0.0587
1453.00,0.0587
1452.00,0.0586
1451.00,0.0586
1450.00,0.0585
1449.00,0.0584
1448.00,0.0584
1447.00,0.0583
1446.00,0.0580
1445.00,0.0577
1444.00,0.0574
1443.00,0.0570
1442.00,0.0565
1441.00,0.0560
1440.00,0.0554
1439.00,0.0547
1438.00,0.0541
1437.00,0.0537
1436.00,0.0533
1435.00,0.0529
1434.00,0.0522
1433.00,0.0514
1432.00,0.0506
1431.00,0.0499
1430.00,0.0493
1429.00,0.0488
1428.00,0.0483
1427.00,0.0479
1426.00,0.0474
1425.00,0.0470
1424.00,0.0468
1423.00,0.0466
1422.00,0.0465
1421.00,0.0464
1420.00,0.0464
1419.00,0.0466
1418.00,0.0468
1417.00,0.0469
1416.00,0.0469
1415.00,0.0469
1414.00,0.0469
1413.00,0.0469
1412.00,0.0469
1411.00,0.0469
1410.00,0.0469
1409.00,0.0469
1408.00,0.0469
1407.00,0.0469
1406.00,0.0469
1405.00,0.0468
1404.00,0.0467
1403.00,0.0467
1402.00,0.0466
1401.00,0.0464
1400.00,0.0463
1399.00,0.0462
1398.00,0.0461
1397.00,0.0460
1396.00,0.0459
1395.00,0.0459
1394.00,0.0460
1393.00,0.0461
1392.00,0.0461
1391.00,0.0460
1390.00,0.0459
1389.00,0.0458
1388.00,0.0457
1387.00,0.0456
1386.00,0.0456
1385.00,0.0455
1384.00,0.0453
1383.00,0.0451
1382.00,0.0450
1381.00,0.0448
1380.00,0.0446
1379.00,0.0445
1378.00,0.0443
1377.00,0.0440
1376.00,0.0438
1375.00,0.0436
1374.00,0.0436
1373.00,0.0437
1372.00,0.0437
1371.00,0.0436
1370.00,0.0435
1369.00,0.0433
1368.00,0.0431
1367.00,0.0427
1366.00,0.0423
1365.00,0.0419
1364.00,0.0414
1363.00,0.0409
1362.00,0.0406
1361.00,0.0404
1360.00,0.0402
1359.00,0.0400
1358.00,0.0399
1357.00,0.0397
1356.00,0.0395
1355.00,0.0394
1354.00,0.0392
1353.00,0.0391
1352.00,0.0391
1351.00,0.0391
1350.00,0.0391
1349.00,0.0391
1348.00,0.0391
1347.00,0.0392
1346.00,0.0392
1345.00,0.0392
1344.00,0.0392
1343.00,0.0391
1342.00,0.0390
1341.00,0.0389
1340.00,0.0389
1339.00,0.0390
1338.00,0.0390
1337.00,0.0391
1336.00,0.0390
1335.00,0.0390
1334.00,0.0389
1333.00,0.0388
1332.00,0.0387
1331.00,0.0386
1330.00,0.0386
1329.00,0.0385
1328.00,0.0384
1327.00,0.0384
1326.00,0.0384
1325.00,0.0384
1324.00,0.0383
1323.00,0.0383
1322.00,0.0382
1321.00,0.0382
1320.00,0.0382
1319.00,0.0382
1318.00,0.0382
1317.00,0.0382
1316.00,0.0382
1315.00,0.0382
1314.00,0.0382
1313.00,0.0383
1312.00,0.0383
1311.00,0.0383
1310.00,0.0383
1309.00,0.0383
1308.00,0.0382
1307.00,0.0382
1306.00,0.0382
1305.00,0.0381
1304.00,0.0381
1303.00,0.0381
1302.00,0.0380
1301.00,0.0380
1300.00,0.0380
1299.00,0.0380
1298.00,0.0379
1297.00,0.0379
1296.00,0.0378
1295.00,0.0378
1294.00,0.0379
1293.00,0.0380
1292.00,0.0380
1291.00,0.0380
1290.00,0.0380
1289.00,0.0380
1288.00,0.0380
1287.00,0.0380
1286.00,0.0380
1285.00,0.0380
1284.00,0.0380
1283.00,0.0381
1282.00,0.0380
1281.00,0.0380
1280.00,0.0379
1279.00,0.0378
1278.00,0.0378
1277.00,0.0378
1276.00,0.0378
1275.00,0.0378
1274.00,0.0377
1273.00,0.0377
1272.00,0.0377
1271.00,0.0378
1270.00,0.0379
1269.00,0.0379
1268.00,0.0380
1267.00,0.0382
1266.00,0.0384
1265.00,0.0385
1264.00,0.0386
1263.00,0.0387
1262.00,0.0389
1261.00,0.0391
1260.00,0.0393
1259.00,0.0396
1258.00,0.0398
1257.00,0.0400
1256.00,0.0402
1255.00,0.0407
1254.00,0.0412
1253.00,0.0417
1252.00,0.0421
1251.00,0.0424
1250.00,0.0428
1249.00,0.0431
1248.00,0.0433
1247.00,0.0436
1246.00,0.0438
1245.00,0.0441
1244.00,0.0444
1243.00,0.0447
1242.00,0.0449
1241.00,0.0450
1240.00,0.0451
1239.00,0.0453
1238.00,0.0454
1237.00,0.0456
1236.00,0.0457
1235.00,0.0458
1234.00,0.0458
1233.00,0.0457
1232.00,0.0456
1231.00,0.0455
1230.00,0.0455
1229.00,0.0455
1228.00,0.0454
1227.00,0.0452
1226.00,0.0451
1225.00,0.0448
1224.00,0.0446
1223.00,0.0443
1222.00,0.0441
1221.00,0.0438
1220.00,0.0435
1219.00,0.0432
1218.00,0.0429
1217.00,0.0426
1216.00,0.0422
1215.00,0.0419
1214.00,0.0415
1213.00,0.0412
1212.00,0.0408
1211.00,0.0404
1210.00,0.0400
1209.00,0.0396
1208.00,0.0392
1207.00,0.0388
1206.00,0.0384
1205.00,0.0380
1204.00,0.0376
1203.00,0.0373
1202.00,0.0369
1201.00,0.0365
1200.00,0.0362
1199.00,0.0358
1198.00,0.0355
1197.00,0.0352
1196.00,0.0349
1195.00,0.0347
1194.00,0.0345
1193.00,0.0342
1192.00,0.0340
1191.00,0.0337
1190.00,0.0335
1189.00,0.0334
1188.00,0.0332
1187.00,0.0331
1186.00,0.0330
1185.00,0.0329
1184.00,0.0328
1183.00,0.0328
1182.00,0.0328
1181.00,0.0328
1180.00,0.0328
1179.00,0.0328
1178.00,0.0329
1177.00,0.0331
1176.00,0.0333
1175.00,0.0335
1174.00,0.0337
1173.00,0.0339
1172.00,0.0341
1171.00,0.0344
1170.00,0.0347
1169.00,0.0349
1168.00,0.0350
1167.00,0.0352
1166.00,0.0354
1165.00,0.0355
1164.00,0.0357
1163.00,0.0358
1162.00,0.0358
1161.00,0.0358
1160.00,0.0357
1159.00,0.0356
1158.00,0.0356
1157.00,0.0355
1156.00,0.0354
1155.00,0.0353
1154.00,0.0351
1153.00,0.0348
1152.00,0.0345
1151.00,0.0342
1150.00,0.0339
1149.00,0.0336
1148.00,0.0332
1147.00,0.0329
1146.00,0.0326
1145.00,0.0324
1144.00,0.0321
1143.00,0.0320
1142.00,0.0318
1141.00,0.0317
1140.00,0.0315
1139.00,0.0313
1138.00,0.0312
1137.00,0.0311
1136.00,0.0310
1135.00,0.0310
1134.00,0.0310
1133.00,0.0309
1132.00,0.0308
1131.00,0.0307
1130.00,0.0307
1129.00,0.0306
1128.00,0.0306
1127.00,0.0305
1126.00,0.0305
1125.00,0.0305
1124.00,0.0304
1123.00,0.0303
1122.00,0.0302
1121.00,0.0301
1120.00,0.0300
1119.00,0.0299
1118.00,0.0299
1117.00,0.0299
1116.00,0.0299
1115.00,0.0298
1114.00,0.0298
1113.00,0.0298
1112.00,0.0297
1111.00,0.0297
1110.00,0.0297
1109.00,0.0298
1108.00,0.0298
1107.00,0.0298
1106.00,0.0299
1105.00,0.0300
1104.00,0.0300
1103.00,0.0301
1102.00,0.0303
1101.00,0.0304
1100.00,0.0306
1099.00,0.0308
1098.00,0.0310
1097.00,0.0313
1096.00,0.0316
1095.00,0.0319
1094.00,0.0322
1093.00,0.0326
1092.00,0.0329
1091.00,0.0333
1090.00,0.0338
1089.00,0.0343
1088.00,0.0348
1087.00,0.0353
1086.00,0.0359
1085.00,0.0365
1084.00,0.0371
1083.00,0.0377
1082.00,0.0384
1081.00,0.0391
1080.00,0.0396
1079.00,0.0401
1078.00,0.0406
1077.00,0.0412
1076.00,0.0418
1075.00,0.0424
1074.00,0.0429
1073.00,0.0433
1072.00,0.0436
1071.00,0.0440
1070.00,0.0444
1069.00,0.0446
1068.00,0.0448
1067.00,0.0449
1066.00,0.0449
1065.00,0.0450
1064.00,0.0449
1063.00,0.0447
1062.00,0.0444
1061.00,0.0442
1060.00,0.0439
1059.00,0.0436
1058.00,0.0434
1057.00,0.0430
1056.00,0.0428
1055.00,0.0426
1054.00,0.0424
1053.00,0.0423
1052.00,0.0422
1051.00,0.0420
1050.00,0.0419
1049.00,0.0418
1048.00,0.0415
1047.00,0.0412
1046.00,0.0408
1045.00,0.0405
1044.00,0.0401
1043.00,0.0399
1042.00,0.0396
1041.00,0.0393
1040.00,0.0388
1039.00,0.0384
1038.00,0.0380
1037.00,0.0376
1036.00,0.0372
1035.00,0.0368
1034.00,0.0365
1033.00,0.0362
1032.00,0.0360
1031.00,0.0358
1030.00,0.0355
1029.00,0.0351
1028.00,0.0346
1027.00,0.0342
1026.00,0.0338
1025.00,0.0334
1024.00,0.0330
1023.00,0.0326
1022.00,0.0323
1021.00,0.0320
1020.00,0.0317
1019.00,0.0313
1018.00,0.0310
1017.00,0.0305
1016.00,0.0301
1015.00,0.0296
1014.00,0.0293
1013.00,0.0290
1012.00,0.0285
1011.00,0.0281
1010.00,0.0276
1009.00,0.0272
1008.00,0.0268
1007.00,0.0265
1006.00,0.0264
1005.00,0.0263
1004.00,0.0262
1003.00,0.0261
1002.00,0.0259
1001.00,0.0257
1000.00,0.0255
999.00,0.0253
998.00,0.0252
997.00,0.0251
996.00,0.0249
995.00,0.0248
994.00,0.0247
993.00,0.0246
992.00,0.0245
991.00,0.0243
990.00,0.0242
989.00,0.0241
988.00,0.0240
987.00,0.0238
986.00,0.0237
985.00,0.0236
984.00,0.0235
983.00,0.0235
982.00,0.0235
981.00,0.0235
980.00,0.0235
979.00,0.0235
978.00,0.0237
977.00,0.0237
976.00,0.0237
975.00,0.0238
974.00,0.0239
973.00,0.0240
972.00,0.0241
971.00,0.0242
970.00,0.0243
969.00,0.0244
968.00,0.0245
967.00,0.0246
966.00,0.0247
965.00,0.0249
964.00,0.0250
963.00,0.0251
962.00,0.0253
961.00,0.0255
960.00,0.0255
959.00,0.0256
958.00,0.0256
957.00,0.0256
956.00,0.0256
955.00,0.0256
954.00,0.0256
953.00,0.0257
952.00,0.0257
951.00,0.0256
950.00,0.0256
949.00,0.0255
948.00,0.0254
947.00,0.0254
946.00,0.0254
945.00,0.0255
944.00,0.0255
943.00,0.0255
942.00,0.0256
941.00,0.0256
940.00,0.0256
939.00,0.0256
938.00,0.0256
937.00,0.0255
936.00,0.0254
935.00,0.0253
934.00,0.0254
933.00,0.0255
932.00,0.0256
931.00,0.0258
930.00,0.0259
929.00,0.0259
928.00,0.0257
927.00,0.0256
926.00,0.0256
925.00,0.0256
924.00,0.0255
923.00,0.0254
922.00,0.0252
921.00,0.0251
920.00,0.0249
919.00,0.0249
918.00,0.0248
917.00,0.0248
916.00,0.0247
915.00,0.0245
914.00,0.0244
913.00,0.0243
912.00,0.0242
911.00,0.0242
910.00,0.0242
909.00,0.0242
908.00,0.0242
907.00,0.0242
906.00,0.0242
905.00,0.0242
904.00,0.0242
903.00,0.0243
902.00,0.0244
901.00,0.0244
900.00,0.0243
899.00,0.0242
898.00,0.0241
897.00,0.0239
896.00,0.0238
895.00,0.0237
894.00,0.0237
893.00,0.0236
892.00,0.0234
891.00,0.0233
890.00,0.0231
889.00,0.0230
888.00,0.0229
887.00,0.0228
886.00,0.0227
885.00,0.0225
884.00,0.0224
883.00,0.0224
882.00,0.0224
881.00,0.0225
880.00,0.0225
879.00,0.0225
878.00,0.0224
877.00,0.0224
876.00,0.0223
875.00,0.0223
874.00,0.0224
873.00,0.0225
872.00,0.0225
871.00,0.0223
870.00,0.0222
869.00,0.0221
868.00,0.0219
867.00,0.0219
866.00,0.0219
865.00,0.0219
864.00,0.0219
863.00,0.0218
862.00,0.0218
861.00,0.0217
860.00,0.0216
859.00,0.0215
858.00,0.0215
857.00,0.0215
856.00,0.0215
855.00,0.0215
854.00,0.0216
853.00,0.0217
852.00,0.0217
851.00,0.0216
850.00,0.0216
849.00,0.0216
848.00,0.0214
847.00,0.0214
846.00,0.0213
845.00,0.0214
844.00,0.0214
843.00,0.0216
842.00,0.0217
841.00,0.0218
840.00,0.0218
839.00,0.0218
838.00,0.0218
837.00,0.0219
836.00,0.0220
835.00,0.0223
834.00,0.0225
833.00,0.0227
832.00,0.0228
831.00,0.0229
830.00,0.0231
829.00,0.0233
828.00,0.0234
827.00,0.0235
826.00,0.0237
825.00,0.0239
824.00,0.0240
823.00,0.0241
822.00,0.0242
821.00,0.0244
820.00,0.0246
819.00,0.0248
818.00,0.0250
817.00,0.0251
816.00,0.0253
815.00,0.0254
814.00,0.0255
813.00,0.0256
812.00,0.0257
811.00,0.0258
810.00,0.0259
809.00,0.0260
808.00,0.0262
807.00,0.0263
806.00,0.0264
805.00,0.0265
804.00,0.0266
803.00,0.0266
802.00,0.0268
801.00,0.0269
800.00,0.0270
799.00,0.0271
798.00,0.0273
797.00,0.0275
796.00,0.0276
795.00,0.0277
794.00,0.0278
793.00,0.0279
792.00,0.0281
791.00,0.0283
790.00,0.0285
789.00,0.0287
788.00,0.0289
787.00,0.0290
786.00,0.0292
785.00,0.0294
784.00,0.0296
783.00,0.0299
782.00,0.0303
781.00,0.0306
780.00,0.0309
779.00,0.0311
778.00,0.0313
777.00,0.0316
776.00,0.0318
775.00,0.0320
774.00,0.0323
773.00,0.0326
772.00,0.0328
771.00,0.0329
770.00,0.0330
769.00,0.0332
768.00,0.0333
767.00,0.0335
766.00,0.0337
765.00,0.0339
764.00,0.0340
763.00,0.0342
762.00,0.0345
761.00,0.0348
760.00,0.0350
759.00,0.0351
758.00,0.0354
757.00,0.0361
756.00,0.0374
755.00,0.0387
754.00,0.0393
753.00,0.0389
752.00,0.0378
751.00,0.0370
750.00,0.0367
749.00,0.0369
748.00,0.0370
747.00,0.0371
746.00,0.0373
745.00,0.0375
744.00,0.0376
743.00,0.0377
742.00,0.0378
741.00,0.0379
740.00,0.0378
739.00,0.0377
738.00,0.0378
737.00,0.0379
736.00,0.0381
735.00,0.0383
734.00,0.0386
733.00,0.0388
732.00,0.0390
731.00,0.0392
730.00,0.0395
729.00,0.0398
728.00,0.0402
727.00,0.0405
726.00,0.0409
725.00,0.0413
724.00,0.0417
723.00,0.0421
722.00,0.0426
721.00,0.0431
720.00,0.0436
719.00,0.0441
718.00,0.0447
717.00,0.0452
716.00,0.0457
715.00,0.0462
714.00,0.0469
713.00,0.0474
712.00,0.0480
711.00,0.0486
710.00,0.0494
709.00,0.0503
708.00,0.0510
707.00,0.0518
706.00,0.0526
705.00,0.0535
704.00,0.0544
703.00,0.0552
702.00,0.0560
701.00,0.0567
700.00,0.0571
699.00,0.0574
698.00,0.0576
697.00,0.0578
696.00,0.0578
695.00,0.0577
694.00,0.0576
693.00,0.0576
692.00,0.0574
691.00,0.0574
690.00,0.0574
689.00,0.0576
688.00,0.0577
687.00,0.0578
686.00,0.0580
685.00,0.0582
684.00,0.0583
683.00,0.0584
682.00,0.0586
681.00,0.0587
680.00,0.0588
679.00,0.0589
678.00,0.0591
677.00,0.0593
676.00,0.0593
675.00,0.0595
674.00,0.0597
673.00,0.0600
672.00,0.0601
671.00,0.0601
670.00,0.0603
669.00,0.0606
668.00,0.0610
667.00,0.0616
666.00,0.0617
665.00,0.0615
664.00,0.0612
663.00,0.0611
662.00,0.0612
661.00,0.0613
660.00,0.0614
659.00,0.0616
658.00,0.0618
657.00,0.0620
656.00,0.0621
655.00,0.0622
654.00,0.0625
653.00,0.0627
652.00,0.0627
651.00,0.0629
650.00,0.0631
649.00,0.0633
648.00,0.0635
647.00,0.0637
646.00,0.0641
645.00,0.0644
644.00,0.0646
643.00,0.0648
642.00,0.0652
641.00,0.0654
640.00,0.0657
639.00,0.0660
638.00,0.0664
637.00,0.0668
636.00,0.0671
635.00,0.0672
634.00,0.0673
633.00,0.0674
632.00,0.0676
631.00,0.0679
630.00,0.0683
629.00,0.0686
628.00,0.0686
627.00,0.0685
626.00,0.0686
625.00,0.0687
624.00,0.0688
623.00,0.0690
622.00,0.0691
621.00,0.0690
620.00,0.0688
619.00,0.0686
618.00,0.0685
617.00,0.0684
616.00,0.0682
615.00,0.0681
614.00,0.0682
613.00,0.0682
612.00,0.0680
611.00,0.0678
610.00,0.0678
609.00,0.0678
608.00,0.0679
607.00,0.0680
606.00,0.0682
605.00,0.0683
604.00,0.0683
603.00,0.0682
602.00,0.0681
601.00,0.0681
600.00,0.0680
599.00,0.0681
598.00,0.0682
597.00,0.0683
596.00,0.0682
595.00,0.0682
594.00,0.0683
593.00,0.0683
592.00,0.0683
591.00,0.0685
590.00,0.0687
589.00,0.0689
588.00,0.0689
587.00,0.0689
586.00,0.0690
585.00,0.0692
584.00,0.0692
583.00,0.0692
582.00,0.0692
581.00,0.0692
580.00,0.0692
579.00,0.0693
578.00,0.0696
577.00,0.0698
576.00,0.0698
575.00,0.0699
574.00,0.0702
573.00,0.0705
572.00,0.0706
571.00,0.0707
570.00,0.0709
569.00,0.0710
568.00,0.0709
567.00,0.0709
566.00,0.0713
565.00,0.0717
564.00,0.0719
563.00,0.0719
562.00,0.0719
561.00,0.0718
560.00,0.0716
559.00,0.0715
558.00,0.0717
557.00,0.0720
556.00,0.0723
555.00,0.0726
554.00,0.0729
553.00,0.0732
552.00,0.0733
551.00,0.0734
550.00,0.0737
549.00,0.0739
548.00,0.0740
547.00,0.0742
546.00,0.0746
545.00,0.0748
544.00,0.0749
543.00,0.0751
542.00,0.0753
541.00,0.0756
540.00,0.0757
539.00,0.0758
538.00,0.0761
537.00,0.0763
536.00,0.0764
535.00,0.0766
534.00,0.0769
533.00,0.0773
532.00,0.0775
531.00,0.0777
530.00,0.0781
529.00,0.0785
528.00,0.0785
527.00,0.0784
526.00,0.0786
525.00,0.0790
524.00,0.0792
523.00,0.0793
522.00,0.0794
521.00,0.0792
520.00,0.0788
519.00,0.0786
518.00,0.0786
517.00,0.0786
516.00,0.0785
515.00,0.0785
514.00,0.0787
513.00,0.0788
512.00,0.0788
511.00,0.0790
510.00,0.0794
509.00,0.0796
508.00,0.0794
507.00,0.0791
506.00,0.0786
505.00,0.0778
504.00,0.0767
503.00,0.0762
502.00,0.0768
501.00,0.0778
500.00,0.0784
499.00,0.0784
498.00,0.0783
497.00,0.0781
496.00,0.0778
495.00,0.0775
494.00,0.0775
493.00,0.0775
492.00,0.0774
491.00,0.0775
490.00,0.0777
489.00,0.0779
488.00,0.0778
487.00,0.0776
486.00,0.0776
485.00,0.0774
484.00,0.0768
483.00,0.0764
482.00,0.0764
481.00,0.0765
480.00,0.0763
479.00,0.0762
478.00,0.0764
477.00,0.0765
476.00,0.0761
475.00,0.0756
474.00,0.0755
473.00,0.0756
472.00,0.0756
471.00,0.0759
470.00,0.0765
469.00,0.0767
468.00,0.0763
467.00,0.0762
466.00,0.0767
465.00,0.0772
464.00,0.0771
463.00,0.0767
462.00,0.0764
461.00,0.0761
460.00,0.0754
459.00,0.0748
458.00,0.0746
457.00,0.0747
456.00,0.0746
455.00,0.0748
454.00,0.0754
453.00,0.0758
452.00,0.0758
451.00,0.0758
450.00,0.0759
449.00,0.0758
448.00,0.0751
447.00,0.0743
446.00,0.0741
445.00,0.0743
444.00,0.0743
443.00,0.0744
442.00,0.0747
441.00,0.0746
440.00,0.0738
439.00,0.0730
438.00,0.0724
437.00,0.0716
436.00,0.0704
435.00,0.0696
434.00,0.0697
433.00,0.0701
432.00,0.0701
431.00,0.0700
430.00,0.0705
429.00,0.0710
428.00,0.0707
427.00,0.0701
426.00,0.0697
425.00,0.0690
424.00,0.0679
423.00,0.0669
422.00,0.0665
421.00,0.0659
420.00,0.0646
419.00,0.0636
418.00,0.0642
417.00,0.0650
416.00,0.0653
415.00,0.0656
414.00,0.0663
413.00,0.0664
412.00,0.0653
411.00,0.0641
410.00,0.0641
409.00,0.0644
408.00,0.0644
407.00,0.0647
406.00,0.0656
405.00,0.0654
404.00,0.0633
403.00,0.0611
402.00,0.0604
401.00,0.0599
400.00,0.0581
