Created as New Dataset,Sample 461 By YargerLab Date Saturday, March 01 2025
cm-1,A
4000.00,-0.0113
3999.00,-0.0113
3998.00,-0.0113
3997.00,-0.0113
3996.00,-0.0113
3995.00,-0.0113
3994.00,-0.0113
3993.00,-0.0113
3992.00,-0.0113
3991.00,-0.0113
3990.00,-0.0113
3989.00,-0.0113
3988.00,-0.0113
3987.00,-0.0113
3986.00,-0.0113
3985.00,-0.0113
3984.00,-0.0113
3983.00,-0.0113
3982.00,-0.0114
3981.00,-0.0114
3980.00,-0.0114
3979.00,-0.0114
3978.00,-0.0114
3977.00,-0.0113
3976.00,-0.0113
3975.00,-0.0113
3974.00,-0.0114
3973.00,-0.0114
3972.00,-0.0114
3971.00,-0.0114
3970.00,-0.0114
3969.00,-0.0114
3968.00,-0.0114
3967.00,-0.0114
3966.00,-0.0114
3965.00,-0.0114
3964.00,-0.0114
3963.00,-0.0115
3962.00,-0.0115
3961.00,-0.0115
3960.00,-0.0114
3959.00,-0.0114
3958.00,-0.0114
3957.00,-0.0115
3956.00,-0.0115
3955.00,-0.0115
3954.00,-0.0115
3953.00,-0.0114
3952.00,-0.0114
3951.00,-0.0114
3950.00,-0.0114
3949.00,-0.0114
3948.00,-0.0114
3947.00,-0.0114
3946.00,-0.0115
3945.00,-0.0115
3944.00,-0.0115
3943.00,-0.0114
3942.00,-0.0114
3941.00,-0.0114
3940.00,-0.0115
3939.00,-0.0115
3938.00,-0.0115
3937.00,-0.0116
3936.00,-0.0116
3935.00,-0.0116
3934.00,-0.0116
3933.00,-0.0116
3932.00,-0.0116
3931.00,-0.0116
3930.00,-0.0116
3929.00,-0.0116
3928.00,-0.0116
3927.00,-0.0116
3926.00,-0.0116
3925.00,-0.0116
3924.00,-0.0116
3923.00,-0.0116
3922.00,-0.0116
3921.00,-0.0116
3920.00,-0.0116
3919.00,-0.0116
3918.00,-0.0116
3917.00,-0.0116
3916.00,-0.0116
3915.00,-0.0116
3914.00,-0.0116
3913.00,-0.0117
3912.00,-0.0117
3911.00,-0.0117
3910.00,-0.0117
3909.00,-0.0117
3908.00,-0.0117
3907.00,-0.0117
3906.00,-0.0117
3905.00,-0.0117
3904.00,-0.0117
3903.00,-0.0117
3902.00,-0.0118
3901.00,-0.0118
3900.00,-0.0118
3899.00,-0.0118
3898.00,-0.0118
3897.00,-0.0118
3896.00,-0.0118
3895.00,-0.0118
3894.00,-0.0119
3893.00,-0.0119
3892.00,-0.0119
3891.00,-0.0119
3890.00,-0.0119
3889.00,-0.0119
3888.00,-0.0118
3887.00,-0.0118
3886.00,-0.0118
3885.00,-0.0118
3884.00,-0.0119
3883.00,-0.0119
3882.00,-0.0120
3881.00,-0.0120
3880.00,-0.0119
3879.00,-0.0119
3878.00,-0.0119
3877.00,-0.0119
3876.00,-0.0119
3875.00,-0.0119
3874.00,-0.0119
3873.00,-0.0119
3872.00,-0.0120
3871.00,-0.0120
3870.00,-0.0120
3869.00,-0.0120
3868.00,-0.0121
3867.00,-0.0121
3866.00,-0.0121
3865.00,-0.0120
3864.00,-0.0120
3863.00,-0.0120
3862.00,-0.0120
3861.00,-0.0120
3860.00,-0.0120
3859.00,-0.0121
3858.00,-0.0121
3857.00,-0.0121
3856.00,-0.0121
3855.00,-0.0121
3854.00,-0.0121
3853.00,-0.0121
3852.00,-0.0121
3851.00,-0.0121
3850.00,-0.0121
3849.00,-0.0121
3848.00,-0.0121
3847.00,-0.0121
3846.00,-0.0121
3845.00,-0.0122
3844.00,-0.0122
3843.00,-0.0122
3842.00,-0.0122
3841.00,-0.0122
3840.00,-0.0123
3839.00,-0.0123
3838.00,-0.0123
3837.00,-0.0122
3836.00,-0.0122
3835.00,-0.0122
3834.00,-0.0122
3833.00,-0.0122
3832.00,-0.0122
3831.00,-0.0122
3830.00,-0.0122
3829.00,-0.0122
3828.00,-0.0122
3827.00,-0.0122
3826.00,-0.0122
3825.00,-0.0122
3824.00,-0.0123
3823.00,-0.0123
3822.00,-0.0123
3821.00,-0.0123
3820.00,-0.0122
3819.00,-0.0122
3818.00,-0.0122
3817.00,-0.0122
3816.00,-0.0122
3815.00,-0.0122
3814.00,-0.0122
3813.00,-0.0123
3812.00,-0.0123
3811.00,-0.0123
3810.00,-0.0123
3809.00,-0.0124
3808.00,-0.0124
3807.00,-0.0124
3806.00,-0.0124
3805.00,-0.0124
3804.00,-0.0124
3803.00,-0.0124
3802.00,-0.0124
3801.00,-0.0123
3800.00,-0.0123
3799.00,-0.0123
3798.00,-0.0123
3797.00,-0.0123
3796.00,-0.0123
3795.00,-0.0123
3794.00,-0.0123
3793.00,-0.0123
3792.00,-0.0123
3791.00,-0.0123
3790.00,-0.0123
3789.00,-0.0123
3788.00,-0.0123
3787.00,-0.0123
3786.00,-0.0123
3785.00,-0.0122
3784.00,-0.0122
3783.00,-0.0122
3782.00,-0.0122
3781.00,-0.0123
3780.00,-0.0123
3779.00,-0.0123
3778.00,-0.0123
3777.00,-0.0123
3776.00,-0.0123
3775.00,-0.0123
3774.00,-0.0123
3773.00,-0.0124
3772.00,-0.0124
3771.00,-0.0124
3770.00,-0.0124
3769.00,-0.0124
3768.00,-0.0124
3767.00,-0.0123
3766.00,-0.0123
3765.00,-0.0124
3764.00,-0.0124
3763.00,-0.0124
3762.00,-0.0125
3761.00,-0.0125
3760.00,-0.0124
3759.00,-0.0124
3758.00,-0.0124
3757.00,-0.0124
3756.00,-0.0124
3755.00,-0.0124
3754.00,-0.0124
3753.00,-0.0124
3752.00,-0.0125
3751.00,-0.0125
3750.00,-0.0126
3749.00,-0.0126
3748.00,-0.0126
3747.00,-0.0126
3746.00,-0.0126
3745.00,-0.0126
3744.00,-0.0125
3743.00,-0.0125
3742.00,-0.0125
3741.00,-0.0125
3740.00,-0.0125
3739.00,-0.0125
3738.00,-0.0125
3737.00,-0.0126
3736.00,-0.0127
3735.00,-0.0127
3734.00,-0.0127
3733.00,-0.0127
3732.00,-0.0127
3731.00,-0.0126
3730.00,-0.0126
3729.00,-0.0125
3728.00,-0.0125
3727.00,-0.0125
3726.00,-0.0125
3725.00,-0.0126
3724.00,-0.0126
3723.00,-0.0126
3722.00,-0.0126
3721.00,-0.0126
3720.00,-0.0126
3719.00,-0.0126
3718.00,-0.0126
3717.00,-0.0126
3716.00,-0.0126
3715.00,-0.0127
3714.00,-0.0127
3713.00,-0.0127
3712.00,-0.0127
3711.00,-0.0127
3710.00,-0.0127
3709.00,-0.0126
3708.00,-0.0126
3707.00,-0.0126
3706.00,-0.0126
3705.00,-0.0126
3704.00,-0.0126
3703.00,-0.0127
3702.00,-0.0127
3701.00,-0.0127
3700.00,-0.0127
3699.00,-0.0127
3698.00,-0.0127
3697.00,-0.0127
3696.00,-0.0127
3695.00,-0.0127
3694.00,-0.0127
3693.00,-0.0127
3692.00,-0.0127
3691.00,-0.0128
3690.00,-0.0128
3689.00,-0.0128
3688.00,-0.0128
3687.00,-0.0128
3686.00,-0.0128
3685.00,-0.0128
3684.00,-0.0128
3683.00,-0.0128
3682.00,-0.0128
3681.00,-0.0129
3680.00,-0.0130
3679.00,-0.0130
3678.00,-0.0131
3677.00,-0.0131
3676.00,-0.0131
3675.00,-0.0131
3674.00,-0.0131
3673.00,-0.0131
3672.00,-0.0131
3671.00,-0.0131
3670.00,-0.0131
3669.00,-0.0130
3668.00,-0.0130
3667.00,-0.0129
3666.00,-0.0129
3665.00,-0.0129
3664.00,-0.0129
3663.00,-0.0129
3662.00,-0.0129
3661.00,-0.0129
3660.00,-0.0129
3659.00,-0.0129
3658.00,-0.0129
3657.00,-0.0130
3656.00,-0.0130
3655.00,-0.0130
3654.00,-0.0130
3653.00,-0.0130
3652.00,-0.0130
3651.00,-0.0129
3650.00,-0.0129
3649.00,-0.0128
3648.00,-0.0128
3647.00,-0.0128
3646.00,-0.0127
3645.00,-0.0127
3644.00,-0.0127
3643.00,-0.0126
3642.00,-0.0126
3641.00,-0.0126
3640.00,-0.0126
3639.00,-0.0126
3638.00,-0.0126
3637.00,-0.0126
3636.00,-0.0126
3635.00,-0.0125
3634.00,-0.0125
3633.00,-0.0124
3632.00,-0.0123
3631.00,-0.0123
3630.00,-0.0123
3629.00,-0.0122
3628.00,-0.0123
3627.00,-0.0123
3626.00,-0.0123
3625.00,-0.0123
3624.00,-0.0123
3623.00,-0.0123
3622.00,-0.0122
3621.00,-0.0121
3620.00,-0.0121
3619.00,-0.0120
3618.00,-0.0120
3617.00,-0.0120
3616.00,-0.0120
3615.00,-0.0120
3614.00,-0.0120
3613.00,-0.0120
3612.00,-0.0120
3611.00,-0.0120
3610.00,-0.0120
3609.00,-0.0120
3608.00,-0.0120
3607.00,-0.0119
3606.00,-0.0119
3605.00,-0.0119
3604.00,-0.0119
3603.00,-0.0119
3602.00,-0.0119
3601.00,-0.0119
3600.00,-0.0119
3599.00,-0.0118
3598.00,-0.0118
3597.00,-0.0117
3596.00,-0.0117
3595.00,-0.0116
3594.00,-0.0116
3593.00,-0.0116
3592.00,-0.0116
3591.00,-0.0116
3590.00,-0.0115
3589.00,-0.0115
3588.00,-0.0115
3587.00,-0.0114
3586.00,-0.0114
3585.00,-0.0114
3584.00,-0.0114
3583.00,-0.0115
3582.00,-0.0115
3581.00,-0.0115
3580.00,-0.0115
3579.00,-0.0115
3578.00,-0.0115
3577.00,-0.0114
3576.00,-0.0114
3575.00,-0.0114
3574.00,-0.0113
3573.00,-0.0113
3572.00,-0.0113
3571.00,-0.0113
3570.00,-0.0112
3569.00,-0.0112
3568.00,-0.0112
3567.00,-0.0112
3566.00,-0.0112
3565.00,-0.0111
3564.00,-0.0111
3563.00,-0.0111
3562.00,-0.0110
3561.00,-0.0110
3560.00,-0.0110
3559.00,-0.0110
3558.00,-0.0110
3557.00,-0.0110
3556.00,-0.0110
3555.00,-0.0110
3554.00,-0.0110
3553.00,-0.0109
3552.00,-0.0109
3551.00,-0.0108
3550.00,-0.0107
3549.00,-0.0107
3548.00,-0.0107
3547.00,-0.0107
3546.00,-0.0107
3545.00,-0.0107
3544.00,-0.0107
3543.00,-0.0107
3542.00,-0.0107
3541.00,-0.0107
3540.00,-0.0106
3539.00,-0.0106
3538.00,-0.0106
3537.00,-0.0106
3536.00,-0.0105
3535.00,-0.0105
3534.00,-0.0105
3533.00,-0.0105
3532.00,-0.0105
3531.00,-0.0104
3530.00,-0.0104
3529.00,-0.0104
3528.00,-0.0104
3527.00,-0.0104
3526.00,-0.0104
3525.00,-0.0103
3524.00,-0.0103
3523.00,-0.0102
3522.00,-0.0102
3521.00,-0.0102
3520.00,-0.0102
3519.00,-0.0102
3518.00,-0.0101
3517.00,-0.0101
3516.00,-0.0101
3515.00,-0.0100
3514.00,-0.0100
3513.00,-0.0099
3512.00,-0.0099
3511.00,-0.0099
3510.00,-0.0099
3509.00,-0.0098
3508.00,-0.0098
3507.00,-0.0097
3506.00,-0.0097
3505.00,-0.0096
3504.00,-0.0096
3503.00,-0.0096
3502.00,-0.0096
3501.00,-0.0096
3500.00,-0.0096
3499.00,-0.0095
3498.00,-0.0095
3497.00,-0.0094
3496.00,-0.0094
3495.00,-0.0094
3494.00,-0.0093
3493.00,-0.0093
3492.00,-0.0092
3491.00,-0.0091
3490.00,-0.0091
3489.00,-0.0090
3488.00,-0.0089
3487.00,-0.0089
3486.00,-0.0089
3485.00,-0.0088
3484.00,-0.0088
3483.00,-0.0088
3482.00,-0.0088
3481.00,-0.0087
3480.00,-0.0087
3479.00,-0.0086
3478.00,-0.0086
3477.00,-0.0086
3476.00,-0.0086
3475.00,-0.0085
3474.00,-0.0084
3473.00,-0.0084
3472.00,-0.0083
3471.00,-0.0083
3470.00,-0.0082
3469.00,-0.0082
3468.00,-0.0081
3467.00,-0.0081
3466.00,-0.0081
3465.00,-0.0080
3464.00,-0.0080
3463.00,-0.0079
3462.00,-0.0079
3461.00,-0.0078
3460.00,-0.0078
3459.00,-0.0078
3458.00,-0.0077
3457.00,-0.0077
3456.00,-0.0076
3455.00,-0.0076
3454.00,-0.0075
3453.00,-0.0075
3452.00,-0.0075
3451.00,-0.0074
3450.00,-0.0074
3449.00,-0.0073
3448.00,-0.0073
3447.00,-0.0072
3446.00,-0.0071
3445.00,-0.0071
3444.00,-0.0070
3443.00,-0.0070
3442.00,-0.0070
3441.00,-0.0069
3440.00,-0.0068
3439.00,-0.0067
3438.00,-0.0066
3437.00,-0.0065
3436.00,-0.0065
3435.00,-0.0064
3434.00,-0.0063
3433.00,-0.0063
3432.00,-0.0063
3431.00,-0.0062
3430.00,-0.0062
3429.00,-0.0062
3428.00,-0.0061
3427.00,-0.0061
3426.00,-0.0060
3425.00,-0.0059
3424.00,-0.0058
3423.00,-0.0057
3422.00,-0.0056
3421.00,-0.0056
3420.00,-0.0055
3419.00,-0.0054
3418.00,-0.0054
3417.00,-0.0053
3416.00,-0.0052
3415.00,-0.0052
3414.00,-0.0051
3413.00,-0.0050
3412.00,-0.0050
3411.00,-0.0049
3410.00,-0.0048
3409.00,-0.0047
3408.00,-0.0047
3407.00,-0.0046
3406.00,-0.0046
3405.00,-0.0045
3404.00,-0.0044
3403.00,-0.0043
3402.00,-0.0043
3401.00,-0.0042
3400.00,-0.0041
3399.00,-0.0040
3398.00,-0.0040
3397.00,-0.0039
3396.00,-0.0038
3395.00,-0.0038
3394.00,-0.0038
3393.00,-0.0037
3392.00,-0.0037
3391.00,-0.0036
3390.00,-0.0035
3389.00,-0.0034
3388.00,-0.0033
3387.00,-0.0033
3386.00,-0.0032
3385.00,-0.0031
3384.00,-0.0031
3383.00,-0.0030
3382.00,-0.0029
3381.00,-0.0029
3380.00,-0.0028
3379.00,-0.0027
3378.00,-0.0026
3377.00,-0.0025
3376.00,-0.0024
3375.00,-0.0023
3374.00,-0.0022
3373.00,-0.0021
3372.00,-0.0020
3371.00,-0.0019
3370.00,-0.0018
3369.00,-0.0017
3368.00,-0.0016
3367.00,-0.0014
3366.00,-0.0013
3365.00,-0.0012
3364.00,-0.0010
3363.00,-0.0009
3362.00,-0.0007
3361.00,-0.0006
3360.00,-0.0005
3359.00,-0.0004
3358.00,-0.0002
3357.00,-0.0001
3356.00,0.0001
3355.00,0.0002
3354.00,0.0003
3353.00,0.0005
3352.00,0.0006
3351.00,0.0008
3350.00,0.0010
3349.00,0.0011
3348.00,0.0013
3347.00,0.0015
3346.00,0.0017
3345.00,0.0019
3344.00,0.0020
3343.00,0.0022
3342.00,0.0024
3341.00,0.0026
3340.00,0.0028
3339.00,0.0030
3338.00,0.0032
3337.00,0.0034
3336.00,0.0037
3335.00,0.0039
3334.00,0.0041
3333.00,0.0043
3332.00,0.0045
3331.00,0.0048
3330.00,0.0050
3329.00,0.0053
3328.00,0.0055
3327.00,0.0057
3326.00,0.0060
3325.00,0.0062
3324.00,0.0065
3323.00,0.0067
3322.00,0.0070
3321.00,0.0073
3320.00,0.0075
3319.00,0.0078
3318.00,0.0081
3317.00,0.0084
3316.00,0.0087
3315.00,0.0090
3314.00,0.0093
3313.00,0.0096
3312.00,0.0098
3311.00,0.0101
3310.00,0.0104
3309.00,0.0107
3308.00,0.0110
3307.00,0.0113
3306.00,0.0117
3305.00,0.0120
3304.00,0.0124
3303.00,0.0127
3302.00,0.0131
3301.00,0.0134
3300.00,0.0137
3299.00,0.0140
3298.00,0.0143
3297.00,0.0147
3296.00,0.0150
3295.00,0.0152
3294.00,0.0155
3293.00,0.0158
3292.00,0.0161
3291.00,0.0163
3290.00,0.0166
3289.00,0.0168
3288.00,0.0170
3287.00,0.0173
3286.00,0.0175
3285.00,0.0178
3284.00,0.0180
3283.00,0.0182
3282.00,0.0184
3281.00,0.0185
3280.00,0.0187
3279.00,0.0188
3278.00,0.0188
3277.00,0.0189
3276.00,0.0189
3275.00,0.0189
3274.00,0.0188
3273.00,0.0188
3272.00,0.0188
3271.00,0.0187
3270.00,0.0187
3269.00,0.0186
3268.00,0.0185
3267.00,0.0184
3266.00,0.0182
3265.00,0.0180
3264.00,0.0178
3263.00,0.0175
3262.00,0.0173
3261.00,0.0171
3260.00,0.0169
3259.00,0.0166
3258.00,0.0164
3257.00,0.0161
3256.00,0.0159
3255.00,0.0156
3254.00,0.0154
3253.00,0.0151
3252.00,0.0148
3251.00,0.0145
3250.00,0.0142
3249.00,0.0139
3248.00,0.0136
3247.00,0.0134
3246.00,0.0132
3245.00,0.0130
3244.00,0.0128
3243.00,0.0126
3242.00,0.0124
3241.00,0.0123
3240.00,0.0120
3239.00,0.0118
3238.00,0.0115
3237.00,0.0113
3236.00,0.0110
3235.00,0.0108
3234.00,0.0106
3233.00,0.0104
3232.00,0.0102
3231.00,0.0101
3230.00,0.0099
3229.00,0.0097
3228.00,0.0095
3227.00,0.0093
3226.00,0.0092
3225.00,0.0090
3224.00,0.0089
3223.00,0.0087
3222.00,0.0086
3221.00,0.0084
3220.00,0.0082
3219.00,0.0081
3218.00,0.0079
3217.00,0.0077
3216.00,0.0076
3215.00,0.0075
3214.00,0.0074
3213.00,0.0073
3212.00,0.0072
3211.00,0.0070
3210.00,0.0069
3209.00,0.0067
3208.00,0.0065
3207.00,0.0064
3206.00,0.0063
3205.00,0.0062
3204.00,0.0060
3203.00,0.0059
3202.00,0.0058
3201.00,0.0056
3200.00,0.0055
3199.00,0.0054
3198.00,0.0052
3197.00,0.0051
3196.00,0.0050
3195.00,0.0049
3194.00,0.0048
3193.00,0.0047
3192.00,0.0046
3191.00,0.0044
3190.00,0.0043
3189.00,0.0042
3188.00,0.0040
3187.00,0.0039
3186.00,0.0037
3185.00,0.0035
3184.00,0.0034
3183.00,0.0032
3182.00,0.0031
3181.00,0.0030
3180.00,0.0028
3179.00,0.0026
3178.00,0.0025
3177.00,0.0023
3176.00,0.0022
3175.00,0.0020
3174.00,0.0018
3173.00,0.0017
3172.00,0.0016
3171.00,0.0014
3170.00,0.0013
3169.00,0.0012
3168.00,0.0011
3167.00,0.0010
3166.00,0.0008
3165.00,0.0007
3164.00,0.0006
3163.00,0.0004
3162.00,0.0003
3161.00,0.0002
3160.00,0.0000
3159.00,-0.0001
3158.00,-0.0003
3157.00,-0.0004
3156.00,-0.0005
3155.00,-0.0006
3154.00,-0.0007
3153.00,-0.0008
3152.00,-0.0009
3151.00,-0.0010
3150.00,-0.0011
3149.00,-0.0013
3148.00,-0.0014
3147.00,-0.0015
3146.00,-0.0016
3145.00,-0.0017
3144.00,-0.0018
3143.00,-0.0019
3142.00,-0.0020
3141.00,-0.0021
3140.00,-0.0022
3139.00,-0.0022
3138.00,-0.0023
3137.00,-0.0024
3136.00,-0.0024
3135.00,-0.0025
3134.00,-0.0026
3133.00,-0.0027
3132.00,-0.0028
3131.00,-0.0028
3130.00,-0.0029
3129.00,-0.0029
3128.00,-0.0030
3127.00,-0.0031
3126.00,-0.0031
3125.00,-0.0032
3124.00,-0.0032
3123.00,-0.0033
3122.00,-0.0033
3121.00,-0.0034
3120.00,-0.0034
3119.00,-0.0035
3118.00,-0.0036
3117.00,-0.0036
3116.00,-0.0036
3115.00,-0.0036
3114.00,-0.0035
3113.00,-0.0035
3112.00,-0.0035
3111.00,-0.0035
3110.00,-0.0036
3109.00,-0.0036
3108.00,-0.0036
3107.00,-0.0035
3106.00,-0.0035
3105.00,-0.0035
3104.00,-0.0035
3103.00,-0.0034
3102.00,-0.0034
3101.00,-0.0034
3100.00,-0.0034
3099.00,-0.0034
3098.00,-0.0034
3097.00,-0.0034
3096.00,-0.0033
3095.00,-0.0033
3094.00,-0.0032
3093.00,-0.0032
3092.00,-0.0032
3091.00,-0.0031
3090.00,-0.0031
3089.00,-0.0030
3088.00,-0.0030
3087.00,-0.0030
3086.00,-0.0030
3085.00,-0.0030
3084.00,-0.0029
3083.00,-0.0029
3082.00,-0.0029
3081.00,-0.0029
3080.00,-0.0029
3079.00,-0.0029
3078.00,-0.0029
3077.00,-0.0028
3076.00,-0.0028
3075.00,-0.0028
3074.00,-0.0027
3073.00,-0.0027
3072.00,-0.0027
3071.00,-0.0027
3070.00,-0.0027
3069.00,-0.0027
3068.00,-0.0027
3067.00,-0.0027
3066.00,-0.0028
3065.00,-0.0028
3064.00,-0.0028
3063.00,-0.0028
3062.00,-0.0028
3061.00,-0.0028
3060.00,-0.0028
3059.00,-0.0029
3058.00,-0.0030
3057.00,-0.0030
3056.00,-0.0031
3055.00,-0.0032
3054.00,-0.0033
3053.00,-0.0033
3052.00,-0.0034
3051.00,-0.0035
3050.00,-0.0035
3049.00,-0.0036
3048.00,-0.0037
3047.00,-0.0039
3046.00,-0.0040
3045.00,-0.0041
3044.00,-0.0042
3043.00,-0.0043
3042.00,-0.0044
3041.00,-0.0045
3040.00,-0.0045
3039.00,-0.0045
3038.00,-0.0046
3037.00,-0.0047
3036.00,-0.0048
3035.00,-0.0050
3034.00,-0.0051
3033.00,-0.0052
3032.00,-0.0052
3031.00,-0.0053
3030.00,-0.0053
3029.00,-0.0054
3028.00,-0.0055
3027.00,-0.0056
3026.00,-0.0057
3025.00,-0.0058
3024.00,-0.0059
3023.00,-0.0060
3022.00,-0.0061
3021.00,-0.0062
3020.00,-0.0064
3019.00,-0.0065
3018.00,-0.0067
3017.00,-0.0068
3016.00,-0.0069
3015.00,-0.0070
3014.00,-0.0071
3013.00,-0.0072
3012.00,-0.0072
3011.00,-0.0073
3010.00,-0.0073
3009.00,-0.0074
3008.00,-0.0075
3007.00,-0.0076
3006.00,-0.0077
3005.00,-0.0078
3004.00,-0.0080
3003.00,-0.0081
3002.00,-0.0082
3001.00,-0.0083
3000.00,-0.0085
2999.00,-0.0086
2998.00,-0.0086
2997.00,-0.0086
2996.00,-0.0086
2995.00,-0.0086
2994.00,-0.0086
2993.00,-0.0086
2992.00,-0.0086
2991.00,-0.0085
2990.00,-0.0085
2989.00,-0.0084
2988.00,-0.0083
2987.00,-0.0083
2986.00,-0.0084
2985.00,-0.0085
2984.00,-0.0087
2983.00,-0.0089
2982.00,-0.0090
2981.00,-0.0090
2980.00,-0.0088
2979.00,-0.0085
2978.00,-0.0081
2977.00,-0.0078
2976.00,-0.0076
2975.00,-0.0074
2974.00,-0.0072
2973.00,-0.0071
2972.00,-0.0070
2971.00,-0.0068
2970.00,-0.0067
2969.00,-0.0064
2968.00,-0.0062
2967.00,-0.0060
2966.00,-0.0058
2965.00,-0.0057
2964.00,-0.0056
2963.00,-0.0056
2962.00,-0.0055
2961.00,-0.0054
2960.00,-0.0054
2959.00,-0.0053
2958.00,-0.0054
2957.00,-0.0054
2956.00,-0.0054
2955.00,-0.0054
2954.00,-0.0055
2953.00,-0.0055
2952.00,-0.0055
2951.00,-0.0056
2950.00,-0.0056
2949.00,-0.0056
2948.00,-0.0056
2947.00,-0.0056
2946.00,-0.0056
2945.00,-0.0055
2944.00,-0.0054
2943.00,-0.0052
2942.00,-0.0051
2941.00,-0.0050
2940.00,-0.0048
2939.00,-0.0047
2938.00,-0.0046
2937.00,-0.0045
2936.00,-0.0044
2935.00,-0.0043
2934.00,-0.0042
2933.00,-0.0041
2932.00,-0.0041
2931.00,-0.0041
2930.00,-0.0041
2929.00,-0.0041
2928.00,-0.0041
2927.00,-0.0041
2926.00,-0.0042
2925.00,-0.0043
2924.00,-0.0044
2923.00,-0.0045
2922.00,-0.0046
2921.00,-0.0048
2920.00,-0.0049
2919.00,-0.0051
2918.00,-0.0053
2917.00,-0.0055
2916.00,-0.0058
2915.00,-0.0060
2914.00,-0.0061
2913.00,-0.0063
2912.00,-0.0064
2911.00,-0.0066
2910.00,-0.0067
2909.00,-0.0068
2908.00,-0.0070
2907.00,-0.0071
2906.00,-0.0072
2905.00,-0.0073
2904.00,-0.0074
2903.00,-0.0074
2902.00,-0.0075
2901.00,-0.0076
2900.00,-0.0077
2899.00,-0.0077
2898.00,-0.0078
2897.00,-0.0080
2896.00,-0.0081
2895.00,-0.0081
2894.00,-0.0082
2893.00,-0.0082
2892.00,-0.0083
2891.00,-0.0083
2890.00,-0.0083
2889.00,-0.0083
2888.00,-0.0083
2887.00,-0.0083
2886.00,-0.0083
2885.00,-0.0082
2884.00,-0.0081
2883.00,-0.0080
2882.00,-0.0079
2881.00,-0.0078
2880.00,-0.0077
2879.00,-0.0076
2878.00,-0.0075
2877.00,-0.0074
2876.00,-0.0074
2875.00,-0.0074
2874.00,-0.0074
2873.00,-0.0075
2872.00,-0.0075
2871.00,-0.0076
2870.00,-0.0077
2869.00,-0.0078
2868.00,-0.0078
2867.00,-0.0079
2866.00,-0.0081
2865.00,-0.0082
2864.00,-0.0083
2863.00,-0.0084
2862.00,-0.0085
2861.00,-0.0085
2860.00,-0.0086
2859.00,-0.0086
2858.00,-0.0087
2857.00,-0.0087
2856.00,-0.0087
2855.00,-0.0088
2854.00,-0.0088
2853.00,-0.0088
2852.00,-0.0089
2851.00,-0.0089
2850.00,-0.0090
2849.00,-0.0091
2848.00,-0.0092
2847.00,-0.0093
2846.00,-0.0095
2845.00,-0.0096
2844.00,-0.0097
2843.00,-0.0098
2842.00,-0.0099
2841.00,-0.0099
2840.00,-0.0100
2839.00,-0.0101
2838.00,-0.0102
2837.00,-0.0102
2836.00,-0.0103
2835.00,-0.0103
2834.00,-0.0104
2833.00,-0.0104
2832.00,-0.0104
2831.00,-0.0104
2830.00,-0.0105
2829.00,-0.0105
2828.00,-0.0105
2827.00,-0.0106
2826.00,-0.0106
2825.00,-0.0106
2824.00,-0.0106
2823.00,-0.0106
2822.00,-0.0106
2821.00,-0.0107
2820.00,-0.0107
2819.00,-0.0107
2818.00,-0.0108
2817.00,-0.0108
2816.00,-0.0108
2815.00,-0.0108
2814.00,-0.0108
2813.00,-0.0109
2812.00,-0.0109
2811.00,-0.0109
2810.00,-0.0109
2809.00,-0.0110
2808.00,-0.0110
2807.00,-0.0110
2806.00,-0.0110
2805.00,-0.0110
2804.00,-0.0111
2803.00,-0.0111
2802.00,-0.0111
2801.00,-0.0112
2800.00,-0.0112
2799.00,-0.0112
2798.00,-0.0112
2797.00,-0.0113
2796.00,-0.0113
2795.00,-0.0113
2794.00,-0.0113
2793.00,-0.0113
2792.00,-0.0113
2791.00,-0.0114
2790.00,-0.0114
2789.00,-0.0114
2788.00,-0.0114
2787.00,-0.0115
2786.00,-0.0115
2785.00,-0.0115
2784.00,-0.0115
2783.00,-0.0116
2782.00,-0.0116
2781.00,-0.0116
2780.00,-0.0116
2779.00,-0.0116
2778.00,-0.0117
2777.00,-0.0117
2776.00,-0.0117
2775.00,-0.0117
2774.00,-0.0117
2773.00,-0.0118
2772.00,-0.0118
2771.00,-0.0118
2770.00,-0.0118
2769.00,-0.0119
2768.00,-0.0119
2767.00,-0.0119
2766.00,-0.0120
2765.00,-0.0120
2764.00,-0.0120
2763.00,-0.0121
2762.00,-0.0121
2761.00,-0.0121
2760.00,-0.0122
2759.00,-0.0122
2758.00,-0.0122
2757.00,-0.0122
2756.00,-0.0122
2755.00,-0.0123
2754.00,-0.0123
2753.00,-0.0123
2752.00,-0.0123
2751.00,-0.0123
2750.00,-0.0123
2749.00,-0.0124
2748.00,-0.0124
2747.00,-0.0125
2746.00,-0.0125
2745.00,-0.0125
2744.00,-0.0126
2743.00,-0.0126
2742.00,-0.0126
2741.00,-0.0126
2740.00,-0.0127
2739.00,-0.0127
2738.00,-0.0127
2737.00,-0.0127
2736.00,-0.0127
2735.00,-0.0128
2734.00,-0.0128
2733.00,-0.0129
2732.00,-0.0129
2731.00,-0.0129
2730.00,-0.0129
2729.00,-0.0130
2728.00,-0.0130
2727.00,-0.0130
2726.00,-0.0131
2725.00,-0.0131
2724.00,-0.0131
2723.00,-0.0132
2722.00,-0.0132
2721.00,-0.0132
2720.00,-0.0132
2719.00,-0.0132
2718.00,-0.0132
2717.00,-0.0133
2716.00,-0.0133
2715.00,-0.0133
2714.00,-0.0134
2713.00,-0.0134
2712.00,-0.0134
2711.00,-0.0134
2710.00,-0.0135
2709.00,-0.0135
2708.00,-0.0135
2707.00,-0.0135
2706.00,-0.0135
2705.00,-0.0136
2704.00,-0.0136
2703.00,-0.0136
2702.00,-0.0137
2701.00,-0.0137
2700.00,-0.0137
2699.00,-0.0137
2698.00,-0.0137
2697.00,-0.0138
2696.00,-0.0138
2695.00,-0.0138
2694.00,-0.0138
2693.00,-0.0138
2692.00,-0.0139
2691.00,-0.0139
2690.00,-0.0139
2689.00,-0.0140
2688.00,-0.0140
2687.00,-0.0141
2686.00,-0.0141
2685.00,-0.0141
2684.00,-0.0141
2683.00,-0.0141
2682.00,-0.0141
2681.00,-0.0142
2680.00,-0.0142
2679.00,-0.0142
2678.00,-0.0142
2677.00,-0.0142
2676.00,-0.0143
2675.00,-0.0143
2674.00,-0.0143
2673.00,-0.0143
2672.00,-0.0143
2671.00,-0.0143
2670.00,-0.0144
2669.00,-0.0144
2668.00,-0.0144
2667.00,-0.0144
2666.00,-0.0144
2665.00,-0.0145
2664.00,-0.0145
2663.00,-0.0145
2662.00,-0.0145
2661.00,-0.0145
2660.00,-0.0146
2659.00,-0.0146
2658.00,-0.0146
2657.00,-0.0146
2656.00,-0.0146
2655.00,-0.0146
2654.00,-0.0146
2653.00,-0.0146
2652.00,-0.0146
2651.00,-0.0146
2650.00,-0.0146
2649.00,-0.0147
2648.00,-0.0147
2647.00,-0.0147
2646.00,-0.0147
2645.00,-0.0147
2644.00,-0.0147
2643.00,-0.0147
2642.00,-0.0148
2641.00,-0.0147
2640.00,-0.0147
2639.00,-0.0147
2638.00,-0.0147
2637.00,-0.0147
2636.00,-0.0147
2635.00,-0.0147
2634.00,-0.0148
2633.00,-0.0148
2632.00,-0.0148
2631.00,-0.0148
2630.00,-0.0148
2629.00,-0.0148
2628.00,-0.0149
2627.00,-0.0149
2626.00,-0.0149
2625.00,-0.0149
2624.00,-0.0149
2623.00,-0.0149
2622.00,-0.0149
2621.00,-0.0149
2620.00,-0.0149
2619.00,-0.0149
2618.00,-0.0149
2617.00,-0.0149
2616.00,-0.0149
2615.00,-0.0149
2614.00,-0.0149
2613.00,-0.0149
2612.00,-0.0149
2611.00,-0.0149
2610.00,-0.0149
2609.00,-0.0150
2608.00,-0.0150
2607.00,-0.0150
2606.00,-0.0150
2605.00,-0.0150
2604.00,-0.0150
2603.00,-0.0151
2602.00,-0.0151
2601.00,-0.0151
2600.00,-0.0152
2599.00,-0.0151
2598.00,-0.0151
2597.00,-0.0151
2596.00,-0.0152
2595.00,-0.0152
2594.00,-0.0152
2593.00,-0.0151
2592.00,-0.0151
2591.00,-0.0151
2590.00,-0.0151
2589.00,-0.0151
2588.00,-0.0152
2587.00,-0.0152
2586.00,-0.0152
2585.00,-0.0152
2584.00,-0.0152
2583.00,-0.0153
2582.00,-0.0154
2581.00,-0.0154
2580.00,-0.0155
2579.00,-0.0155
2578.00,-0.0155
2577.00,-0.0155
2576.00,-0.0154
2575.00,-0.0155
2574.00,-0.0155
2573.00,-0.0155
2572.00,-0.0155
2571.00,-0.0156
2570.00,-0.0156
2569.00,-0.0156
2568.00,-0.0156
2567.00,-0.0155
2566.00,-0.0155
2565.00,-0.0156
2564.00,-0.0156
2563.00,-0.0156
2562.00,-0.0157
2561.00,-0.0157
2560.00,-0.0157
2559.00,-0.0157
2558.00,-0.0157
2557.00,-0.0157
2556.00,-0.0158
2555.00,-0.0158
2554.00,-0.0159
2553.00,-0.0159
2552.00,-0.0159
2551.00,-0.0160
2550.00,-0.0160
2549.00,-0.0160
2548.00,-0.0160
2547.00,-0.0159
2546.00,-0.0160
2545.00,-0.0160
2544.00,-0.0160
2543.00,-0.0160
2542.00,-0.0160
2541.00,-0.0160
2540.00,-0.0159
2539.00,-0.0159
2538.00,-0.0159
2537.00,-0.0160
2536.00,-0.0160
2535.00,-0.0161
2534.00,-0.0161
2533.00,-0.0161
2532.00,-0.0161
2531.00,-0.0161
2530.00,-0.0161
2529.00,-0.0162
2528.00,-0.0162
2527.00,-0.0163
2526.00,-0.0163
2525.00,-0.0164
2524.00,-0.0164
2523.00,-0.0164
2522.00,-0.0163
2521.00,-0.0163
2520.00,-0.0162
2519.00,-0.0162
2518.00,-0.0163
2517.00,-0.0163
2516.00,-0.0163
2515.00,-0.0163
2514.00,-0.0163
2513.00,-0.0163
2512.00,-0.0163
2511.00,-0.0163
2510.00,-0.0164
2509.00,-0.0164
2508.00,-0.0164
2507.00,-0.0165
2506.00,-0.0165
2505.00,-0.0165
2504.00,-0.0165
2503.00,-0.0165
2502.00,-0.0165
2501.00,-0.0165
2500.00,-0.0165
2499.00,-0.0165
2498.00,-0.0165
2497.00,-0.0165
2496.00,-0.0165
2495.00,-0.0166
2494.00,-0.0166
2493.00,-0.0166
2492.00,-0.0166
2491.00,-0.0166
2490.00,-0.0166
2489.00,-0.0166
2488.00,-0.0167
2487.00,-0.0167
2486.00,-0.0167
2485.00,-0.0167
2484.00,-0.0167
2483.00,-0.0167
2482.00,-0.0167
2481.00,-0.0167
2480.00,-0.0167
2479.00,-0.0167
2478.00,-0.0167
2477.00,-0.0168
2476.00,-0.0168
2475.00,-0.0168
2474.00,-0.0169
2473.00,-0.0169
2472.00,-0.0169
2471.00,-0.0169
2470.00,-0.0168
2469.00,-0.0168
2468.00,-0.0168
2467.00,-0.0169
2466.00,-0.0169
2465.00,-0.0170
2464.00,-0.0170
2463.00,-0.0170
2462.00,-0.0170
2461.00,-0.0170
2460.00,-0.0170
2459.00,-0.0170
2458.00,-0.0170
2457.00,-0.0170
2456.00,-0.0170
2455.00,-0.0170
2454.00,-0.0170
2453.00,-0.0170
2452.00,-0.0170
2451.00,-0.0170
2450.00,-0.0171
2449.00,-0.0171
2448.00,-0.0171
2447.00,-0.0172
2446.00,-0.0172
2445.00,-0.0172
2444.00,-0.0172
2443.00,-0.0172
2442.00,-0.0172
2441.00,-0.0172
2440.00,-0.0172
2439.00,-0.0173
2438.00,-0.0173
2437.00,-0.0173
2436.00,-0.0173
2435.00,-0.0173
2434.00,-0.0174
2433.00,-0.0174
2432.00,-0.0174
2431.00,-0.0174
2430.00,-0.0174
2429.00,-0.0174
2428.00,-0.0174
2427.00,-0.0174
2426.00,-0.0174
2425.00,-0.0174
2424.00,-0.0175
2423.00,-0.0175
2422.00,-0.0175
2421.00,-0.0175
2420.00,-0.0175
2419.00,-0.0175
2418.00,-0.0175
2417.00,-0.0175
2416.00,-0.0176
2415.00,-0.0176
2414.00,-0.0177
2413.00,-0.0177
2412.00,-0.0177
2411.00,-0.0176
2410.00,-0.0176
2409.00,-0.0176
2408.00,-0.0176
2407.00,-0.0177
2406.00,-0.0177
2405.00,-0.0178
2404.00,-0.0178
2403.00,-0.0179
2402.00,-0.0179
2401.00,-0.0179
2400.00,-0.0179
2399.00,-0.0179
2398.00,-0.0179
2397.00,-0.0180
2396.00,-0.0180
2395.00,-0.0180
2394.00,-0.0180
2393.00,-0.0181
2392.00,-0.0181
2391.00,-0.0181
2390.00,-0.0182
2389.00,-0.0182
2388.00,-0.0183
2387.00,-0.0183
2386.00,-0.0182
2385.00,-0.0182
2384.00,-0.0182
2383.00,-0.0182
2382.00,-0.0182
2381.00,-0.0183
2380.00,-0.0183
2379.00,-0.0183
2378.00,-0.0183
2377.00,-0.0183
2376.00,-0.0184
2375.00,-0.0184
2374.00,-0.0184
2373.00,-0.0184
2372.00,-0.0184
2371.00,-0.0184
2370.00,-0.0185
2369.00,-0.0185
2368.00,-0.0185
2367.00,-0.0185
2366.00,-0.0184
2365.00,-0.0184
2364.00,-0.0185
2363.00,-0.0185
2362.00,-0.0186
2361.00,-0.0187
2360.00,-0.0187
2359.00,-0.0186
2358.00,-0.0186
2357.00,-0.0186
2356.00,-0.0186
2355.00,-0.0186
2354.00,-0.0187
2353.00,-0.0187
2352.00,-0.0187
2351.00,-0.0187
2350.00,-0.0187
2349.00,-0.0188
2348.00,-0.0188
2347.00,-0.0188
2346.00,-0.0188
2345.00,-0.0187
2344.00,-0.0187
2343.00,-0.0187
2342.00,-0.0187
2341.00,-0.0187
2340.00,-0.0187
2339.00,-0.0187
2338.00,-0.0188
2337.00,-0.0189
2336.00,-0.0189
2335.00,-0.0189
2334.00,-0.0190
2333.00,-0.0190
2332.00,-0.0190
2331.00,-0.0190
2330.00,-0.0190
2329.00,-0.0190
2328.00,-0.0190
2327.00,-0.0190
2326.00,-0.0190
2325.00,-0.0190
2324.00,-0.0189
2323.00,-0.0189
2322.00,-0.0189
2321.00,-0.0189
2320.00,-0.0189
2319.00,-0.0189
2318.00,-0.0189
2317.00,-0.0189
2316.00,-0.0189
2315.00,-0.0189
2314.00,-0.0189
2313.00,-0.0189
2312.00,-0.0189
2311.00,-0.0189
2310.00,-0.0190
2309.00,-0.0191
2308.00,-0.0191
2307.00,-0.0192
2306.00,-0.0192
2305.00,-0.0193
2304.00,-0.0193
2303.00,-0.0193
2302.00,-0.0192
2301.00,-0.0191
2300.00,-0.0191
2299.00,-0.0191
2298.00,-0.0191
2297.00,-0.0192
2296.00,-0.0192
2295.00,-0.0192
2294.00,-0.0193
2293.00,-0.0193
2292.00,-0.0193
2291.00,-0.0194
2290.00,-0.0194
2289.00,-0.0194
2288.00,-0.0194
2287.00,-0.0194
2286.00,-0.0194
2285.00,-0.0193
2284.00,-0.0194
2283.00,-0.0194
2282.00,-0.0195
2281.00,-0.0196
2280.00,-0.0196
2279.00,-0.0196
2278.00,-0.0196
2277.00,-0.0196
2276.00,-0.0195
2275.00,-0.0194
2274.00,-0.0194
2273.00,-0.0194
2272.00,-0.0194
2271.00,-0.0194
2270.00,-0.0194
2269.00,-0.0194
2268.00,-0.0194
2267.00,-0.0195
2266.00,-0.0195
2265.00,-0.0196
2264.00,-0.0196
2263.00,-0.0196
2262.00,-0.0197
2261.00,-0.0197
2260.00,-0.0197
2259.00,-0.0197
2258.00,-0.0197
2257.00,-0.0196
2256.00,-0.0196
2255.00,-0.0195
2254.00,-0.0195
2253.00,-0.0195
2252.00,-0.0196
2251.00,-0.0197
2250.00,-0.0198
2249.00,-0.0198
2248.00,-0.0197
2247.00,-0.0198
2246.00,-0.0199
2245.00,-0.0199
2244.00,-0.0200
2243.00,-0.0200
2242.00,-0.0200
2241.00,-0.0200
2240.00,-0.0200
2239.00,-0.0201
2238.00,-0.0201
2237.00,-0.0201
2236.00,-0.0200
2235.00,-0.0200
2234.00,-0.0200
2233.00,-0.0200
2232.00,-0.0200
2231.00,-0.0199
2230.00,-0.0197
2229.00,-0.0197
2228.00,-0.0197
2227.00,-0.0199
2226.00,-0.0200
2225.00,-0.0200
2224.00,-0.0199
2223.00,-0.0199
2222.00,-0.0200
2221.00,-0.0201
2220.00,-0.0203
2219.00,-0.0204
2218.00,-0.0204
2217.00,-0.0203
2216.00,-0.0202
2215.00,-0.0201
2214.00,-0.0202
2213.00,-0.0203
2212.00,-0.0203
2211.00,-0.0204
2210.00,-0.0204
2209.00,-0.0204
2208.00,-0.0204
2207.00,-0.0204
2206.00,-0.0205
2205.00,-0.0205
2204.00,-0.0205
2203.00,-0.0205
2202.00,-0.0205
2201.00,-0.0204
2200.00,-0.0204
2199.00,-0.0204
2198.00,-0.0204
2197.00,-0.0205
2196.00,-0.0206
2195.00,-0.0206
2194.00,-0.0205
2193.00,-0.0204
2192.00,-0.0202
2191.00,-0.0202
2190.00,-0.0203
2189.00,-0.0204
2188.00,-0.0206
2187.00,-0.0208
2186.00,-0.0208
2185.00,-0.0208
2184.00,-0.0208
2183.00,-0.0209
2182.00,-0.0211
2181.00,-0.0213
2180.00,-0.0214
2179.00,-0.0214
2178.00,-0.0212
2177.00,-0.0211
2176.00,-0.0209
2175.00,-0.0209
2174.00,-0.0209
2173.00,-0.0210
2172.00,-0.0211
2171.00,-0.0212
2170.00,-0.0212
2169.00,-0.0211
2168.00,-0.0209
2167.00,-0.0208
2166.00,-0.0208
2165.00,-0.0209
2164.00,-0.0209
2163.00,-0.0208
2162.00,-0.0207
2161.00,-0.0206
2160.00,-0.0207
2159.00,-0.0210
2158.00,-0.0212
2157.00,-0.0212
2156.00,-0.0212
2155.00,-0.0212
2154.00,-0.0214
2153.00,-0.0215
2152.00,-0.0217
2151.00,-0.0217
2150.00,-0.0215
2149.00,-0.0213
2148.00,-0.0211
2147.00,-0.0210
2146.00,-0.0211
2145.00,-0.0213
2144.00,-0.0215
2143.00,-0.0217
2142.00,-0.0218
2141.00,-0.0217
2140.00,-0.0216
2139.00,-0.0215
2138.00,-0.0214
2137.00,-0.0214
2136.00,-0.0214
2135.00,-0.0214
2134.00,-0.0214
2133.00,-0.0215
2132.00,-0.0215
2131.00,-0.0215
2130.00,-0.0215
2129.00,-0.0215
2128.00,-0.0214
2127.00,-0.0213
2126.00,-0.0214
2125.00,-0.0214
2124.00,-0.0215
2123.00,-0.0215
2122.00,-0.0214
2121.00,-0.0214
2120.00,-0.0215
2119.00,-0.0215
2118.00,-0.0216
2117.00,-0.0216
2116.00,-0.0217
2115.00,-0.0217
2114.00,-0.0217
2113.00,-0.0217
2112.00,-0.0217
2111.00,-0.0217
2110.00,-0.0218
2109.00,-0.0218
2108.00,-0.0219
2107.00,-0.0219
2106.00,-0.0219
2105.00,-0.0218
2104.00,-0.0217
2103.00,-0.0217
2102.00,-0.0217
2101.00,-0.0218
2100.00,-0.0219
2099.00,-0.0220
2098.00,-0.0220
2097.00,-0.0220
2096.00,-0.0221
2095.00,-0.0221
2094.00,-0.0221
2093.00,-0.0221
2092.00,-0.0221
2091.00,-0.0222
2090.00,-0.0222
2089.00,-0.0222
2088.00,-0.0222
2087.00,-0.0222
2086.00,-0.0222
2085.00,-0.0222
2084.00,-0.0221
2083.00,-0.0221
2082.00,-0.0222
2081.00,-0.0223
2080.00,-0.0223
2079.00,-0.0223
2078.00,-0.0223
2077.00,-0.0223
2076.00,-0.0223
2075.00,-0.0224
2074.00,-0.0224
2073.00,-0.0225
2072.00,-0.0225
2071.00,-0.0224
2070.00,-0.0224
2069.00,-0.0225
2068.00,-0.0226
2067.00,-0.0226
2066.00,-0.0226
2065.00,-0.0226
2064.00,-0.0226
2063.00,-0.0226
2062.00,-0.0227
2061.00,-0.0227
2060.00,-0.0226
2059.00,-0.0226
2058.00,-0.0226
2057.00,-0.0226
2056.00,-0.0226
2055.00,-0.0226
2054.00,-0.0227
2053.00,-0.0228
2052.00,-0.0227
2051.00,-0.0227
2050.00,-0.0226
2049.00,-0.0226
2048.00,-0.0228
2047.00,-0.0229
2046.00,-0.0230
2045.00,-0.0230
2044.00,-0.0228
2043.00,-0.0226
2042.00,-0.0225
2041.00,-0.0224
2040.00,-0.0226
2039.00,-0.0228
2038.00,-0.0230
2037.00,-0.0232
2036.00,-0.0233
2035.00,-0.0233
2034.00,-0.0233
2033.00,-0.0232
2032.00,-0.0231
2031.00,-0.0232
2030.00,-0.0233
2029.00,-0.0233
2028.00,-0.0233
2027.00,-0.0233
2026.00,-0.0233
2025.00,-0.0232
2024.00,-0.0232
2023.00,-0.0232
2022.00,-0.0233
2021.00,-0.0234
2020.00,-0.0234
2019.00,-0.0236
2018.00,-0.0237
2017.00,-0.0237
2016.00,-0.0237
2015.00,-0.0237
2014.00,-0.0237
2013.00,-0.0236
2012.00,-0.0236
2011.00,-0.0236
2010.00,-0.0237
2009.00,-0.0237
2008.00,-0.0236
2007.00,-0.0236
2006.00,-0.0236
2005.00,-0.0237
2004.00,-0.0237
2003.00,-0.0236
2002.00,-0.0236
2001.00,-0.0237
2000.00,-0.0239
1999.00,-0.0240
1998.00,-0.0241
1997.00,-0.0239
1996.00,-0.0237
1995.00,-0.0235
1994.00,-0.0235
1993.00,-0.0237
1992.00,-0.0239
1991.00,-0.0241
1990.00,-0.0241
1989.00,-0.0241
1988.00,-0.0241
1987.00,-0.0242
1986.00,-0.0242
1985.00,-0.0242
1984.00,-0.0241
1983.00,-0.0240
1982.00,-0.0240
1981.00,-0.0240
1980.00,-0.0240
1979.00,-0.0241
1978.00,-0.0241
1977.00,-0.0240
1976.00,-0.0239
1975.00,-0.0238
1974.00,-0.0238
1973.00,-0.0239
1972.00,-0.0242
1971.00,-0.0245
1970.00,-0.0246
1969.00,-0.0246
1968.00,-0.0245
1967.00,-0.0244
1966.00,-0.0245
1965.00,-0.0245
1964.00,-0.0245
1963.00,-0.0244
1962.00,-0.0244
1961.00,-0.0244
1960.00,-0.0245
1959.00,-0.0245
1958.00,-0.0244
1957.00,-0.0243
1956.00,-0.0242
1955.00,-0.0242
1954.00,-0.0242
1953.00,-0.0242
1952.00,-0.0242
1951.00,-0.0244
1950.00,-0.0245
1949.00,-0.0247
1948.00,-0.0249
1947.00,-0.0250
1946.00,-0.0251
1945.00,-0.0250
1944.00,-0.0250
1943.00,-0.0250
1942.00,-0.0251
1941.00,-0.0251
1940.00,-0.0251
1939.00,-0.0250
1938.00,-0.0250
1937.00,-0.0251
1936.00,-0.0252
1935.00,-0.0253
1934.00,-0.0253
1933.00,-0.0254
1932.00,-0.0254
1931.00,-0.0254
1930.00,-0.0254
1929.00,-0.0255
1928.00,-0.0255
1927.00,-0.0256
1926.00,-0.0256
1925.00,-0.0256
1924.00,-0.0256
1923.00,-0.0257
1922.00,-0.0257
1921.00,-0.0258
1920.00,-0.0257
1919.00,-0.0257
1918.00,-0.0258
1917.00,-0.0258
1916.00,-0.0259
1915.00,-0.0259
1914.00,-0.0260
1913.00,-0.0259
1912.00,-0.0259
1911.00,-0.0259
1910.00,-0.0260
1909.00,-0.0260
1908.00,-0.0260
1907.00,-0.0259
1906.00,-0.0259
1905.00,-0.0259
1904.00,-0.0259
1903.00,-0.0260
1902.00,-0.0261
1901.00,-0.0261
1900.00,-0.0261
1899.00,-0.0261
1898.00,-0.0261
1897.00,-0.0261
1896.00,-0.0262
1895.00,-0.0263
1894.00,-0.0263
1893.00,-0.0263
1892.00,-0.0263
1891.00,-0.0264
1890.00,-0.0264
1889.00,-0.0264
1888.00,-0.0264
1887.00,-0.0264
1886.00,-0.0264
1885.00,-0.0265
1884.00,-0.0265
1883.00,-0.0266
1882.00,-0.0266
1881.00,-0.0266
1880.00,-0.0267
1879.00,-0.0268
1878.00,-0.0268
1877.00,-0.0269
1876.00,-0.0270
1875.00,-0.0270
1874.00,-0.0271
1873.00,-0.0271
1872.00,-0.0271
1871.00,-0.0271
1870.00,-0.0271
1869.00,-0.0272
1868.00,-0.0273
1867.00,-0.0273
1866.00,-0.0273
1865.00,-0.0273
1864.00,-0.0273
1863.00,-0.0274
1862.00,-0.0274
1861.00,-0.0274
1860.00,-0.0275
1859.00,-0.0275
1858.00,-0.0276
1857.00,-0.0276
1856.00,-0.0276
1855.00,-0.0277
1854.00,-0.0277
1853.00,-0.0278
1852.00,-0.0278
1851.00,-0.0278
1850.00,-0.0278
1849.00,-0.0279
1848.00,-0.0279
1847.00,-0.0280
1846.00,-0.0280
1845.00,-0.0280
1844.00,-0.0281
1843.00,-0.0282
1842.00,-0.0283
1841.00,-0.0282
1840.00,-0.0282
1839.00,-0.0281
1838.00,-0.0281
1837.00,-0.0282
1836.00,-0.0282
1835.00,-0.0283
1834.00,-0.0283
1833.00,-0.0283
1832.00,-0.0283
1831.00,-0.0283
1830.00,-0.0284
1829.00,-0.0286
1828.00,-0.0286
1827.00,-0.0287
1826.00,-0.0288
1825.00,-0.0288
1824.00,-0.0288
1823.00,-0.0289
1822.00,-0.0289
1821.00,-0.0289
1820.00,-0.0289
1819.00,-0.0290
1818.00,-0.0290
1817.00,-0.0290
1816.00,-0.0291
1815.00,-0.0291
1814.00,-0.0291
1813.00,-0.0290
1812.00,-0.0290
1811.00,-0.0291
1810.00,-0.0292
1809.00,-0.0293
1808.00,-0.0293
1807.00,-0.0294
1806.00,-0.0294
1805.00,-0.0295
1804.00,-0.0295
1803.00,-0.0296
1802.00,-0.0296
1801.00,-0.0297
1800.00,-0.0297
1799.00,-0.0297
1798.00,-0.0297
1797.00,-0.0297
1796.00,-0.0298
1795.00,-0.0298
1794.00,-0.0299
1793.00,-0.0300
1792.00,-0.0301
1791.00,-0.0302
1790.00,-0.0302
1789.00,-0.0302
1788.00,-0.0302
1787.00,-0.0302
1786.00,-0.0303
1785.00,-0.0303
1784.00,-0.0303
1783.00,-0.0303
1782.00,-0.0304
1781.00,-0.0304
1780.00,-0.0305
1779.00,-0.0306
1778.00,-0.0306
1777.00,-0.0306
1776.00,-0.0305
1775.00,-0.0305
1774.00,-0.0306
1773.00,-0.0307
1772.00,-0.0309
1771.00,-0.0311
1770.00,-0.0312
1769.00,-0.0313
1768.00,-0.0312
1767.00,-0.0312
1766.00,-0.0312
1765.00,-0.0312
1764.00,-0.0312
1763.00,-0.0313
1762.00,-0.0315
1761.00,-0.0316
1760.00,-0.0317
1759.00,-0.0317
1758.00,-0.0317
1757.00,-0.0318
1756.00,-0.0318
1755.00,-0.0318
1754.00,-0.0319
1753.00,-0.0319
1752.00,-0.0319
1751.00,-0.0320
1750.00,-0.0321
1749.00,-0.0321
1748.00,-0.0322
1747.00,-0.0323
1746.00,-0.0323
1745.00,-0.0323
1744.00,-0.0324
1743.00,-0.0324
1742.00,-0.0324
1741.00,-0.0325
1740.00,-0.0326
1739.00,-0.0327
1738.00,-0.0328
1737.00,-0.0329
1736.00,-0.0329
1735.00,-0.0330
1734.00,-0.0333
1733.00,-0.0335
1732.00,-0.0335
1731.00,-0.0335
1730.00,-0.0336
1729.00,-0.0336
1728.00,-0.0337
1727.00,-0.0337
1726.00,-0.0337
1725.00,-0.0337
1724.00,-0.0337
1723.00,-0.0337
1722.00,-0.0337
1721.00,-0.0337
1720.00,-0.0335
1719.00,-0.0333
1718.00,-0.0333
1717.00,-0.0332
1716.00,-0.0331
1715.00,-0.0328
1714.00,-0.0325
1713.00,-0.0320
1712.00,-0.0314
1711.00,-0.0308
1710.00,-0.0301
1709.00,-0.0292
1708.00,-0.0281
1707.00,-0.0269
1706.00,-0.0256
1705.00,-0.0241
1704.00,-0.0225
1703.00,-0.0209
1702.00,-0.0189
1701.00,-0.0164
1700.00,-0.0136
1699.00,-0.0114
1698.00,-0.0100
1697.00,-0.0090
1696.00,-0.0082
1695.00,-0.0075
1694.00,-0.0070
1693.00,-0.0065
1692.00,-0.0061
1691.00,-0.0055
1690.00,-0.0048
1689.00,-0.0040
1688.00,-0.0033
1687.00,-0.0026
1686.00,-0.0017
1685.00,-0.0005
1684.00,0.0008
1683.00,0.0020
1682.00,0.0031
1681.00,0.0041
1680.00,0.0050
1679.00,0.0059
1678.00,0.0068
1677.00,0.0077
1676.00,0.0089
1675.00,0.0103
1674.00,0.0115
1673.00,0.0125
1672.00,0.0133
1671.00,0.0142
1670.00,0.0153
1669.00,0.0165
1668.00,0.0176
1667.00,0.0185
1666.00,0.0191
1665.00,0.0198
1664.00,0.0206
1663.00,0.0216
1662.00,0.0225
1661.00,0.0233
1660.00,0.0240
1659.00,0.0244
1658.00,0.0248
1657.00,0.0249
1656.00,0.0248
1655.00,0.0250
1654.00,0.0258
1653.00,0.0272
1652.00,0.0284
1651.00,0.0287
1650.00,0.0283
1649.00,0.0279
1648.00,0.0278
1647.00,0.0281
1646.00,0.0285
1645.00,0.0288
1644.00,0.0288
1643.00,0.0287
1642.00,0.0285
1641.00,0.0285
1640.00,0.0285
1639.00,0.0284
1638.00,0.0284
1637.00,0.0287
1636.00,0.0295
1635.00,0.0307
1634.00,0.0316
1633.00,0.0322
1632.00,0.0327
1631.00,0.0332
1630.00,0.0340
1629.00,0.0352
1628.00,0.0366
1627.00,0.0380
1626.00,0.0392
1625.00,0.0406
1624.00,0.0422
1623.00,0.0439
1622.00,0.0454
1621.00,0.0463
1620.00,0.0467
1619.00,0.0468
1618.00,0.0470
1617.00,0.0474
1616.00,0.0476
1615.00,0.0472
1614.00,0.0460
1613.00,0.0444
1612.00,0.0426
1611.00,0.0408
1610.00,0.0390
1609.00,0.0370
1608.00,0.0349
1607.00,0.0329
1606.00,0.0308
1605.00,0.0287
1604.00,0.0267
1603.00,0.0248
1602.00,0.0230
1601.00,0.0212
1600.00,0.0195
1599.00,0.0179
1598.00,0.0164
1597.00,0.0150
1596.00,0.0135
1595.00,0.0121
1594.00,0.0108
1593.00,0.0095
1592.00,0.0082
1591.00,0.0071
1590.00,0.0060
1589.00,0.0051
1588.00,0.0041
1587.00,0.0033
1586.00,0.0026
1585.00,0.0019
1584.00,0.0013
1583.00,0.0008
1582.00,0.0003
1581.00,-0.0001
1580.00,-0.0004
1579.00,-0.0007
1578.00,-0.0008
1577.00,-0.0007
1576.00,-0.0005
1575.00,-0.0002
1574.00,-0.0000
1573.00,0.0000
1572.00,0.0002
1571.00,0.0005
1570.00,0.0011
1569.00,0.0019
1568.00,0.0025
1567.00,0.0032
1566.00,0.0040
1565.00,0.0049
1564.00,0.0057
1563.00,0.0064
1562.00,0.0069
1561.00,0.0077
1560.00,0.0092
1559.00,0.0112
1558.00,0.0130
1557.00,0.0144
1556.00,0.0153
1555.00,0.0163
1554.00,0.0175
1553.00,0.0186
1552.00,0.0197
1551.00,0.0208
1550.00,0.0220
1549.00,0.0232
1548.00,0.0242
1547.00,0.0251
1546.00,0.0260
1545.00,0.0270
1544.00,0.0280
1543.00,0.0290
1542.00,0.0302
1541.00,0.0316
1540.00,0.0331
1539.00,0.0347
1538.00,0.0358
1537.00,0.0364
1536.00,0.0367
1535.00,0.0373
1534.00,0.0384
1533.00,0.0397
1532.00,0.0408
1531.00,0.0415
1530.00,0.0421
1529.00,0.0427
1528.00,0.0434
1527.00,0.0444
1526.00,0.0454
1525.00,0.0463
1524.00,0.0471
1523.00,0.0479
1522.00,0.0491
1521.00,0.0506
1520.00,0.0520
1519.00,0.0529
1518.00,0.0537
1517.00,0.0545
1516.00,0.0553
1515.00,0.0558
1514.00,0.0559
1513.00,0.0558
1512.00,0.0556
1511.00,0.0551
1510.00,0.0544
1509.00,0.0537
1508.00,0.0532
1507.00,0.0530
1506.00,0.0530
1505.00,0.0527
1504.00,0.0516
1503.00,0.0502
1502.00,0.0486
1501.00,0.0471
1500.00,0.0456
1499.00,0.0443
1498.00,0.0430
1497.00,0.0417
1496.00,0.0404
1495.00,0.0390
1494.00,0.0372
1493.00,0.0353
1492.00,0.0332
1491.00,0.0314
1490.00,0.0296
1489.00,0.0279
1488.00,0.0262
1487.00,0.0245
1486.00,0.0227
1485.00,0.0211
1484.00,0.0195
1483.00,0.0180
1482.00,0.0166
1481.00,0.0153
1480.00,0.0140
1479.00,0.0129
1478.00,0.0118
1477.00,0.0110
1476.00,0.0102
1475.00,0.0096
1474.00,0.0092
1473.00,0.0089
1472.00,0.0089
1471.00,0.0088
1470.00,0.0086
1469.00,0.0083
1468.00,0.0079
1467.00,0.0075
1466.00,0.0073
1465.00,0.0071
1464.00,0.0071
1463.00,0.0071
1462.00,0.0071
1461.00,0.0070
1460.00,0.0070
1459.00,0.0072
1458.00,0.0077
1457.00,0.0086
1456.00,0.0097
1455.00,0.0104
1454.00,0.0107
1453.00,0.0108
1452.00,0.0109
1451.00,0.0108
1450.00,0.0107
1449.00,0.0107
1448.00,0.0106
1447.00,0.0106
1446.00,0.0103
1445.00,0.0099
1444.00,0.0094
1443.00,0.0088
1442.00,0.0082
1441.00,0.0074
1440.00,0.0065
1439.00,0.0055
1438.00,0.0046
1437.00,0.0040
1436.00,0.0035
1435.00,0.0031
1434.00,0.0025
1433.00,0.0018
1432.00,0.0012
1431.00,0.0007
1430.00,0.0003
1429.00,-0.0000
1428.00,-0.0003
1427.00,-0.0005
1426.00,-0.0006
1425.00,-0.0007
1424.00,-0.0007
1423.00,-0.0007
1422.00,-0.0008
1421.00,-0.0009
1420.00,-0.0007
1419.00,-0.0003
1418.00,0.0003
1417.00,0.0008
1416.00,0.0012
1415.00,0.0015
1414.00,0.0018
1413.00,0.0021
1412.00,0.0024
1411.00,0.0027
1410.00,0.0030
1409.00,0.0033
1408.00,0.0035
1407.00,0.0037
1406.00,0.0039
1405.00,0.0041
1404.00,0.0042
1403.00,0.0043
1402.00,0.0042
1401.00,0.0041
1400.00,0.0041
1399.00,0.0041
1398.00,0.0040
1397.00,0.0039
1396.00,0.0038
1395.00,0.0038
1394.00,0.0038
1393.00,0.0039
1392.00,0.0039
1391.00,0.0038
1390.00,0.0037
1389.00,0.0035
1388.00,0.0034
1387.00,0.0033
1386.00,0.0031
1385.00,0.0028
1384.00,0.0025
1383.00,0.0022
1382.00,0.0019
1381.00,0.0017
1380.00,0.0014
1379.00,0.0012
1378.00,0.0010
1377.00,0.0008
1376.00,0.0006
1375.00,0.0004
1374.00,0.0003
1373.00,0.0001
1372.00,0.0000
1371.00,-0.0001
1370.00,-0.0003
1369.00,-0.0005
1368.00,-0.0008
1367.00,-0.0012
1366.00,-0.0016
1365.00,-0.0021
1364.00,-0.0026
1363.00,-0.0031
1362.00,-0.0034
1361.00,-0.0036
1360.00,-0.0038
1359.00,-0.0039
1358.00,-0.0041
1357.00,-0.0042
1356.00,-0.0043
1355.00,-0.0043
1354.00,-0.0042
1353.00,-0.0041
1352.00,-0.0040
1351.00,-0.0039
1350.00,-0.0038
1349.00,-0.0037
1348.00,-0.0036
1347.00,-0.0035
1346.00,-0.0034
1345.00,-0.0034
1344.00,-0.0033
1343.00,-0.0032
1342.00,-0.0032
1341.00,-0.0032
1340.00,-0.0032
1339.00,-0.0032
1338.00,-0.0031
1337.00,-0.0031
1336.00,-0.0031
1335.00,-0.0031
1334.00,-0.0032
1333.00,-0.0033
1332.00,-0.0034
1331.00,-0.0035
1330.00,-0.0035
1329.00,-0.0036
1328.00,-0.0037
1327.00,-0.0038
1326.00,-0.0039
1325.00,-0.0040
1324.00,-0.0041
1323.00,-0.0042
1322.00,-0.0043
1321.00,-0.0043
1320.00,-0.0044
1319.00,-0.0044
1318.00,-0.0045
1317.00,-0.0045
1316.00,-0.0046
1315.00,-0.0047
1314.00,-0.0047
1313.00,-0.0047
1312.00,-0.0047
1311.00,-0.0047
1310.00,-0.0048
1309.00,-0.0048
1308.00,-0.0049
1307.00,-0.0050
1306.00,-0.0051
1305.00,-0.0052
1304.00,-0.0053
1303.00,-0.0054
1302.00,-0.0055
1301.00,-0.0056
1300.00,-0.0057
1299.00,-0.0059
1298.00,-0.0060
1297.00,-0.0062
1296.00,-0.0063
1295.00,-0.0064
1294.00,-0.0065
1293.00,-0.0066
1292.00,-0.0067
1291.00,-0.0067
1290.00,-0.0068
1289.00,-0.0068
1288.00,-0.0069
1287.00,-0.0070
1286.00,-0.0070
1285.00,-0.0071
1284.00,-0.0072
1283.00,-0.0073
1282.00,-0.0074
1281.00,-0.0075
1280.00,-0.0077
1279.00,-0.0078
1278.00,-0.0080
1277.00,-0.0082
1276.00,-0.0083
1275.00,-0.0085
1274.00,-0.0086
1273.00,-0.0087
1272.00,-0.0088
1271.00,-0.0089
1270.00,-0.0090
1269.00,-0.0091
1268.00,-0.0091
1267.00,-0.0092
1266.00,-0.0093
1265.00,-0.0093
1264.00,-0.0093
1263.00,-0.0093
1262.00,-0.0092
1261.00,-0.0092
1260.00,-0.0091
1259.00,-0.0090
1258.00,-0.0089
1257.00,-0.0088
1256.00,-0.0086
1255.00,-0.0083
1254.00,-0.0080
1253.00,-0.0077
1252.00,-0.0073
1251.00,-0.0069
1250.00,-0.0065
1249.00,-0.0061
1248.00,-0.0057
1247.00,-0.0053
1246.00,-0.0049
1245.00,-0.0045
1244.00,-0.0042
1243.00,-0.0038
1242.00,-0.0035
1241.00,-0.0032
1240.00,-0.0028
1239.00,-0.0025
1238.00,-0.0021
1237.00,-0.0018
1236.00,-0.0014
1235.00,-0.0011
1234.00,-0.0008
1233.00,-0.0006
1232.00,-0.0004
1231.00,-0.0002
1230.00,0.0000
1229.00,0.0002
1228.00,0.0003
1227.00,0.0004
1226.00,0.0004
1225.00,0.0004
1224.00,0.0003
1223.00,0.0003
1222.00,0.0002
1221.00,0.0001
1220.00,-0.0000
1219.00,-0.0002
1218.00,-0.0004
1217.00,-0.0006
1216.00,-0.0009
1215.00,-0.0013
1214.00,-0.0017
1213.00,-0.0021
1212.00,-0.0025
1211.00,-0.0029
1210.00,-0.0033
1209.00,-0.0038
1208.00,-0.0043
1207.00,-0.0049
1206.00,-0.0054
1205.00,-0.0059
1204.00,-0.0064
1203.00,-0.0069
1202.00,-0.0075
1201.00,-0.0081
1200.00,-0.0087
1199.00,-0.0093
1198.00,-0.0098
1197.00,-0.0103
1196.00,-0.0107
1195.00,-0.0111
1194.00,-0.0115
1193.00,-0.0119
1192.00,-0.0123
1191.00,-0.0126
1190.00,-0.0130
1189.00,-0.0133
1188.00,-0.0136
1187.00,-0.0139
1186.00,-0.0141
1185.00,-0.0144
1184.00,-0.0147
1183.00,-0.0149
1182.00,-0.0151
1181.00,-0.0153
1180.00,-0.0155
1179.00,-0.0156
1178.00,-0.0157
1177.00,-0.0157
1176.00,-0.0157
1175.00,-0.0156
1174.00,-0.0155
1173.00,-0.0154
1172.00,-0.0153
1171.00,-0.0152
1170.00,-0.0151
1169.00,-0.0151
1168.00,-0.0150
1167.00,-0.0150
1166.00,-0.0149
1165.00,-0.0149
1164.00,-0.0148
1163.00,-0.0148
1162.00,-0.0148
1161.00,-0.0149
1160.00,-0.0149
1159.00,-0.0150
1158.00,-0.0151
1157.00,-0.0153
1156.00,-0.0155
1155.00,-0.0158
1154.00,-0.0161
1153.00,-0.0164
1152.00,-0.0167
1151.00,-0.0171
1150.00,-0.0175
1149.00,-0.0179
1148.00,-0.0183
1147.00,-0.0187
1146.00,-0.0190
1145.00,-0.0193
1144.00,-0.0196
1143.00,-0.0199
1142.00,-0.0201
1141.00,-0.0204
1140.00,-0.0206
1139.00,-0.0209
1138.00,-0.0211
1137.00,-0.0214
1136.00,-0.0216
1135.00,-0.0219
1134.00,-0.0222
1133.00,-0.0224
1132.00,-0.0227
1131.00,-0.0229
1130.00,-0.0230
1129.00,-0.0231
1128.00,-0.0232
1127.00,-0.0234
1126.00,-0.0235
1125.00,-0.0237
1124.00,-0.0238
1123.00,-0.0240
1122.00,-0.0242
1121.00,-0.0243
1120.00,-0.0245
1119.00,-0.0246
1118.00,-0.0247
1117.00,-0.0249
1116.00,-0.0249
1115.00,-0.0250
1114.00,-0.0250
1113.00,-0.0251
1112.00,-0.0252
1111.00,-0.0253
1110.00,-0.0254
1109.00,-0.0255
1108.00,-0.0256
1107.00,-0.0256
1106.00,-0.0256
1105.00,-0.0256
1104.00,-0.0255
1103.00,-0.0255
1102.00,-0.0255
1101.00,-0.0256
1100.00,-0.0256
1099.00,-0.0256
1098.00,-0.0256
1097.00,-0.0255
1096.00,-0.0254
1095.00,-0.0253
1094.00,-0.0251
1093.00,-0.0248
1092.00,-0.0245
1091.00,-0.0242
1090.00,-0.0238
1089.00,-0.0235
1088.00,-0.0230
1087.00,-0.0226
1086.00,-0.0220
1085.00,-0.0215
1084.00,-0.0210
1083.00,-0.0204
1082.00,-0.0199
1081.00,-0.0194
1080.00,-0.0188
1079.00,-0.0183
1078.00,-0.0178
1077.00,-0.0173
1076.00,-0.0169
1075.00,-0.0164
1074.00,-0.0160
1073.00,-0.0155
1072.00,-0.0151
1071.00,-0.0148
1070.00,-0.0144
1069.00,-0.0142
1068.00,-0.0140
1067.00,-0.0138
1066.00,-0.0136
1065.00,-0.0135
1064.00,-0.0136
1063.00,-0.0137
1062.00,-0.0138
1061.00,-0.0141
1060.00,-0.0143
1059.00,-0.0147
1058.00,-0.0150
1057.00,-0.0154
1056.00,-0.0158
1055.00,-0.0162
1054.00,-0.0166
1053.00,-0.0170
1052.00,-0.0174
1051.00,-0.0176
1050.00,-0.0178
1049.00,-0.0180
1048.00,-0.0182
1047.00,-0.0185
1046.00,-0.0189
1045.00,-0.0193
1044.00,-0.0197
1043.00,-0.0200
1042.00,-0.0203
1041.00,-0.0206
1040.00,-0.0210
1039.00,-0.0213
1038.00,-0.0216
1037.00,-0.0219
1036.00,-0.0222
1035.00,-0.0225
1034.00,-0.0228
1033.00,-0.0231
1032.00,-0.0235
1031.00,-0.0239
1030.00,-0.0242
1029.00,-0.0247
1028.00,-0.0251
1027.00,-0.0255
1026.00,-0.0259
1025.00,-0.0265
1024.00,-0.0270
1023.00,-0.0276
1022.00,-0.0282
1021.00,-0.0286
1020.00,-0.0291
1019.00,-0.0294
1018.00,-0.0298
1017.00,-0.0302
1016.00,-0.0306
1015.00,-0.0309
1014.00,-0.0313
1013.00,-0.0316
1012.00,-0.0319
1011.00,-0.0322
1010.00,-0.0325
1009.00,-0.0328
1008.00,-0.0330
1007.00,-0.0333
1006.00,-0.0335
1005.00,-0.0336
1004.00,-0.0338
1003.00,-0.0339
1002.00,-0.0341
1001.00,-0.0344
1000.00,-0.0347
999.00,-0.0349
998.00,-0.0350
997.00,-0.0352
996.00,-0.0353
995.00,-0.0354
994.00,-0.0354
993.00,-0.0355
992.00,-0.0356
991.00,-0.0357
990.00,-0.0358
989.00,-0.0358
988.00,-0.0359
987.00,-0.0359
986.00,-0.0360
985.00,-0.0360
984.00,-0.0360
983.00,-0.0359
982.00,-0.0359
981.00,-0.0359
980.00,-0.0359
979.00,-0.0359
978.00,-0.0358
977.00,-0.0359
976.00,-0.0359
975.00,-0.0359
974.00,-0.0359
973.00,-0.0360
972.00,-0.0360
971.00,-0.0360
970.00,-0.0359
969.00,-0.0359
968.00,-0.0358
967.00,-0.0357
966.00,-0.0356
965.00,-0.0354
964.00,-0.0353
963.00,-0.0353
962.00,-0.0353
961.00,-0.0353
960.00,-0.0354
959.00,-0.0355
958.00,-0.0356
957.00,-0.0357
956.00,-0.0359
955.00,-0.0360
954.00,-0.0361
953.00,-0.0363
952.00,-0.0364
951.00,-0.0365
950.00,-0.0366
949.00,-0.0367
948.00,-0.0368
947.00,-0.0369
946.00,-0.0370
945.00,-0.0370
944.00,-0.0370
943.00,-0.0369
942.00,-0.0369
941.00,-0.0368
940.00,-0.0368
939.00,-0.0368
938.00,-0.0367
937.00,-0.0367
936.00,-0.0366
935.00,-0.0365
934.00,-0.0364
933.00,-0.0363
932.00,-0.0362
931.00,-0.0362
930.00,-0.0362
929.00,-0.0362
928.00,-0.0363
927.00,-0.0364
926.00,-0.0366
925.00,-0.0368
924.00,-0.0370
923.00,-0.0372
922.00,-0.0374
921.00,-0.0377
920.00,-0.0379
919.00,-0.0381
918.00,-0.0383
917.00,-0.0385
916.00,-0.0387
915.00,-0.0389
914.00,-0.0391
913.00,-0.0392
912.00,-0.0393
911.00,-0.0394
910.00,-0.0395
909.00,-0.0395
908.00,-0.0395
907.00,-0.0396
906.00,-0.0395
905.00,-0.0395
904.00,-0.0394
903.00,-0.0394
902.00,-0.0393
901.00,-0.0393
900.00,-0.0393
899.00,-0.0393
898.00,-0.0394
897.00,-0.0395
896.00,-0.0396
895.00,-0.0397
894.00,-0.0397
893.00,-0.0397
892.00,-0.0398
891.00,-0.0399
890.00,-0.0400
889.00,-0.0402
888.00,-0.0403
887.00,-0.0404
886.00,-0.0405
885.00,-0.0405
884.00,-0.0406
883.00,-0.0406
882.00,-0.0406
881.00,-0.0406
880.00,-0.0406
879.00,-0.0406
878.00,-0.0406
877.00,-0.0406
876.00,-0.0406
875.00,-0.0406
874.00,-0.0407
873.00,-0.0407
872.00,-0.0408
871.00,-0.0409
870.00,-0.0410
869.00,-0.0412
868.00,-0.0414
867.00,-0.0416
866.00,-0.0418
865.00,-0.0420
864.00,-0.0421
863.00,-0.0422
862.00,-0.0423
861.00,-0.0425
860.00,-0.0426
859.00,-0.0427
858.00,-0.0427
857.00,-0.0427
856.00,-0.0428
855.00,-0.0428
854.00,-0.0428
853.00,-0.0428
852.00,-0.0429
851.00,-0.0429
850.00,-0.0430
849.00,-0.0431
848.00,-0.0431
847.00,-0.0431
846.00,-0.0431
845.00,-0.0431
844.00,-0.0431
843.00,-0.0432
842.00,-0.0432
841.00,-0.0432
840.00,-0.0431
839.00,-0.0430
838.00,-0.0429
837.00,-0.0427
836.00,-0.0426
835.00,-0.0425
834.00,-0.0423
833.00,-0.0422
832.00,-0.0421
831.00,-0.0419
830.00,-0.0418
829.00,-0.0416
828.00,-0.0416
827.00,-0.0415
826.00,-0.0415
825.00,-0.0416
824.00,-0.0416
823.00,-0.0417
822.00,-0.0417
821.00,-0.0416
820.00,-0.0415
819.00,-0.0414
818.00,-0.0413
817.00,-0.0412
816.00,-0.0410
815.00,-0.0409
814.00,-0.0408
813.00,-0.0408
812.00,-0.0408
811.00,-0.0407
810.00,-0.0406
809.00,-0.0405
808.00,-0.0405
807.00,-0.0404
806.00,-0.0403
805.00,-0.0402
804.00,-0.0401
803.00,-0.0401
802.00,-0.0400
801.00,-0.0399
800.00,-0.0398
799.00,-0.0398
798.00,-0.0398
797.00,-0.0398
796.00,-0.0398
795.00,-0.0397
794.00,-0.0395
793.00,-0.0394
792.00,-0.0392
791.00,-0.0391
790.00,-0.0389
789.00,-0.0387
788.00,-0.0386
787.00,-0.0386
786.00,-0.0385
785.00,-0.0384
784.00,-0.0383
783.00,-0.0382
782.00,-0.0380
781.00,-0.0379
780.00,-0.0378
779.00,-0.0377
778.00,-0.0376
777.00,-0.0374
776.00,-0.0372
775.00,-0.0369
774.00,-0.0367
773.00,-0.0366
772.00,-0.0365
771.00,-0.0366
770.00,-0.0368
769.00,-0.0370
768.00,-0.0369
767.00,-0.0366
766.00,-0.0361
765.00,-0.0355
764.00,-0.0351
763.00,-0.0348
762.00,-0.0346
761.00,-0.0345
760.00,-0.0344
759.00,-0.0342
758.00,-0.0340
757.00,-0.0338
756.00,-0.0335
755.00,-0.0333
754.00,-0.0330
753.00,-0.0327
752.00,-0.0323
751.00,-0.0320
750.00,-0.0318
749.00,-0.0316
748.00,-0.0314
747.00,-0.0313
746.00,-0.0311
745.00,-0.0310
744.00,-0.0309
743.00,-0.0308
742.00,-0.0308
741.00,-0.0307
740.00,-0.0306
739.00,-0.0305
738.00,-0.0305
737.00,-0.0305
736.00,-0.0304
735.00,-0.0303
734.00,-0.0301
733.00,-0.0299
732.00,-0.0297
731.00,-0.0294
730.00,-0.0291
729.00,-0.0288
728.00,-0.0284
727.00,-0.0280
726.00,-0.0276
725.00,-0.0271
724.00,-0.0267
723.00,-0.0262
722.00,-0.0257
721.00,-0.0251
720.00,-0.0244
719.00,-0.0238
718.00,-0.0233
717.00,-0.0228
716.00,-0.0222
715.00,-0.0215
714.00,-0.0208
713.00,-0.0201
712.00,-0.0194
711.00,-0.0187
710.00,-0.0179
709.00,-0.0171
708.00,-0.0161
707.00,-0.0152
706.00,-0.0142
705.00,-0.0133
704.00,-0.0123
703.00,-0.0114
702.00,-0.0106
701.00,-0.0100
700.00,-0.0095
699.00,-0.0092
698.00,-0.0090
697.00,-0.0090
696.00,-0.0089
695.00,-0.0089
694.00,-0.0089
693.00,-0.0089
692.00,-0.0090
691.00,-0.0090
690.00,-0.0091
689.00,-0.0091
688.00,-0.0091
687.00,-0.0090
686.00,-0.0090
685.00,-0.0089
684.00,-0.0088
683.00,-0.0086
682.00,-0.0086
681.00,-0.0085
680.00,-0.0086
679.00,-0.0086
678.00,-0.0086
677.00,-0.0085
676.00,-0.0085
675.00,-0.0085
674.00,-0.0085
673.00,-0.0085
672.00,-0.0086
671.00,-0.0087
670.00,-0.0089
669.00,-0.0089
668.00,-0.0086
667.00,-0.0082
666.00,-0.0080
665.00,-0.0081
664.00,-0.0082
663.00,-0.0083
662.00,-0.0082
661.00,-0.0080
660.00,-0.0079
659.00,-0.0077
658.00,-0.0076
657.00,-0.0076
656.00,-0.0075
655.00,-0.0075
654.00,-0.0073
653.00,-0.0072
652.00,-0.0071
651.00,-0.0069
650.00,-0.0066
649.00,-0.0064
648.00,-0.0061
647.00,-0.0060
646.00,-0.0059
645.00,-0.0058
644.00,-0.0056
643.00,-0.0053
642.00,-0.0051
641.00,-0.0049
640.00,-0.0047
639.00,-0.0045
638.00,-0.0042
637.00,-0.0039
636.00,-0.0036
635.00,-0.0033
634.00,-0.0031
633.00,-0.0031
632.00,-0.0031
631.00,-0.0031
630.00,-0.0029
629.00,-0.0028
628.00,-0.0026
627.00,-0.0025
626.00,-0.0025
625.00,-0.0025
624.00,-0.0024
623.00,-0.0025
622.00,-0.0026
621.00,-0.0027
620.00,-0.0028
619.00,-0.0028
618.00,-0.0029
617.00,-0.0030
616.00,-0.0031
615.00,-0.0032
614.00,-0.0034
613.00,-0.0037
612.00,-0.0039
611.00,-0.0041
610.00,-0.0042
609.00,-0.0042
608.00,-0.0042
607.00,-0.0042
606.00,-0.0043
605.00,-0.0044
604.00,-0.0045
603.00,-0.0045
602.00,-0.0046
601.00,-0.0047
600.00,-0.0048
599.00,-0.0049
598.00,-0.0049
597.00,-0.0049
596.00,-0.0050
595.00,-0.0050
594.00,-0.0051
593.00,-0.0052
592.00,-0.0051
591.00,-0.0050
590.00,-0.0048
589.00,-0.0046
588.00,-0.0044
587.00,-0.0043
586.00,-0.0043
585.00,-0.0043
584.00,-0.0044
583.00,-0.0044
582.00,-0.0044
581.00,-0.0043
580.00,-0.0043
579.00,-0.0042
578.00,-0.0041
577.00,-0.0041
576.00,-0.0039
575.00,-0.0036
574.00,-0.0034
573.00,-0.0033
572.00,-0.0034
571.00,-0.0035
570.00,-0.0036
569.00,-0.0037
568.00,-0.0036
567.00,-0.0034
566.00,-0.0032
565.00,-0.0030
564.00,-0.0030
563.00,-0.0029
562.00,-0.0030
561.00,-0.0030
560.00,-0.0029
559.00,-0.0028
558.00,-0.0028
557.00,-0.0028
556.00,-0.0028
555.00,-0.0027
554.00,-0.0027
553.00,-0.0028
552.00,-0.0029
551.00,-0.0030
550.00,-0.0029
549.00,-0.0028
548.00,-0.0027
547.00,-0.0027
546.00,-0.0028
545.00,-0.0029
544.00,-0.0030
543.00,-0.0031
542.00,-0.0032
541.00,-0.0031
540.00,-0.0030
539.00,-0.0029
538.00,-0.0029
537.00,-0.0029
536.00,-0.0030
535.00,-0.0030
534.00,-0.0029
533.00,-0.0027
532.00,-0.0026
531.00,-0.0025
530.00,-0.0027
529.00,-0.0030
528.00,-0.0032
527.00,-0.0031
526.00,-0.0029
525.00,-0.0026
524.00,-0.0025
523.00,-0.0026
522.00,-0.0029
521.00,-0.0032
520.00,-0.0035
519.00,-0.0035
518.00,-0.0035
517.00,-0.0034
516.00,-0.0035
515.00,-0.0036
514.00,-0.0040
513.00,-0.0044
512.00,-0.0049
511.00,-0.0052
510.00,-0.0053
509.00,-0.0052
508.00,-0.0049
507.00,-0.0046
506.00,-0.0045
505.00,-0.0047
504.00,-0.0049
503.00,-0.0052
502.00,-0.0054
501.00,-0.0055
500.00,-0.0056
499.00,-0.0055
498.00,-0.0054
497.00,-0.0052
496.00,-0.0053
495.00,-0.0055
494.00,-0.0059
493.00,-0.0061
492.00,-0.0062
491.00,-0.0061
490.00,-0.0062
489.00,-0.0065
488.00,-0.0068
487.00,-0.0069
486.00,-0.0069
485.00,-0.0070
484.00,-0.0073
483.00,-0.0076
482.00,-0.0080
481.00,-0.0083
480.00,-0.0084
479.00,-0.0083
478.00,-0.0081
477.00,-0.0080
476.00,-0.0079
475.00,-0.0079
474.00,-0.0080
473.00,-0.0080
472.00,-0.0077
471.00,-0.0075
470.00,-0.0074
469.00,-0.0075
468.00,-0.0078
467.00,-0.0080
466.00,-0.0082
465.00,-0.0083
464.00,-0.0082
463.00,-0.0079
462.00,-0.0077
461.00,-0.0076
460.00,-0.0077
459.00,-0.0079
458.00,-0.0081
457.00,-0.0085
456.00,-0.0087
455.00,-0.0086
454.00,-0.0082
453.00,-0.0078
452.00,-0.0078
451.00,-0.0083
450.00,-0.0091
449.00,-0.0097
448.00,-0.0101
447.00,-0.0102
446.00,-0.0100
445.00,-0.0098
444.00,-0.0098
443.00,-0.0100
442.00,-0.0105
441.00,-0.0110
440.00,-0.0113
439.00,-0.0113
438.00,-0.0114
437.00,-0.0117
436.00,-0.0121
435.00,-0.0126
434.00,-0.0132
433.00,-0.0137
432.00,-0.0141
431.00,-0.0145
430.00,-0.0148
429.00,-0.0150
428.00,-0.0152
427.00,-0.0155
426.00,-0.0159
425.00,-0.0163
424.00,-0.0165
423.00,-0.0164
422.00,-0.0164
421.00,-0.0167
420.00,-0.0172
419.00,-0.0171
418.00,-0.0166
417.00,-0.0159
416.00,-0.0156
415.00,-0.0157
414.00,-0.0161
413.00,-0.0167
412.00,-0.0178
411.00,-0.0191
410.00,-0.0202
409.00,-0.0208
408.00,-0.0210
407.00,-0.0208
406.00,-0.0207
405.00,-0.0207
404.00,-0.0212
403.00,-0.0219
402.00,-0.0222
401.00,-0.0219
400.00,-0.0217
