Created as New Dataset,Sample 457 By YargerLab Date Saturday, March 01 2025
cm-1,A
4000.00,-0.0092
3999.00,-0.0092
3998.00,-0.0092
3997.00,-0.0092
3996.00,-0.0092
3995.00,-0.0092
3994.00,-0.0092
3993.00,-0.0092
3992.00,-0.0092
3991.00,-0.0092
3990.00,-0.0092
3989.00,-0.0092
3988.00,-0.0093
3987.00,-0.0093
3986.00,-0.0093
3985.00,-0.0093
3984.00,-0.0093
3983.00,-0.0093
3982.00,-0.0092
3981.00,-0.0092
3980.00,-0.0092
3979.00,-0.0092
3978.00,-0.0092
3977.00,-0.0092
3976.00,-0.0093
3975.00,-0.0093
3974.00,-0.0093
3973.00,-0.0093
3972.00,-0.0094
3971.00,-0.0093
3970.00,-0.0093
3969.00,-0.0093
3968.00,-0.0093
3967.00,-0.0093
3966.00,-0.0093
3965.00,-0.0093
3964.00,-0.0093
3963.00,-0.0093
3962.00,-0.0094
3961.00,-0.0094
3960.00,-0.0094
3959.00,-0.0094
3958.00,-0.0094
3957.00,-0.0093
3956.00,-0.0093
3955.00,-0.0093
3954.00,-0.0094
3953.00,-0.0094
3952.00,-0.0094
3951.00,-0.0094
3950.00,-0.0094
3949.00,-0.0094
3948.00,-0.0094
3947.00,-0.0094
3946.00,-0.0094
3945.00,-0.0094
3944.00,-0.0094
3943.00,-0.0094
3942.00,-0.0094
3941.00,-0.0094
3940.00,-0.0094
3939.00,-0.0094
3938.00,-0.0095
3937.00,-0.0095
3936.00,-0.0095
3935.00,-0.0095
3934.00,-0.0095
3933.00,-0.0095
3932.00,-0.0095
3931.00,-0.0095
3930.00,-0.0095
3929.00,-0.0095
3928.00,-0.0095
3927.00,-0.0095
3926.00,-0.0095
3925.00,-0.0095
3924.00,-0.0095
3923.00,-0.0095
3922.00,-0.0095
3921.00,-0.0095
3920.00,-0.0095
3919.00,-0.0096
3918.00,-0.0096
3917.00,-0.0096
3916.00,-0.0095
3915.00,-0.0095
3914.00,-0.0095
3913.00,-0.0095
3912.00,-0.0095
3911.00,-0.0096
3910.00,-0.0096
3909.00,-0.0096
3908.00,-0.0096
3907.00,-0.0096
3906.00,-0.0096
3905.00,-0.0097
3904.00,-0.0097
3903.00,-0.0097
3902.00,-0.0097
3901.00,-0.0097
3900.00,-0.0098
3899.00,-0.0098
3898.00,-0.0098
3897.00,-0.0098
3896.00,-0.0098
3895.00,-0.0097
3894.00,-0.0097
3893.00,-0.0097
3892.00,-0.0097
3891.00,-0.0097
3890.00,-0.0097
3889.00,-0.0097
3888.00,-0.0097
3887.00,-0.0097
3886.00,-0.0097
3885.00,-0.0097
3884.00,-0.0097
3883.00,-0.0098
3882.00,-0.0098
3881.00,-0.0098
3880.00,-0.0097
3879.00,-0.0097
3878.00,-0.0097
3877.00,-0.0097
3876.00,-0.0097
3875.00,-0.0097
3874.00,-0.0098
3873.00,-0.0098
3872.00,-0.0099
3871.00,-0.0099
3870.00,-0.0099
3869.00,-0.0099
3868.00,-0.0100
3867.00,-0.0100
3866.00,-0.0100
3865.00,-0.0100
3864.00,-0.0099
3863.00,-0.0099
3862.00,-0.0099
3861.00,-0.0099
3860.00,-0.0100
3859.00,-0.0100
3858.00,-0.0100
3857.00,-0.0100
3856.00,-0.0100
3855.00,-0.0100
3854.00,-0.0100
3853.00,-0.0100
3852.00,-0.0100
3851.00,-0.0100
3850.00,-0.0099
3849.00,-0.0099
3848.00,-0.0099
3847.00,-0.0100
3846.00,-0.0100
3845.00,-0.0100
3844.00,-0.0101
3843.00,-0.0101
3842.00,-0.0101
3841.00,-0.0101
3840.00,-0.0101
3839.00,-0.0101
3838.00,-0.0100
3837.00,-0.0101
3836.00,-0.0101
3835.00,-0.0101
3834.00,-0.0101
3833.00,-0.0101
3832.00,-0.0101
3831.00,-0.0101
3830.00,-0.0101
3829.00,-0.0101
3828.00,-0.0101
3827.00,-0.0101
3826.00,-0.0101
3825.00,-0.0101
3824.00,-0.0101
3823.00,-0.0101
3822.00,-0.0102
3821.00,-0.0102
3820.00,-0.0101
3819.00,-0.0101
3818.00,-0.0101
3817.00,-0.0101
3816.00,-0.0101
3815.00,-0.0101
3814.00,-0.0101
3813.00,-0.0101
3812.00,-0.0101
3811.00,-0.0102
3810.00,-0.0102
3809.00,-0.0102
3808.00,-0.0102
3807.00,-0.0103
3806.00,-0.0103
3805.00,-0.0102
3804.00,-0.0102
3803.00,-0.0102
3802.00,-0.0102
3801.00,-0.0102
3800.00,-0.0102
3799.00,-0.0102
3798.00,-0.0102
3797.00,-0.0102
3796.00,-0.0103
3795.00,-0.0103
3794.00,-0.0103
3793.00,-0.0103
3792.00,-0.0103
3791.00,-0.0103
3790.00,-0.0103
3789.00,-0.0103
3788.00,-0.0103
3787.00,-0.0103
3786.00,-0.0103
3785.00,-0.0103
3784.00,-0.0103
3783.00,-0.0102
3782.00,-0.0102
3781.00,-0.0102
3780.00,-0.0102
3779.00,-0.0103
3778.00,-0.0103
3777.00,-0.0104
3776.00,-0.0104
3775.00,-0.0104
3774.00,-0.0104
3773.00,-0.0104
3772.00,-0.0104
3771.00,-0.0104
3770.00,-0.0104
3769.00,-0.0104
3768.00,-0.0104
3767.00,-0.0104
3766.00,-0.0103
3765.00,-0.0104
3764.00,-0.0104
3763.00,-0.0104
3762.00,-0.0104
3761.00,-0.0104
3760.00,-0.0105
3759.00,-0.0105
3758.00,-0.0105
3757.00,-0.0105
3756.00,-0.0105
3755.00,-0.0105
3754.00,-0.0104
3753.00,-0.0104
3752.00,-0.0104
3751.00,-0.0104
3750.00,-0.0105
3749.00,-0.0105
3748.00,-0.0105
3747.00,-0.0105
3746.00,-0.0105
3745.00,-0.0105
3744.00,-0.0106
3743.00,-0.0106
3742.00,-0.0106
3741.00,-0.0106
3740.00,-0.0106
3739.00,-0.0106
3738.00,-0.0106
3737.00,-0.0106
3736.00,-0.0106
3735.00,-0.0106
3734.00,-0.0106
3733.00,-0.0106
3732.00,-0.0107
3731.00,-0.0107
3730.00,-0.0107
3729.00,-0.0107
3728.00,-0.0107
3727.00,-0.0107
3726.00,-0.0106
3725.00,-0.0106
3724.00,-0.0106
3723.00,-0.0106
3722.00,-0.0106
3721.00,-0.0106
3720.00,-0.0106
3719.00,-0.0106
3718.00,-0.0106
3717.00,-0.0107
3716.00,-0.0107
3715.00,-0.0107
3714.00,-0.0107
3713.00,-0.0107
3712.00,-0.0107
3711.00,-0.0107
3710.00,-0.0107
3709.00,-0.0107
3708.00,-0.0107
3707.00,-0.0106
3706.00,-0.0106
3705.00,-0.0106
3704.00,-0.0107
3703.00,-0.0107
3702.00,-0.0108
3701.00,-0.0108
3700.00,-0.0108
3699.00,-0.0108
3698.00,-0.0108
3697.00,-0.0108
3696.00,-0.0108
3695.00,-0.0107
3694.00,-0.0107
3693.00,-0.0107
3692.00,-0.0107
3691.00,-0.0107
3690.00,-0.0107
3689.00,-0.0108
3688.00,-0.0108
3687.00,-0.0108
3686.00,-0.0108
3685.00,-0.0108
3684.00,-0.0108
3683.00,-0.0109
3682.00,-0.0109
3681.00,-0.0109
3680.00,-0.0109
3679.00,-0.0109
3678.00,-0.0109
3677.00,-0.0109
3676.00,-0.0109
3675.00,-0.0109
3674.00,-0.0109
3673.00,-0.0109
3672.00,-0.0109
3671.00,-0.0109
3670.00,-0.0109
3669.00,-0.0108
3668.00,-0.0108
3667.00,-0.0107
3666.00,-0.0107
3665.00,-0.0107
3664.00,-0.0107
3663.00,-0.0107
3662.00,-0.0106
3661.00,-0.0106
3660.00,-0.0107
3659.00,-0.0107
3658.00,-0.0107
3657.00,-0.0107
3656.00,-0.0107
3655.00,-0.0107
3654.00,-0.0107
3653.00,-0.0106
3652.00,-0.0106
3651.00,-0.0106
3650.00,-0.0106
3649.00,-0.0106
3648.00,-0.0106
3647.00,-0.0106
3646.00,-0.0105
3645.00,-0.0105
3644.00,-0.0105
3643.00,-0.0104
3642.00,-0.0104
3641.00,-0.0104
3640.00,-0.0103
3639.00,-0.0103
3638.00,-0.0103
3637.00,-0.0103
3636.00,-0.0103
3635.00,-0.0103
3634.00,-0.0103
3633.00,-0.0102
3632.00,-0.0102
3631.00,-0.0102
3630.00,-0.0102
3629.00,-0.0101
3628.00,-0.0101
3627.00,-0.0101
3626.00,-0.0101
3625.00,-0.0100
3624.00,-0.0100
3623.00,-0.0100
3622.00,-0.0100
3621.00,-0.0099
3620.00,-0.0099
3619.00,-0.0099
3618.00,-0.0098
3617.00,-0.0098
3616.00,-0.0098
3615.00,-0.0098
3614.00,-0.0098
3613.00,-0.0099
3612.00,-0.0099
3611.00,-0.0099
3610.00,-0.0099
3609.00,-0.0099
3608.00,-0.0099
3607.00,-0.0099
3606.00,-0.0098
3605.00,-0.0097
3604.00,-0.0097
3603.00,-0.0097
3602.00,-0.0096
3601.00,-0.0096
3600.00,-0.0095
3599.00,-0.0095
3598.00,-0.0095
3597.00,-0.0095
3596.00,-0.0095
3595.00,-0.0094
3594.00,-0.0094
3593.00,-0.0094
3592.00,-0.0093
3591.00,-0.0093
3590.00,-0.0093
3589.00,-0.0093
3588.00,-0.0092
3587.00,-0.0092
3586.00,-0.0091
3585.00,-0.0091
3584.00,-0.0091
3583.00,-0.0091
3582.00,-0.0092
3581.00,-0.0092
3580.00,-0.0092
3579.00,-0.0091
3578.00,-0.0091
3577.00,-0.0091
3576.00,-0.0090
3575.00,-0.0090
3574.00,-0.0089
3573.00,-0.0089
3572.00,-0.0089
3571.00,-0.0089
3570.00,-0.0088
3569.00,-0.0088
3568.00,-0.0088
3567.00,-0.0088
3566.00,-0.0087
3565.00,-0.0087
3564.00,-0.0086
3563.00,-0.0086
3562.00,-0.0086
3561.00,-0.0086
3560.00,-0.0086
3559.00,-0.0086
3558.00,-0.0085
3557.00,-0.0085
3556.00,-0.0085
3555.00,-0.0085
3554.00,-0.0084
3553.00,-0.0084
3552.00,-0.0084
3551.00,-0.0083
3550.00,-0.0083
3549.00,-0.0083
3548.00,-0.0083
3547.00,-0.0082
3546.00,-0.0082
3545.00,-0.0081
3544.00,-0.0081
3543.00,-0.0081
3542.00,-0.0080
3541.00,-0.0080
3540.00,-0.0080
3539.00,-0.0080
3538.00,-0.0080
3537.00,-0.0080
3536.00,-0.0080
3535.00,-0.0080
3534.00,-0.0079
3533.00,-0.0079
3532.00,-0.0079
3531.00,-0.0078
3530.00,-0.0078
3529.00,-0.0078
3528.00,-0.0077
3527.00,-0.0077
3526.00,-0.0077
3525.00,-0.0077
3524.00,-0.0077
3523.00,-0.0076
3522.00,-0.0076
3521.00,-0.0075
3520.00,-0.0075
3519.00,-0.0074
3518.00,-0.0074
3517.00,-0.0073
3516.00,-0.0073
3515.00,-0.0073
3514.00,-0.0072
3513.00,-0.0072
3512.00,-0.0072
3511.00,-0.0071
3510.00,-0.0071
3509.00,-0.0071
3508.00,-0.0070
3507.00,-0.0070
3506.00,-0.0069
3505.00,-0.0069
3504.00,-0.0069
3503.00,-0.0069
3502.00,-0.0068
3501.00,-0.0068
3500.00,-0.0067
3499.00,-0.0067
3498.00,-0.0066
3497.00,-0.0066
3496.00,-0.0066
3495.00,-0.0065
3494.00,-0.0065
3493.00,-0.0064
3492.00,-0.0064
3491.00,-0.0063
3490.00,-0.0063
3489.00,-0.0062
3488.00,-0.0062
3487.00,-0.0061
3486.00,-0.0061
3485.00,-0.0060
3484.00,-0.0060
3483.00,-0.0059
3482.00,-0.0059
3481.00,-0.0058
3480.00,-0.0058
3479.00,-0.0057
3478.00,-0.0057
3477.00,-0.0057
3476.00,-0.0057
3475.00,-0.0056
3474.00,-0.0055
3473.00,-0.0055
3472.00,-0.0054
3471.00,-0.0053
3470.00,-0.0053
3469.00,-0.0053
3468.00,-0.0052
3467.00,-0.0052
3466.00,-0.0052
3465.00,-0.0051
3464.00,-0.0051
3463.00,-0.0050
3462.00,-0.0049
3461.00,-0.0049
3460.00,-0.0048
3459.00,-0.0048
3458.00,-0.0048
3457.00,-0.0047
3456.00,-0.0047
3455.00,-0.0046
3454.00,-0.0045
3453.00,-0.0045
3452.00,-0.0044
3451.00,-0.0044
3450.00,-0.0043
3449.00,-0.0043
3448.00,-0.0043
3447.00,-0.0042
3446.00,-0.0042
3445.00,-0.0042
3444.00,-0.0041
3443.00,-0.0041
3442.00,-0.0041
3441.00,-0.0040
3440.00,-0.0039
3439.00,-0.0038
3438.00,-0.0037
3437.00,-0.0036
3436.00,-0.0035
3435.00,-0.0035
3434.00,-0.0034
3433.00,-0.0034
3432.00,-0.0033
3431.00,-0.0033
3430.00,-0.0033
3429.00,-0.0032
3428.00,-0.0032
3427.00,-0.0031
3426.00,-0.0030
3425.00,-0.0029
3424.00,-0.0028
3423.00,-0.0027
3422.00,-0.0027
3421.00,-0.0026
3420.00,-0.0025
3419.00,-0.0025
3418.00,-0.0024
3417.00,-0.0024
3416.00,-0.0023
3415.00,-0.0023
3414.00,-0.0022
3413.00,-0.0022
3412.00,-0.0021
3411.00,-0.0021
3410.00,-0.0020
3409.00,-0.0020
3408.00,-0.0020
3407.00,-0.0019
3406.00,-0.0019
3405.00,-0.0018
3404.00,-0.0017
3403.00,-0.0016
3402.00,-0.0016
3401.00,-0.0015
3400.00,-0.0014
3399.00,-0.0013
3398.00,-0.0013
3397.00,-0.0012
3396.00,-0.0011
3395.00,-0.0010
3394.00,-0.0010
3393.00,-0.0009
3392.00,-0.0008
3391.00,-0.0008
3390.00,-0.0007
3389.00,-0.0006
3388.00,-0.0005
3387.00,-0.0005
3386.00,-0.0004
3385.00,-0.0004
3384.00,-0.0003
3383.00,-0.0002
3382.00,-0.0002
3381.00,-0.0001
3380.00,-0.0000
3379.00,0.0001
3378.00,0.0002
3377.00,0.0003
3376.00,0.0004
3375.00,0.0005
3374.00,0.0006
3373.00,0.0007
3372.00,0.0008
3371.00,0.0009
3370.00,0.0010
3369.00,0.0011
3368.00,0.0012
3367.00,0.0013
3366.00,0.0014
3365.00,0.0016
3364.00,0.0017
3363.00,0.0018
3362.00,0.0019
3361.00,0.0021
3360.00,0.0022
3359.00,0.0023
3358.00,0.0025
3357.00,0.0026
3356.00,0.0028
3355.00,0.0029
3354.00,0.0031
3353.00,0.0032
3352.00,0.0034
3351.00,0.0036
3350.00,0.0038
3349.00,0.0040
3348.00,0.0041
3347.00,0.0043
3346.00,0.0045
3345.00,0.0046
3344.00,0.0048
3343.00,0.0050
3342.00,0.0052
3341.00,0.0054
3340.00,0.0055
3339.00,0.0057
3338.00,0.0059
3337.00,0.0062
3336.00,0.0064
3335.00,0.0067
3334.00,0.0069
3333.00,0.0072
3332.00,0.0074
3331.00,0.0077
3330.00,0.0079
3329.00,0.0082
3328.00,0.0085
3327.00,0.0087
3326.00,0.0090
3325.00,0.0093
3324.00,0.0095
3323.00,0.0098
3322.00,0.0101
3321.00,0.0103
3320.00,0.0106
3319.00,0.0109
3318.00,0.0112
3317.00,0.0115
3316.00,0.0118
3315.00,0.0122
3314.00,0.0125
3313.00,0.0128
3312.00,0.0131
3311.00,0.0134
3310.00,0.0137
3309.00,0.0140
3308.00,0.0144
3307.00,0.0147
3306.00,0.0150
3305.00,0.0154
3304.00,0.0158
3303.00,0.0162
3302.00,0.0167
3301.00,0.0170
3300.00,0.0174
3299.00,0.0177
3298.00,0.0181
3297.00,0.0184
3296.00,0.0187
3295.00,0.0190
3294.00,0.0193
3293.00,0.0197
3292.00,0.0200
3291.00,0.0204
3290.00,0.0207
3289.00,0.0210
3288.00,0.0213
3287.00,0.0215
3286.00,0.0218
3285.00,0.0220
3284.00,0.0223
3283.00,0.0226
3282.00,0.0228
3281.00,0.0230
3280.00,0.0232
3279.00,0.0233
3278.00,0.0234
3277.00,0.0235
3276.00,0.0236
3275.00,0.0236
3274.00,0.0236
3273.00,0.0236
3272.00,0.0235
3271.00,0.0235
3270.00,0.0235
3269.00,0.0234
3268.00,0.0233
3267.00,0.0232
3266.00,0.0230
3265.00,0.0227
3264.00,0.0225
3263.00,0.0223
3262.00,0.0221
3261.00,0.0218
3260.00,0.0216
3259.00,0.0213
3258.00,0.0211
3257.00,0.0208
3256.00,0.0205
3255.00,0.0203
3254.00,0.0200
3253.00,0.0197
3252.00,0.0194
3251.00,0.0190
3250.00,0.0187
3249.00,0.0185
3248.00,0.0182
3247.00,0.0180
3246.00,0.0177
3245.00,0.0175
3244.00,0.0172
3243.00,0.0170
3242.00,0.0168
3241.00,0.0165
3240.00,0.0163
3239.00,0.0160
3238.00,0.0158
3237.00,0.0155
3236.00,0.0153
3235.00,0.0150
3234.00,0.0148
3233.00,0.0146
3232.00,0.0144
3231.00,0.0142
3230.00,0.0140
3229.00,0.0138
3228.00,0.0137
3227.00,0.0135
3226.00,0.0133
3225.00,0.0132
3224.00,0.0130
3223.00,0.0128
3222.00,0.0127
3221.00,0.0125
3220.00,0.0123
3219.00,0.0122
3218.00,0.0120
3217.00,0.0119
3216.00,0.0117
3215.00,0.0115
3214.00,0.0113
3213.00,0.0112
3212.00,0.0111
3211.00,0.0109
3210.00,0.0108
3209.00,0.0106
3208.00,0.0105
3207.00,0.0104
3206.00,0.0103
3205.00,0.0102
3204.00,0.0100
3203.00,0.0099
3202.00,0.0098
3201.00,0.0096
3200.00,0.0095
3199.00,0.0093
3198.00,0.0092
3197.00,0.0091
3196.00,0.0090
3195.00,0.0088
3194.00,0.0087
3193.00,0.0085
3192.00,0.0084
3191.00,0.0083
3190.00,0.0081
3189.00,0.0080
3188.00,0.0079
3187.00,0.0077
3186.00,0.0076
3185.00,0.0074
3184.00,0.0072
3183.00,0.0070
3182.00,0.0069
3181.00,0.0067
3180.00,0.0065
3179.00,0.0064
3178.00,0.0062
3177.00,0.0060
3176.00,0.0059
3175.00,0.0057
3174.00,0.0056
3173.00,0.0055
3172.00,0.0053
3171.00,0.0052
3170.00,0.0051
3169.00,0.0049
3168.00,0.0048
3167.00,0.0046
3166.00,0.0045
3165.00,0.0043
3164.00,0.0042
3163.00,0.0040
3162.00,0.0039
3161.00,0.0038
3160.00,0.0036
3159.00,0.0035
3158.00,0.0033
3157.00,0.0032
3156.00,0.0031
3155.00,0.0030
3154.00,0.0029
3153.00,0.0027
3152.00,0.0026
3151.00,0.0025
3150.00,0.0023
3149.00,0.0022
3148.00,0.0021
3147.00,0.0020
3146.00,0.0019
3145.00,0.0018
3144.00,0.0017
3143.00,0.0016
3142.00,0.0016
3141.00,0.0015
3140.00,0.0014
3139.00,0.0012
3138.00,0.0011
3137.00,0.0011
3136.00,0.0010
3135.00,0.0009
3134.00,0.0008
3133.00,0.0008
3132.00,0.0007
3131.00,0.0007
3130.00,0.0006
3129.00,0.0006
3128.00,0.0005
3127.00,0.0005
3126.00,0.0004
3125.00,0.0003
3124.00,0.0002
3123.00,0.0001
3122.00,0.0001
3121.00,0.0000
3120.00,-0.0000
3119.00,-0.0001
3118.00,-0.0001
3117.00,-0.0002
3116.00,-0.0002
3115.00,-0.0001
3114.00,-0.0001
3113.00,-0.0001
3112.00,-0.0001
3111.00,-0.0001
3110.00,-0.0001
3109.00,-0.0002
3108.00,-0.0001
3107.00,-0.0001
3106.00,-0.0001
3105.00,-0.0000
3104.00,-0.0000
3103.00,0.0000
3102.00,0.0000
3101.00,0.0001
3100.00,0.0001
3099.00,0.0001
3098.00,0.0001
3097.00,0.0002
3096.00,0.0002
3095.00,0.0002
3094.00,0.0002
3093.00,0.0003
3092.00,0.0003
3091.00,0.0004
3090.00,0.0004
3089.00,0.0005
3088.00,0.0005
3087.00,0.0005
3086.00,0.0005
3085.00,0.0006
3084.00,0.0006
3083.00,0.0006
3082.00,0.0007
3081.00,0.0007
3080.00,0.0007
3079.00,0.0007
3078.00,0.0007
3077.00,0.0008
3076.00,0.0008
3075.00,0.0009
3074.00,0.0009
3073.00,0.0009
3072.00,0.0009
3071.00,0.0009
3070.00,0.0009
3069.00,0.0009
3068.00,0.0009
3067.00,0.0009
3066.00,0.0008
3065.00,0.0008
3064.00,0.0008
3063.00,0.0008
3062.00,0.0008
3061.00,0.0008
3060.00,0.0008
3059.00,0.0007
3058.00,0.0006
3057.00,0.0006
3056.00,0.0005
3055.00,0.0004
3054.00,0.0003
3053.00,0.0002
3052.00,0.0001
3051.00,0.0001
3050.00,-0.0000
3049.00,-0.0001
3048.00,-0.0002
3047.00,-0.0003
3046.00,-0.0005
3045.00,-0.0006
3044.00,-0.0007
3043.00,-0.0008
3042.00,-0.0008
3041.00,-0.0009
3040.00,-0.0009
3039.00,-0.0010
3038.00,-0.0011
3037.00,-0.0012
3036.00,-0.0013
3035.00,-0.0014
3034.00,-0.0015
3033.00,-0.0016
3032.00,-0.0016
3031.00,-0.0017
3030.00,-0.0017
3029.00,-0.0018
3028.00,-0.0019
3027.00,-0.0020
3026.00,-0.0021
3025.00,-0.0022
3024.00,-0.0023
3023.00,-0.0024
3022.00,-0.0025
3021.00,-0.0026
3020.00,-0.0027
3019.00,-0.0029
3018.00,-0.0030
3017.00,-0.0031
3016.00,-0.0032
3015.00,-0.0033
3014.00,-0.0033
3013.00,-0.0034
3012.00,-0.0034
3011.00,-0.0034
3010.00,-0.0035
3009.00,-0.0035
3008.00,-0.0036
3007.00,-0.0036
3006.00,-0.0037
3005.00,-0.0038
3004.00,-0.0038
3003.00,-0.0039
3002.00,-0.0039
3001.00,-0.0040
3000.00,-0.0040
2999.00,-0.0041
2998.00,-0.0041
2997.00,-0.0040
2996.00,-0.0040
2995.00,-0.0040
2994.00,-0.0039
2993.00,-0.0039
2992.00,-0.0038
2991.00,-0.0037
2990.00,-0.0036
2989.00,-0.0034
2988.00,-0.0033
2987.00,-0.0032
2986.00,-0.0032
2985.00,-0.0031
2984.00,-0.0031
2983.00,-0.0030
2982.00,-0.0029
2981.00,-0.0028
2980.00,-0.0027
2979.00,-0.0025
2978.00,-0.0023
2977.00,-0.0021
2976.00,-0.0019
2975.00,-0.0018
2974.00,-0.0016
2973.00,-0.0015
2972.00,-0.0014
2971.00,-0.0012
2970.00,-0.0010
2969.00,-0.0009
2968.00,-0.0008
2967.00,-0.0007
2966.00,-0.0007
2965.00,-0.0007
2964.00,-0.0006
2963.00,-0.0006
2962.00,-0.0005
2961.00,-0.0005
2960.00,-0.0005
2959.00,-0.0006
2958.00,-0.0007
2957.00,-0.0007
2956.00,-0.0008
2955.00,-0.0008
2954.00,-0.0009
2953.00,-0.0010
2952.00,-0.0011
2951.00,-0.0012
2950.00,-0.0012
2949.00,-0.0013
2948.00,-0.0013
2947.00,-0.0012
2946.00,-0.0012
2945.00,-0.0011
2944.00,-0.0010
2943.00,-0.0009
2942.00,-0.0008
2941.00,-0.0007
2940.00,-0.0005
2939.00,-0.0004
2938.00,-0.0003
2937.00,-0.0002
2936.00,-0.0001
2935.00,-0.0000
2934.00,0.0000
2933.00,0.0000
2932.00,-0.0000
2931.00,-0.0001
2930.00,-0.0001
2929.00,-0.0002
2928.00,-0.0002
2927.00,-0.0003
2926.00,-0.0004
2925.00,-0.0005
2924.00,-0.0007
2923.00,-0.0008
2922.00,-0.0010
2921.00,-0.0012
2920.00,-0.0013
2919.00,-0.0015
2918.00,-0.0018
2917.00,-0.0020
2916.00,-0.0022
2915.00,-0.0024
2914.00,-0.0025
2913.00,-0.0026
2912.00,-0.0028
2911.00,-0.0029
2910.00,-0.0031
2909.00,-0.0032
2908.00,-0.0033
2907.00,-0.0034
2906.00,-0.0035
2905.00,-0.0035
2904.00,-0.0036
2903.00,-0.0036
2902.00,-0.0037
2901.00,-0.0037
2900.00,-0.0038
2899.00,-0.0039
2898.00,-0.0039
2897.00,-0.0040
2896.00,-0.0041
2895.00,-0.0042
2894.00,-0.0043
2893.00,-0.0043
2892.00,-0.0043
2891.00,-0.0043
2890.00,-0.0043
2889.00,-0.0043
2888.00,-0.0043
2887.00,-0.0042
2886.00,-0.0042
2885.00,-0.0041
2884.00,-0.0041
2883.00,-0.0040
2882.00,-0.0039
2881.00,-0.0038
2880.00,-0.0037
2879.00,-0.0036
2878.00,-0.0036
2877.00,-0.0035
2876.00,-0.0035
2875.00,-0.0035
2874.00,-0.0035
2873.00,-0.0035
2872.00,-0.0036
2871.00,-0.0037
2870.00,-0.0038
2869.00,-0.0039
2868.00,-0.0040
2867.00,-0.0041
2866.00,-0.0042
2865.00,-0.0043
2864.00,-0.0045
2863.00,-0.0046
2862.00,-0.0047
2861.00,-0.0048
2860.00,-0.0049
2859.00,-0.0050
2858.00,-0.0051
2857.00,-0.0051
2856.00,-0.0052
2855.00,-0.0053
2854.00,-0.0054
2853.00,-0.0055
2852.00,-0.0055
2851.00,-0.0056
2850.00,-0.0057
2849.00,-0.0058
2848.00,-0.0059
2847.00,-0.0060
2846.00,-0.0061
2845.00,-0.0061
2844.00,-0.0062
2843.00,-0.0063
2842.00,-0.0064
2841.00,-0.0065
2840.00,-0.0066
2839.00,-0.0067
2838.00,-0.0067
2837.00,-0.0068
2836.00,-0.0068
2835.00,-0.0068
2834.00,-0.0068
2833.00,-0.0069
2832.00,-0.0069
2831.00,-0.0069
2830.00,-0.0070
2829.00,-0.0070
2828.00,-0.0070
2827.00,-0.0071
2826.00,-0.0071
2825.00,-0.0071
2824.00,-0.0071
2823.00,-0.0071
2822.00,-0.0072
2821.00,-0.0072
2820.00,-0.0073
2819.00,-0.0073
2818.00,-0.0074
2817.00,-0.0074
2816.00,-0.0074
2815.00,-0.0075
2814.00,-0.0075
2813.00,-0.0075
2812.00,-0.0075
2811.00,-0.0075
2810.00,-0.0076
2809.00,-0.0076
2808.00,-0.0076
2807.00,-0.0076
2806.00,-0.0076
2805.00,-0.0076
2804.00,-0.0077
2803.00,-0.0077
2802.00,-0.0077
2801.00,-0.0078
2800.00,-0.0078
2799.00,-0.0079
2798.00,-0.0079
2797.00,-0.0080
2796.00,-0.0080
2795.00,-0.0080
2794.00,-0.0080
2793.00,-0.0080
2792.00,-0.0080
2791.00,-0.0080
2790.00,-0.0080
2789.00,-0.0081
2788.00,-0.0081
2787.00,-0.0081
2786.00,-0.0082
2785.00,-0.0082
2784.00,-0.0082
2783.00,-0.0083
2782.00,-0.0083
2781.00,-0.0083
2780.00,-0.0083
2779.00,-0.0083
2778.00,-0.0083
2777.00,-0.0083
2776.00,-0.0084
2775.00,-0.0084
2774.00,-0.0084
2773.00,-0.0085
2772.00,-0.0085
2771.00,-0.0085
2770.00,-0.0086
2769.00,-0.0086
2768.00,-0.0086
2767.00,-0.0087
2766.00,-0.0087
2765.00,-0.0088
2764.00,-0.0088
2763.00,-0.0088
2762.00,-0.0089
2761.00,-0.0089
2760.00,-0.0089
2759.00,-0.0089
2758.00,-0.0089
2757.00,-0.0089
2756.00,-0.0089
2755.00,-0.0090
2754.00,-0.0090
2753.00,-0.0090
2752.00,-0.0090
2751.00,-0.0091
2750.00,-0.0091
2749.00,-0.0091
2748.00,-0.0092
2747.00,-0.0092
2746.00,-0.0092
2745.00,-0.0093
2744.00,-0.0093
2743.00,-0.0093
2742.00,-0.0094
2741.00,-0.0094
2740.00,-0.0094
2739.00,-0.0094
2738.00,-0.0095
2737.00,-0.0095
2736.00,-0.0095
2735.00,-0.0095
2734.00,-0.0095
2733.00,-0.0096
2732.00,-0.0096
2731.00,-0.0096
2730.00,-0.0097
2729.00,-0.0097
2728.00,-0.0097
2727.00,-0.0098
2726.00,-0.0098
2725.00,-0.0098
2724.00,-0.0099
2723.00,-0.0099
2722.00,-0.0099
2721.00,-0.0100
2720.00,-0.0100
2719.00,-0.0100
2718.00,-0.0100
2717.00,-0.0100
2716.00,-0.0101
2715.00,-0.0101
2714.00,-0.0101
2713.00,-0.0102
2712.00,-0.0102
2711.00,-0.0102
2710.00,-0.0102
2709.00,-0.0103
2708.00,-0.0103
2707.00,-0.0103
2706.00,-0.0103
2705.00,-0.0104
2704.00,-0.0104
2703.00,-0.0105
2702.00,-0.0105
2701.00,-0.0105
2700.00,-0.0105
2699.00,-0.0105
2698.00,-0.0106
2697.00,-0.0106
2696.00,-0.0106
2695.00,-0.0106
2694.00,-0.0107
2693.00,-0.0107
2692.00,-0.0107
2691.00,-0.0107
2690.00,-0.0108
2689.00,-0.0108
2688.00,-0.0108
2687.00,-0.0108
2686.00,-0.0108
2685.00,-0.0108
2684.00,-0.0109
2683.00,-0.0109
2682.00,-0.0110
2681.00,-0.0110
2680.00,-0.0110
2679.00,-0.0110
2678.00,-0.0110
2677.00,-0.0110
2676.00,-0.0110
2675.00,-0.0110
2674.00,-0.0111
2673.00,-0.0111
2672.00,-0.0111
2671.00,-0.0111
2670.00,-0.0111
2669.00,-0.0112
2668.00,-0.0112
2667.00,-0.0112
2666.00,-0.0113
2665.00,-0.0113
2664.00,-0.0113
2663.00,-0.0113
2662.00,-0.0114
2661.00,-0.0114
2660.00,-0.0114
2659.00,-0.0115
2658.00,-0.0115
2657.00,-0.0115
2656.00,-0.0115
2655.00,-0.0115
2654.00,-0.0115
2653.00,-0.0115
2652.00,-0.0115
2651.00,-0.0115
2650.00,-0.0115
2649.00,-0.0115
2648.00,-0.0116
2647.00,-0.0116
2646.00,-0.0116
2645.00,-0.0116
2644.00,-0.0116
2643.00,-0.0116
2642.00,-0.0116
2641.00,-0.0116
2640.00,-0.0116
2639.00,-0.0116
2638.00,-0.0116
2637.00,-0.0116
2636.00,-0.0117
2635.00,-0.0117
2634.00,-0.0117
2633.00,-0.0118
2632.00,-0.0118
2631.00,-0.0118
2630.00,-0.0118
2629.00,-0.0118
2628.00,-0.0119
2627.00,-0.0119
2626.00,-0.0119
2625.00,-0.0119
2624.00,-0.0118
2623.00,-0.0118
2622.00,-0.0118
2621.00,-0.0119
2620.00,-0.0119
2619.00,-0.0119
2618.00,-0.0119
2617.00,-0.0119
2616.00,-0.0119
2615.00,-0.0119
2614.00,-0.0119
2613.00,-0.0120
2612.00,-0.0120
2611.00,-0.0120
2610.00,-0.0120
2609.00,-0.0120
2608.00,-0.0120
2607.00,-0.0119
2606.00,-0.0120
2605.00,-0.0120
2604.00,-0.0121
2603.00,-0.0121
2602.00,-0.0122
2601.00,-0.0122
2600.00,-0.0122
2599.00,-0.0122
2598.00,-0.0122
2597.00,-0.0122
2596.00,-0.0122
2595.00,-0.0123
2594.00,-0.0123
2593.00,-0.0122
2592.00,-0.0122
2591.00,-0.0122
2590.00,-0.0122
2589.00,-0.0122
2588.00,-0.0123
2587.00,-0.0123
2586.00,-0.0123
2585.00,-0.0124
2584.00,-0.0124
2583.00,-0.0124
2582.00,-0.0125
2581.00,-0.0125
2580.00,-0.0125
2579.00,-0.0126
2578.00,-0.0126
2577.00,-0.0125
2576.00,-0.0125
2575.00,-0.0126
2574.00,-0.0126
2573.00,-0.0126
2572.00,-0.0127
2571.00,-0.0127
2570.00,-0.0127
2569.00,-0.0127
2568.00,-0.0127
2567.00,-0.0126
2566.00,-0.0126
2565.00,-0.0126
2564.00,-0.0126
2563.00,-0.0126
2562.00,-0.0127
2561.00,-0.0127
2560.00,-0.0128
2559.00,-0.0128
2558.00,-0.0128
2557.00,-0.0128
2556.00,-0.0128
2555.00,-0.0128
2554.00,-0.0129
2553.00,-0.0129
2552.00,-0.0130
2551.00,-0.0131
2550.00,-0.0131
2549.00,-0.0131
2548.00,-0.0130
2547.00,-0.0130
2546.00,-0.0130
2545.00,-0.0130
2544.00,-0.0130
2543.00,-0.0131
2542.00,-0.0131
2541.00,-0.0131
2540.00,-0.0131
2539.00,-0.0131
2538.00,-0.0130
2537.00,-0.0131
2536.00,-0.0131
2535.00,-0.0132
2534.00,-0.0132
2533.00,-0.0133
2532.00,-0.0133
2531.00,-0.0133
2530.00,-0.0132
2529.00,-0.0132
2528.00,-0.0132
2527.00,-0.0132
2526.00,-0.0133
2525.00,-0.0133
2524.00,-0.0134
2523.00,-0.0134
2522.00,-0.0134
2521.00,-0.0134
2520.00,-0.0134
2519.00,-0.0134
2518.00,-0.0134
2517.00,-0.0134
2516.00,-0.0134
2515.00,-0.0134
2514.00,-0.0134
2513.00,-0.0134
2512.00,-0.0135
2511.00,-0.0135
2510.00,-0.0136
2509.00,-0.0136
2508.00,-0.0136
2507.00,-0.0136
2506.00,-0.0135
2505.00,-0.0135
2504.00,-0.0136
2503.00,-0.0136
2502.00,-0.0136
2501.00,-0.0136
2500.00,-0.0136
2499.00,-0.0136
2498.00,-0.0136
2497.00,-0.0136
2496.00,-0.0136
2495.00,-0.0136
2494.00,-0.0136
2493.00,-0.0136
2492.00,-0.0136
2491.00,-0.0137
2490.00,-0.0138
2489.00,-0.0138
2488.00,-0.0139
2487.00,-0.0139
2486.00,-0.0139
2485.00,-0.0139
2484.00,-0.0139
2483.00,-0.0139
2482.00,-0.0139
2481.00,-0.0139
2480.00,-0.0139
2479.00,-0.0139
2478.00,-0.0139
2477.00,-0.0139
2476.00,-0.0140
2475.00,-0.0140
2474.00,-0.0140
2473.00,-0.0140
2472.00,-0.0140
2471.00,-0.0140
2470.00,-0.0140
2469.00,-0.0140
2468.00,-0.0140
2467.00,-0.0140
2466.00,-0.0140
2465.00,-0.0140
2464.00,-0.0140
2463.00,-0.0140
2462.00,-0.0141
2461.00,-0.0141
2460.00,-0.0142
2459.00,-0.0142
2458.00,-0.0142
2457.00,-0.0142
2456.00,-0.0142
2455.00,-0.0141
2454.00,-0.0141
2453.00,-0.0141
2452.00,-0.0141
2451.00,-0.0142
2450.00,-0.0142
2449.00,-0.0143
2448.00,-0.0144
2447.00,-0.0144
2446.00,-0.0144
2445.00,-0.0144
2444.00,-0.0144
2443.00,-0.0144
2442.00,-0.0144
2441.00,-0.0144
2440.00,-0.0145
2439.00,-0.0145
2438.00,-0.0145
2437.00,-0.0145
2436.00,-0.0145
2435.00,-0.0145
2434.00,-0.0145
2433.00,-0.0145
2432.00,-0.0144
2431.00,-0.0144
2430.00,-0.0144
2429.00,-0.0145
2428.00,-0.0146
2427.00,-0.0146
2426.00,-0.0146
2425.00,-0.0147
2424.00,-0.0147
2423.00,-0.0147
2422.00,-0.0147
2421.00,-0.0147
2420.00,-0.0147
2419.00,-0.0147
2418.00,-0.0147
2417.00,-0.0147
2416.00,-0.0148
2415.00,-0.0148
2414.00,-0.0148
2413.00,-0.0148
2412.00,-0.0148
2411.00,-0.0148
2410.00,-0.0148
2409.00,-0.0148
2408.00,-0.0148
2407.00,-0.0149
2406.00,-0.0150
2405.00,-0.0150
2404.00,-0.0150
2403.00,-0.0150
2402.00,-0.0150
2401.00,-0.0150
2400.00,-0.0150
2399.00,-0.0150
2398.00,-0.0150
2397.00,-0.0151
2396.00,-0.0151
2395.00,-0.0152
2394.00,-0.0152
2393.00,-0.0152
2392.00,-0.0152
2391.00,-0.0152
2390.00,-0.0152
2389.00,-0.0153
2388.00,-0.0153
2387.00,-0.0153
2386.00,-0.0153
2385.00,-0.0152
2384.00,-0.0152
2383.00,-0.0153
2382.00,-0.0153
2381.00,-0.0154
2380.00,-0.0154
2379.00,-0.0154
2378.00,-0.0154
2377.00,-0.0154
2376.00,-0.0154
2375.00,-0.0154
2374.00,-0.0154
2373.00,-0.0155
2372.00,-0.0155
2371.00,-0.0155
2370.00,-0.0155
2369.00,-0.0155
2368.00,-0.0155
2367.00,-0.0155
2366.00,-0.0155
2365.00,-0.0156
2364.00,-0.0156
2363.00,-0.0156
2362.00,-0.0156
2361.00,-0.0156
2360.00,-0.0157
2359.00,-0.0157
2358.00,-0.0157
2357.00,-0.0157
2356.00,-0.0157
2355.00,-0.0157
2354.00,-0.0158
2353.00,-0.0159
2352.00,-0.0159
2351.00,-0.0159
2350.00,-0.0159
2349.00,-0.0158
2348.00,-0.0158
2347.00,-0.0158
2346.00,-0.0158
2345.00,-0.0159
2344.00,-0.0159
2343.00,-0.0159
2342.00,-0.0159
2341.00,-0.0158
2340.00,-0.0159
2339.00,-0.0159
2338.00,-0.0159
2337.00,-0.0160
2336.00,-0.0160
2335.00,-0.0160
2334.00,-0.0161
2333.00,-0.0161
2332.00,-0.0161
2331.00,-0.0161
2330.00,-0.0162
2329.00,-0.0162
2328.00,-0.0163
2327.00,-0.0164
2326.00,-0.0164
2325.00,-0.0164
2324.00,-0.0164
2323.00,-0.0163
2322.00,-0.0163
2321.00,-0.0162
2320.00,-0.0162
2319.00,-0.0162
2318.00,-0.0162
2317.00,-0.0162
2316.00,-0.0162
2315.00,-0.0162
2314.00,-0.0162
2313.00,-0.0162
2312.00,-0.0163
2311.00,-0.0163
2310.00,-0.0164
2309.00,-0.0164
2308.00,-0.0164
2307.00,-0.0164
2306.00,-0.0164
2305.00,-0.0164
2304.00,-0.0164
2303.00,-0.0164
2302.00,-0.0164
2301.00,-0.0164
2300.00,-0.0164
2299.00,-0.0164
2298.00,-0.0165
2297.00,-0.0165
2296.00,-0.0166
2295.00,-0.0166
2294.00,-0.0166
2293.00,-0.0166
2292.00,-0.0166
2291.00,-0.0166
2290.00,-0.0166
2289.00,-0.0166
2288.00,-0.0166
2287.00,-0.0166
2286.00,-0.0167
2285.00,-0.0166
2284.00,-0.0166
2283.00,-0.0166
2282.00,-0.0167
2281.00,-0.0167
2280.00,-0.0168
2279.00,-0.0168
2278.00,-0.0168
2277.00,-0.0167
2276.00,-0.0167
2275.00,-0.0167
2274.00,-0.0167
2273.00,-0.0167
2272.00,-0.0167
2271.00,-0.0166
2270.00,-0.0167
2269.00,-0.0167
2268.00,-0.0168
2267.00,-0.0168
2266.00,-0.0168
2265.00,-0.0168
2264.00,-0.0168
2263.00,-0.0169
2262.00,-0.0170
2261.00,-0.0170
2260.00,-0.0171
2259.00,-0.0171
2258.00,-0.0171
2257.00,-0.0170
2256.00,-0.0170
2255.00,-0.0169
2254.00,-0.0169
2253.00,-0.0169
2252.00,-0.0170
2251.00,-0.0170
2250.00,-0.0171
2249.00,-0.0171
2248.00,-0.0171
2247.00,-0.0171
2246.00,-0.0171
2245.00,-0.0172
2244.00,-0.0173
2243.00,-0.0173
2242.00,-0.0173
2241.00,-0.0173
2240.00,-0.0173
2239.00,-0.0174
2238.00,-0.0175
2237.00,-0.0175
2236.00,-0.0176
2235.00,-0.0176
2234.00,-0.0175
2233.00,-0.0175
2232.00,-0.0175
2231.00,-0.0174
2230.00,-0.0173
2229.00,-0.0173
2228.00,-0.0173
2227.00,-0.0173
2226.00,-0.0173
2225.00,-0.0174
2224.00,-0.0174
2223.00,-0.0174
2222.00,-0.0174
2221.00,-0.0175
2220.00,-0.0176
2219.00,-0.0177
2218.00,-0.0177
2217.00,-0.0176
2216.00,-0.0176
2215.00,-0.0176
2214.00,-0.0176
2213.00,-0.0176
2212.00,-0.0177
2211.00,-0.0177
2210.00,-0.0177
2209.00,-0.0177
2208.00,-0.0178
2207.00,-0.0179
2206.00,-0.0179
2205.00,-0.0179
2204.00,-0.0179
2203.00,-0.0179
2202.00,-0.0179
2201.00,-0.0178
2200.00,-0.0177
2199.00,-0.0176
2198.00,-0.0175
2197.00,-0.0175
2196.00,-0.0177
2195.00,-0.0178
2194.00,-0.0179
2193.00,-0.0178
2192.00,-0.0177
2191.00,-0.0176
2190.00,-0.0177
2189.00,-0.0178
2188.00,-0.0180
2187.00,-0.0182
2186.00,-0.0181
2185.00,-0.0180
2184.00,-0.0180
2183.00,-0.0181
2182.00,-0.0183
2181.00,-0.0185
2180.00,-0.0186
2179.00,-0.0186
2178.00,-0.0184
2177.00,-0.0182
2176.00,-0.0181
2175.00,-0.0181
2174.00,-0.0183
2173.00,-0.0185
2172.00,-0.0187
2171.00,-0.0189
2170.00,-0.0189
2169.00,-0.0187
2168.00,-0.0186
2167.00,-0.0184
2166.00,-0.0183
2165.00,-0.0183
2164.00,-0.0182
2163.00,-0.0182
2162.00,-0.0181
2161.00,-0.0181
2160.00,-0.0182
2159.00,-0.0184
2158.00,-0.0185
2157.00,-0.0185
2156.00,-0.0185
2155.00,-0.0185
2154.00,-0.0186
2153.00,-0.0186
2152.00,-0.0186
2151.00,-0.0186
2150.00,-0.0185
2149.00,-0.0184
2148.00,-0.0184
2147.00,-0.0185
2146.00,-0.0187
2145.00,-0.0188
2144.00,-0.0189
2143.00,-0.0189
2142.00,-0.0189
2141.00,-0.0187
2140.00,-0.0186
2139.00,-0.0185
2138.00,-0.0185
2137.00,-0.0185
2136.00,-0.0185
2135.00,-0.0186
2134.00,-0.0187
2133.00,-0.0188
2132.00,-0.0189
2131.00,-0.0190
2130.00,-0.0190
2129.00,-0.0189
2128.00,-0.0188
2127.00,-0.0187
2126.00,-0.0187
2125.00,-0.0188
2124.00,-0.0188
2123.00,-0.0189
2122.00,-0.0189
2121.00,-0.0189
2120.00,-0.0189
2119.00,-0.0190
2118.00,-0.0190
2117.00,-0.0191
2116.00,-0.0191
2115.00,-0.0192
2114.00,-0.0192
2113.00,-0.0193
2112.00,-0.0193
2111.00,-0.0193
2110.00,-0.0192
2109.00,-0.0191
2108.00,-0.0191
2107.00,-0.0191
2106.00,-0.0192
2105.00,-0.0193
2104.00,-0.0194
2103.00,-0.0193
2102.00,-0.0192
2101.00,-0.0192
2100.00,-0.0192
2099.00,-0.0193
2098.00,-0.0194
2097.00,-0.0194
2096.00,-0.0194
2095.00,-0.0194
2094.00,-0.0195
2093.00,-0.0196
2092.00,-0.0196
2091.00,-0.0197
2090.00,-0.0198
2089.00,-0.0198
2088.00,-0.0197
2087.00,-0.0197
2086.00,-0.0197
2085.00,-0.0197
2084.00,-0.0197
2083.00,-0.0197
2082.00,-0.0199
2081.00,-0.0200
2080.00,-0.0199
2079.00,-0.0199
2078.00,-0.0199
2077.00,-0.0198
2076.00,-0.0199
2075.00,-0.0199
2074.00,-0.0200
2073.00,-0.0200
2072.00,-0.0200
2071.00,-0.0200
2070.00,-0.0200
2069.00,-0.0200
2068.00,-0.0200
2067.00,-0.0200
2066.00,-0.0200
2065.00,-0.0200
2064.00,-0.0200
2063.00,-0.0200
2062.00,-0.0201
2061.00,-0.0201
2060.00,-0.0201
2059.00,-0.0202
2058.00,-0.0202
2057.00,-0.0203
2056.00,-0.0204
2055.00,-0.0204
2054.00,-0.0204
2053.00,-0.0204
2052.00,-0.0203
2051.00,-0.0202
2050.00,-0.0202
2049.00,-0.0203
2048.00,-0.0204
2047.00,-0.0205
2046.00,-0.0204
2045.00,-0.0202
2044.00,-0.0200
2043.00,-0.0199
2042.00,-0.0200
2041.00,-0.0202
2040.00,-0.0204
2039.00,-0.0205
2038.00,-0.0205
2037.00,-0.0206
2036.00,-0.0207
2035.00,-0.0209
2034.00,-0.0210
2033.00,-0.0210
2032.00,-0.0210
2031.00,-0.0211
2030.00,-0.0212
2029.00,-0.0213
2028.00,-0.0212
2027.00,-0.0212
2026.00,-0.0211
2025.00,-0.0211
2024.00,-0.0209
2023.00,-0.0209
2022.00,-0.0208
2021.00,-0.0209
2020.00,-0.0210
2019.00,-0.0211
2018.00,-0.0212
2017.00,-0.0210
2016.00,-0.0209
2015.00,-0.0208
2014.00,-0.0208
2013.00,-0.0208
2012.00,-0.0209
2011.00,-0.0209
2010.00,-0.0210
2009.00,-0.0209
2008.00,-0.0209
2007.00,-0.0209
2006.00,-0.0209
2005.00,-0.0210
2004.00,-0.0211
2003.00,-0.0212
2002.00,-0.0213
2001.00,-0.0213
2000.00,-0.0213
1999.00,-0.0213
1998.00,-0.0213
1997.00,-0.0212
1996.00,-0.0211
1995.00,-0.0210
1994.00,-0.0211
1993.00,-0.0213
1992.00,-0.0214
1991.00,-0.0215
1990.00,-0.0214
1989.00,-0.0214
1988.00,-0.0214
1987.00,-0.0214
1986.00,-0.0216
1985.00,-0.0217
1984.00,-0.0219
1983.00,-0.0221
1982.00,-0.0222
1981.00,-0.0221
1980.00,-0.0219
1979.00,-0.0217
1978.00,-0.0217
1977.00,-0.0216
1976.00,-0.0216
1975.00,-0.0216
1974.00,-0.0216
1973.00,-0.0216
1972.00,-0.0217
1971.00,-0.0218
1970.00,-0.0219
1969.00,-0.0220
1968.00,-0.0220
1967.00,-0.0221
1966.00,-0.0222
1965.00,-0.0223
1964.00,-0.0222
1963.00,-0.0221
1962.00,-0.0220
1961.00,-0.0219
1960.00,-0.0220
1959.00,-0.0221
1958.00,-0.0222
1957.00,-0.0222
1956.00,-0.0221
1955.00,-0.0219
1954.00,-0.0219
1953.00,-0.0219
1952.00,-0.0221
1951.00,-0.0223
1950.00,-0.0225
1949.00,-0.0225
1948.00,-0.0225
1947.00,-0.0225
1946.00,-0.0226
1945.00,-0.0226
1944.00,-0.0226
1943.00,-0.0226
1942.00,-0.0226
1941.00,-0.0225
1940.00,-0.0225
1939.00,-0.0224
1938.00,-0.0224
1937.00,-0.0225
1936.00,-0.0227
1935.00,-0.0229
1934.00,-0.0230
1933.00,-0.0231
1932.00,-0.0231
1931.00,-0.0231
1930.00,-0.0231
1929.00,-0.0231
1928.00,-0.0231
1927.00,-0.0231
1926.00,-0.0232
1925.00,-0.0232
1924.00,-0.0233
1923.00,-0.0234
1922.00,-0.0235
1921.00,-0.0235
1920.00,-0.0235
1919.00,-0.0235
1918.00,-0.0235
1917.00,-0.0235
1916.00,-0.0236
1915.00,-0.0237
1914.00,-0.0238
1913.00,-0.0238
1912.00,-0.0238
1911.00,-0.0239
1910.00,-0.0239
1909.00,-0.0239
1908.00,-0.0238
1907.00,-0.0238
1906.00,-0.0237
1905.00,-0.0237
1904.00,-0.0237
1903.00,-0.0238
1902.00,-0.0239
1901.00,-0.0239
1900.00,-0.0239
1899.00,-0.0239
1898.00,-0.0239
1897.00,-0.0239
1896.00,-0.0240
1895.00,-0.0241
1894.00,-0.0242
1893.00,-0.0242
1892.00,-0.0242
1891.00,-0.0242
1890.00,-0.0242
1889.00,-0.0243
1888.00,-0.0244
1887.00,-0.0244
1886.00,-0.0244
1885.00,-0.0244
1884.00,-0.0244
1883.00,-0.0244
1882.00,-0.0244
1881.00,-0.0245
1880.00,-0.0246
1879.00,-0.0247
1878.00,-0.0248
1877.00,-0.0248
1876.00,-0.0249
1875.00,-0.0250
1874.00,-0.0250
1873.00,-0.0251
1872.00,-0.0251
1871.00,-0.0251
1870.00,-0.0252
1869.00,-0.0251
1868.00,-0.0251
1867.00,-0.0251
1866.00,-0.0251
1865.00,-0.0251
1864.00,-0.0252
1863.00,-0.0252
1862.00,-0.0253
1861.00,-0.0253
1860.00,-0.0253
1859.00,-0.0254
1858.00,-0.0254
1857.00,-0.0255
1856.00,-0.0255
1855.00,-0.0255
1854.00,-0.0256
1853.00,-0.0256
1852.00,-0.0256
1851.00,-0.0256
1850.00,-0.0256
1849.00,-0.0256
1848.00,-0.0256
1847.00,-0.0257
1846.00,-0.0258
1845.00,-0.0258
1844.00,-0.0259
1843.00,-0.0259
1842.00,-0.0260
1841.00,-0.0260
1840.00,-0.0260
1839.00,-0.0261
1838.00,-0.0261
1837.00,-0.0261
1836.00,-0.0261
1835.00,-0.0261
1834.00,-0.0262
1833.00,-0.0263
1832.00,-0.0264
1831.00,-0.0264
1830.00,-0.0265
1829.00,-0.0265
1828.00,-0.0266
1827.00,-0.0266
1826.00,-0.0267
1825.00,-0.0267
1824.00,-0.0267
1823.00,-0.0268
1822.00,-0.0268
1821.00,-0.0268
1820.00,-0.0268
1819.00,-0.0268
1818.00,-0.0268
1817.00,-0.0269
1816.00,-0.0270
1815.00,-0.0270
1814.00,-0.0271
1813.00,-0.0271
1812.00,-0.0271
1811.00,-0.0272
1810.00,-0.0272
1809.00,-0.0273
1808.00,-0.0273
1807.00,-0.0273
1806.00,-0.0273
1805.00,-0.0274
1804.00,-0.0275
1803.00,-0.0276
1802.00,-0.0277
1801.00,-0.0277
1800.00,-0.0277
1799.00,-0.0277
1798.00,-0.0277
1797.00,-0.0277
1796.00,-0.0277
1795.00,-0.0278
1794.00,-0.0279
1793.00,-0.0280
1792.00,-0.0280
1791.00,-0.0280
1790.00,-0.0280
1789.00,-0.0281
1788.00,-0.0281
1787.00,-0.0282
1786.00,-0.0283
1785.00,-0.0283
1784.00,-0.0284
1783.00,-0.0284
1782.00,-0.0284
1781.00,-0.0285
1780.00,-0.0285
1779.00,-0.0285
1778.00,-0.0286
1777.00,-0.0286
1776.00,-0.0286
1775.00,-0.0287
1774.00,-0.0288
1773.00,-0.0288
1772.00,-0.0289
1771.00,-0.0290
1770.00,-0.0291
1769.00,-0.0291
1768.00,-0.0292
1767.00,-0.0292
1766.00,-0.0293
1765.00,-0.0293
1764.00,-0.0294
1763.00,-0.0295
1762.00,-0.0296
1761.00,-0.0296
1760.00,-0.0296
1759.00,-0.0297
1758.00,-0.0297
1757.00,-0.0298
1756.00,-0.0298
1755.00,-0.0298
1754.00,-0.0299
1753.00,-0.0299
1752.00,-0.0299
1751.00,-0.0300
1750.00,-0.0300
1749.00,-0.0301
1748.00,-0.0301
1747.00,-0.0302
1746.00,-0.0303
1745.00,-0.0303
1744.00,-0.0304
1743.00,-0.0304
1742.00,-0.0305
1741.00,-0.0306
1740.00,-0.0306
1739.00,-0.0306
1738.00,-0.0308
1737.00,-0.0309
1736.00,-0.0310
1735.00,-0.0310
1734.00,-0.0311
1733.00,-0.0311
1732.00,-0.0312
1731.00,-0.0313
1730.00,-0.0313
1729.00,-0.0314
1728.00,-0.0314
1727.00,-0.0314
1726.00,-0.0315
1725.00,-0.0315
1724.00,-0.0315
1723.00,-0.0315
1722.00,-0.0315
1721.00,-0.0316
1720.00,-0.0315
1719.00,-0.0314
1718.00,-0.0312
1717.00,-0.0310
1716.00,-0.0308
1715.00,-0.0306
1714.00,-0.0303
1713.00,-0.0300
1712.00,-0.0295
1711.00,-0.0290
1710.00,-0.0283
1709.00,-0.0276
1708.00,-0.0266
1707.00,-0.0255
1706.00,-0.0242
1705.00,-0.0226
1704.00,-0.0209
1703.00,-0.0192
1702.00,-0.0173
1701.00,-0.0146
1700.00,-0.0116
1699.00,-0.0092
1698.00,-0.0076
1697.00,-0.0064
1696.00,-0.0055
1695.00,-0.0048
1694.00,-0.0043
1693.00,-0.0040
1692.00,-0.0036
1691.00,-0.0030
1690.00,-0.0024
1689.00,-0.0016
1688.00,-0.0008
1687.00,-0.0001
1686.00,0.0008
1685.00,0.0021
1684.00,0.0036
1683.00,0.0049
1682.00,0.0060
1681.00,0.0070
1680.00,0.0081
1679.00,0.0092
1678.00,0.0101
1677.00,0.0112
1676.00,0.0124
1675.00,0.0139
1674.00,0.0152
1673.00,0.0163
1672.00,0.0173
1671.00,0.0184
1670.00,0.0198
1669.00,0.0212
1668.00,0.0225
1667.00,0.0236
1666.00,0.0245
1665.00,0.0254
1664.00,0.0264
1663.00,0.0276
1662.00,0.0289
1661.00,0.0300
1660.00,0.0309
1659.00,0.0317
1658.00,0.0324
1657.00,0.0329
1656.00,0.0333
1655.00,0.0338
1654.00,0.0349
1653.00,0.0365
1652.00,0.0378
1651.00,0.0384
1650.00,0.0383
1649.00,0.0383
1648.00,0.0387
1647.00,0.0393
1646.00,0.0400
1645.00,0.0406
1644.00,0.0409
1643.00,0.0412
1642.00,0.0414
1641.00,0.0418
1640.00,0.0422
1639.00,0.0425
1638.00,0.0429
1637.00,0.0436
1636.00,0.0447
1635.00,0.0461
1634.00,0.0473
1633.00,0.0482
1632.00,0.0491
1631.00,0.0500
1630.00,0.0512
1629.00,0.0526
1628.00,0.0543
1627.00,0.0559
1626.00,0.0574
1625.00,0.0589
1624.00,0.0606
1623.00,0.0625
1622.00,0.0642
1621.00,0.0653
1620.00,0.0660
1619.00,0.0664
1618.00,0.0667
1617.00,0.0670
1616.00,0.0670
1615.00,0.0663
1614.00,0.0649
1613.00,0.0631
1612.00,0.0611
1611.00,0.0589
1610.00,0.0565
1609.00,0.0541
1608.00,0.0515
1607.00,0.0488
1606.00,0.0462
1605.00,0.0436
1604.00,0.0410
1603.00,0.0386
1602.00,0.0362
1601.00,0.0339
1600.00,0.0317
1599.00,0.0296
1598.00,0.0276
1597.00,0.0257
1596.00,0.0239
1595.00,0.0221
1594.00,0.0205
1593.00,0.0189
1592.00,0.0173
1591.00,0.0159
1590.00,0.0145
1589.00,0.0132
1588.00,0.0120
1587.00,0.0110
1586.00,0.0101
1585.00,0.0092
1584.00,0.0085
1583.00,0.0078
1582.00,0.0072
1581.00,0.0066
1580.00,0.0061
1579.00,0.0057
1578.00,0.0055
1577.00,0.0056
1576.00,0.0058
1575.00,0.0059
1574.00,0.0059
1573.00,0.0059
1572.00,0.0060
1571.00,0.0063
1570.00,0.0069
1569.00,0.0076
1568.00,0.0083
1567.00,0.0089
1566.00,0.0097
1565.00,0.0106
1564.00,0.0114
1563.00,0.0121
1562.00,0.0127
1561.00,0.0133
1560.00,0.0146
1559.00,0.0165
1558.00,0.0184
1557.00,0.0197
1556.00,0.0207
1555.00,0.0218
1554.00,0.0230
1553.00,0.0242
1552.00,0.0254
1551.00,0.0265
1550.00,0.0277
1549.00,0.0290
1548.00,0.0301
1547.00,0.0310
1546.00,0.0320
1545.00,0.0330
1544.00,0.0341
1543.00,0.0350
1542.00,0.0360
1541.00,0.0374
1540.00,0.0391
1539.00,0.0407
1538.00,0.0419
1537.00,0.0425
1536.00,0.0430
1535.00,0.0436
1534.00,0.0447
1533.00,0.0460
1532.00,0.0472
1531.00,0.0481
1530.00,0.0489
1529.00,0.0497
1528.00,0.0505
1527.00,0.0515
1526.00,0.0526
1525.00,0.0535
1524.00,0.0543
1523.00,0.0552
1522.00,0.0564
1521.00,0.0579
1520.00,0.0591
1519.00,0.0599
1518.00,0.0607
1517.00,0.0617
1516.00,0.0626
1515.00,0.0631
1514.00,0.0633
1513.00,0.0633
1512.00,0.0631
1511.00,0.0628
1510.00,0.0622
1509.00,0.0615
1508.00,0.0609
1507.00,0.0605
1506.00,0.0601
1505.00,0.0594
1504.00,0.0583
1503.00,0.0569
1502.00,0.0555
1501.00,0.0540
1500.00,0.0525
1499.00,0.0511
1498.00,0.0497
1497.00,0.0483
1496.00,0.0468
1495.00,0.0451
1494.00,0.0433
1493.00,0.0413
1492.00,0.0393
1491.00,0.0373
1490.00,0.0355
1489.00,0.0337
1488.00,0.0319
1487.00,0.0301
1486.00,0.0284
1485.00,0.0267
1484.00,0.0252
1483.00,0.0237
1482.00,0.0223
1481.00,0.0211
1480.00,0.0199
1479.00,0.0188
1478.00,0.0178
1477.00,0.0169
1476.00,0.0162
1475.00,0.0157
1474.00,0.0153
1473.00,0.0151
1472.00,0.0150
1471.00,0.0149
1470.00,0.0148
1469.00,0.0145
1468.00,0.0141
1467.00,0.0138
1466.00,0.0135
1465.00,0.0135
1464.00,0.0135
1463.00,0.0135
1462.00,0.0135
1461.00,0.0135
1460.00,0.0136
1459.00,0.0138
1458.00,0.0145
1457.00,0.0155
1456.00,0.0164
1455.00,0.0171
1454.00,0.0174
1453.00,0.0175
1452.00,0.0176
1451.00,0.0176
1450.00,0.0175
1449.00,0.0174
1448.00,0.0174
1447.00,0.0173
1446.00,0.0170
1445.00,0.0166
1444.00,0.0161
1443.00,0.0155
1442.00,0.0149
1441.00,0.0142
1440.00,0.0133
1439.00,0.0125
1438.00,0.0117
1437.00,0.0110
1436.00,0.0104
1435.00,0.0099
1434.00,0.0093
1433.00,0.0086
1432.00,0.0080
1431.00,0.0075
1430.00,0.0070
1429.00,0.0067
1428.00,0.0064
1427.00,0.0062
1426.00,0.0060
1425.00,0.0059
1424.00,0.0059
1423.00,0.0060
1422.00,0.0059
1421.00,0.0059
1420.00,0.0061
1419.00,0.0064
1418.00,0.0069
1417.00,0.0072
1416.00,0.0076
1415.00,0.0079
1414.00,0.0082
1413.00,0.0085
1412.00,0.0088
1411.00,0.0091
1410.00,0.0094
1409.00,0.0097
1408.00,0.0099
1407.00,0.0101
1406.00,0.0103
1405.00,0.0105
1404.00,0.0106
1403.00,0.0107
1402.00,0.0106
1401.00,0.0105
1400.00,0.0105
1399.00,0.0105
1398.00,0.0105
1397.00,0.0104
1396.00,0.0104
1395.00,0.0104
1394.00,0.0104
1393.00,0.0104
1392.00,0.0104
1391.00,0.0103
1390.00,0.0102
1389.00,0.0101
1388.00,0.0100
1387.00,0.0099
1386.00,0.0098
1385.00,0.0096
1384.00,0.0093
1383.00,0.0089
1382.00,0.0086
1381.00,0.0084
1380.00,0.0082
1379.00,0.0079
1378.00,0.0077
1377.00,0.0075
1376.00,0.0074
1375.00,0.0073
1374.00,0.0072
1373.00,0.0071
1372.00,0.0069
1371.00,0.0068
1370.00,0.0066
1369.00,0.0064
1368.00,0.0061
1367.00,0.0057
1366.00,0.0052
1365.00,0.0047
1364.00,0.0042
1363.00,0.0038
1362.00,0.0033
1361.00,0.0029
1360.00,0.0026
1359.00,0.0023
1358.00,0.0021
1357.00,0.0019
1356.00,0.0018
1355.00,0.0017
1354.00,0.0017
1353.00,0.0016
1352.00,0.0016
1351.00,0.0016
1350.00,0.0016
1349.00,0.0017
1348.00,0.0017
1347.00,0.0018
1346.00,0.0018
1345.00,0.0018
1344.00,0.0018
1343.00,0.0018
1342.00,0.0018
1341.00,0.0018
1340.00,0.0018
1339.00,0.0018
1338.00,0.0017
1337.00,0.0017
1336.00,0.0016
1335.00,0.0015
1334.00,0.0014
1333.00,0.0014
1332.00,0.0013
1331.00,0.0012
1330.00,0.0011
1329.00,0.0010
1328.00,0.0009
1327.00,0.0008
1326.00,0.0008
1325.00,0.0007
1324.00,0.0006
1323.00,0.0005
1322.00,0.0004
1321.00,0.0004
1320.00,0.0003
1319.00,0.0003
1318.00,0.0003
1317.00,0.0002
1316.00,0.0002
1315.00,0.0001
1314.00,0.0001
1313.00,0.0001
1312.00,0.0001
1311.00,0.0001
1310.00,0.0000
1309.00,0.0000
1308.00,-0.0000
1307.00,-0.0001
1306.00,-0.0002
1305.00,-0.0002
1304.00,-0.0003
1303.00,-0.0004
1302.00,-0.0005
1301.00,-0.0006
1300.00,-0.0007
1299.00,-0.0008
1298.00,-0.0009
1297.00,-0.0011
1296.00,-0.0012
1295.00,-0.0013
1294.00,-0.0013
1293.00,-0.0014
1292.00,-0.0015
1291.00,-0.0015
1290.00,-0.0015
1289.00,-0.0015
1288.00,-0.0016
1287.00,-0.0016
1286.00,-0.0017
1285.00,-0.0018
1284.00,-0.0019
1283.00,-0.0020
1282.00,-0.0021
1281.00,-0.0022
1280.00,-0.0022
1279.00,-0.0023
1278.00,-0.0024
1277.00,-0.0026
1276.00,-0.0027
1275.00,-0.0027
1274.00,-0.0028
1273.00,-0.0028
1272.00,-0.0029
1271.00,-0.0029
1270.00,-0.0030
1269.00,-0.0030
1268.00,-0.0031
1267.00,-0.0031
1266.00,-0.0030
1265.00,-0.0030
1264.00,-0.0029
1263.00,-0.0027
1262.00,-0.0025
1261.00,-0.0023
1260.00,-0.0021
1259.00,-0.0019
1258.00,-0.0017
1257.00,-0.0014
1256.00,-0.0011
1255.00,-0.0008
1254.00,-0.0005
1253.00,-0.0001
1252.00,0.0004
1251.00,0.0008
1250.00,0.0012
1249.00,0.0016
1248.00,0.0020
1247.00,0.0023
1246.00,0.0027
1245.00,0.0031
1244.00,0.0034
1243.00,0.0038
1242.00,0.0041
1241.00,0.0043
1240.00,0.0045
1239.00,0.0047
1238.00,0.0049
1237.00,0.0051
1236.00,0.0053
1235.00,0.0055
1234.00,0.0056
1233.00,0.0057
1232.00,0.0058
1231.00,0.0059
1230.00,0.0060
1229.00,0.0060
1228.00,0.0060
1227.00,0.0060
1226.00,0.0059
1225.00,0.0057
1224.00,0.0056
1223.00,0.0054
1222.00,0.0052
1221.00,0.0050
1220.00,0.0048
1219.00,0.0046
1218.00,0.0043
1217.00,0.0040
1216.00,0.0037
1215.00,0.0033
1214.00,0.0029
1213.00,0.0024
1212.00,0.0020
1211.00,0.0015
1210.00,0.0010
1209.00,0.0005
1208.00,-0.0001
1207.00,-0.0006
1206.00,-0.0012
1205.00,-0.0017
1204.00,-0.0023
1203.00,-0.0028
1202.00,-0.0034
1201.00,-0.0039
1200.00,-0.0045
1199.00,-0.0050
1198.00,-0.0055
1197.00,-0.0059
1196.00,-0.0064
1195.00,-0.0067
1194.00,-0.0071
1193.00,-0.0074
1192.00,-0.0078
1191.00,-0.0082
1190.00,-0.0085
1189.00,-0.0088
1188.00,-0.0090
1187.00,-0.0093
1186.00,-0.0095
1185.00,-0.0098
1184.00,-0.0101
1183.00,-0.0103
1182.00,-0.0105
1181.00,-0.0107
1180.00,-0.0109
1179.00,-0.0109
1178.00,-0.0110
1177.00,-0.0109
1176.00,-0.0108
1175.00,-0.0107
1174.00,-0.0105
1173.00,-0.0103
1172.00,-0.0102
1171.00,-0.0101
1170.00,-0.0099
1169.00,-0.0098
1168.00,-0.0097
1167.00,-0.0096
1166.00,-0.0095
1165.00,-0.0094
1164.00,-0.0094
1163.00,-0.0094
1162.00,-0.0094
1161.00,-0.0094
1160.00,-0.0095
1159.00,-0.0096
1158.00,-0.0097
1157.00,-0.0100
1156.00,-0.0102
1155.00,-0.0105
1154.00,-0.0108
1153.00,-0.0112
1152.00,-0.0116
1151.00,-0.0120
1150.00,-0.0125
1149.00,-0.0129
1148.00,-0.0133
1147.00,-0.0137
1146.00,-0.0141
1145.00,-0.0145
1144.00,-0.0148
1143.00,-0.0151
1142.00,-0.0154
1141.00,-0.0157
1140.00,-0.0159
1139.00,-0.0162
1138.00,-0.0165
1137.00,-0.0168
1136.00,-0.0171
1135.00,-0.0174
1134.00,-0.0176
1133.00,-0.0178
1132.00,-0.0180
1131.00,-0.0182
1130.00,-0.0184
1129.00,-0.0185
1128.00,-0.0187
1127.00,-0.0189
1126.00,-0.0191
1125.00,-0.0193
1124.00,-0.0195
1123.00,-0.0197
1122.00,-0.0198
1121.00,-0.0200
1120.00,-0.0202
1119.00,-0.0204
1118.00,-0.0205
1117.00,-0.0207
1116.00,-0.0209
1115.00,-0.0210
1114.00,-0.0211
1113.00,-0.0212
1112.00,-0.0213
1111.00,-0.0215
1110.00,-0.0217
1109.00,-0.0218
1108.00,-0.0219
1107.00,-0.0219
1106.00,-0.0219
1105.00,-0.0219
1104.00,-0.0220
1103.00,-0.0221
1102.00,-0.0222
1101.00,-0.0222
1100.00,-0.0222
1099.00,-0.0222
1098.00,-0.0221
1097.00,-0.0221
1096.00,-0.0220
1095.00,-0.0218
1094.00,-0.0216
1093.00,-0.0214
1092.00,-0.0211
1091.00,-0.0207
1090.00,-0.0203
1089.00,-0.0199
1088.00,-0.0195
1087.00,-0.0190
1086.00,-0.0184
1085.00,-0.0178
1084.00,-0.0172
1083.00,-0.0167
1082.00,-0.0161
1081.00,-0.0156
1080.00,-0.0149
1079.00,-0.0142
1078.00,-0.0136
1077.00,-0.0130
1076.00,-0.0125
1075.00,-0.0121
1074.00,-0.0116
1073.00,-0.0112
1072.00,-0.0108
1071.00,-0.0104
1070.00,-0.0101
1069.00,-0.0099
1068.00,-0.0096
1067.00,-0.0094
1066.00,-0.0092
1065.00,-0.0091
1064.00,-0.0091
1063.00,-0.0093
1062.00,-0.0094
1061.00,-0.0097
1060.00,-0.0100
1059.00,-0.0104
1058.00,-0.0108
1057.00,-0.0112
1056.00,-0.0116
1055.00,-0.0121
1054.00,-0.0125
1053.00,-0.0129
1052.00,-0.0133
1051.00,-0.0137
1050.00,-0.0140
1049.00,-0.0142
1048.00,-0.0145
1047.00,-0.0148
1046.00,-0.0151
1045.00,-0.0154
1044.00,-0.0157
1043.00,-0.0160
1042.00,-0.0164
1041.00,-0.0168
1040.00,-0.0172
1039.00,-0.0176
1038.00,-0.0180
1037.00,-0.0183
1036.00,-0.0186
1035.00,-0.0189
1034.00,-0.0192
1033.00,-0.0194
1032.00,-0.0197
1031.00,-0.0200
1030.00,-0.0204
1029.00,-0.0207
1028.00,-0.0211
1027.00,-0.0216
1026.00,-0.0221
1025.00,-0.0226
1024.00,-0.0232
1023.00,-0.0237
1022.00,-0.0242
1021.00,-0.0246
1020.00,-0.0250
1019.00,-0.0254
1018.00,-0.0258
1017.00,-0.0263
1016.00,-0.0267
1015.00,-0.0270
1014.00,-0.0274
1013.00,-0.0277
1012.00,-0.0280
1011.00,-0.0282
1010.00,-0.0285
1009.00,-0.0287
1008.00,-0.0290
1007.00,-0.0292
1006.00,-0.0295
1005.00,-0.0296
1004.00,-0.0298
1003.00,-0.0300
1002.00,-0.0301
1001.00,-0.0303
1000.00,-0.0305
999.00,-0.0308
998.00,-0.0310
997.00,-0.0312
996.00,-0.0312
995.00,-0.0313
994.00,-0.0313
993.00,-0.0314
992.00,-0.0316
991.00,-0.0317
990.00,-0.0318
989.00,-0.0318
988.00,-0.0318
987.00,-0.0319
986.00,-0.0319
985.00,-0.0320
984.00,-0.0320
983.00,-0.0319
982.00,-0.0318
981.00,-0.0317
980.00,-0.0316
979.00,-0.0316
978.00,-0.0316
977.00,-0.0315
976.00,-0.0315
975.00,-0.0314
974.00,-0.0314
973.00,-0.0313
972.00,-0.0312
971.00,-0.0311
970.00,-0.0309
969.00,-0.0308
968.00,-0.0306
967.00,-0.0304
966.00,-0.0302
965.00,-0.0300
964.00,-0.0298
963.00,-0.0297
962.00,-0.0296
961.00,-0.0296
960.00,-0.0296
959.00,-0.0296
958.00,-0.0297
957.00,-0.0298
956.00,-0.0299
955.00,-0.0301
954.00,-0.0303
953.00,-0.0305
952.00,-0.0306
951.00,-0.0308
950.00,-0.0309
949.00,-0.0311
948.00,-0.0312
947.00,-0.0313
946.00,-0.0314
945.00,-0.0314
944.00,-0.0315
943.00,-0.0315
942.00,-0.0315
941.00,-0.0315
940.00,-0.0316
939.00,-0.0316
938.00,-0.0317
937.00,-0.0317
936.00,-0.0317
935.00,-0.0317
934.00,-0.0317
933.00,-0.0316
932.00,-0.0316
931.00,-0.0316
930.00,-0.0316
929.00,-0.0317
928.00,-0.0317
927.00,-0.0318
926.00,-0.0320
925.00,-0.0321
924.00,-0.0323
923.00,-0.0325
922.00,-0.0327
921.00,-0.0329
920.00,-0.0331
919.00,-0.0334
918.00,-0.0336
917.00,-0.0339
916.00,-0.0341
915.00,-0.0342
914.00,-0.0344
913.00,-0.0345
912.00,-0.0346
911.00,-0.0347
910.00,-0.0348
909.00,-0.0349
908.00,-0.0349
907.00,-0.0350
906.00,-0.0351
905.00,-0.0351
904.00,-0.0351
903.00,-0.0352
902.00,-0.0353
901.00,-0.0354
900.00,-0.0355
899.00,-0.0356
898.00,-0.0357
897.00,-0.0358
896.00,-0.0360
895.00,-0.0361
894.00,-0.0362
893.00,-0.0363
892.00,-0.0364
891.00,-0.0365
890.00,-0.0367
889.00,-0.0369
888.00,-0.0370
887.00,-0.0372
886.00,-0.0373
885.00,-0.0374
884.00,-0.0374
883.00,-0.0375
882.00,-0.0376
881.00,-0.0376
880.00,-0.0377
879.00,-0.0377
878.00,-0.0378
877.00,-0.0378
876.00,-0.0379
875.00,-0.0379
874.00,-0.0379
873.00,-0.0380
872.00,-0.0381
871.00,-0.0383
870.00,-0.0384
869.00,-0.0386
868.00,-0.0387
867.00,-0.0388
866.00,-0.0389
865.00,-0.0390
864.00,-0.0391
863.00,-0.0393
862.00,-0.0395
861.00,-0.0397
860.00,-0.0398
859.00,-0.0399
858.00,-0.0399
857.00,-0.0399
856.00,-0.0399
855.00,-0.0399
854.00,-0.0400
853.00,-0.0401
852.00,-0.0402
851.00,-0.0402
850.00,-0.0403
849.00,-0.0403
848.00,-0.0403
847.00,-0.0403
846.00,-0.0403
845.00,-0.0404
844.00,-0.0404
843.00,-0.0405
842.00,-0.0405
841.00,-0.0404
840.00,-0.0403
839.00,-0.0402
838.00,-0.0401
837.00,-0.0399
836.00,-0.0398
835.00,-0.0397
834.00,-0.0395
833.00,-0.0394
832.00,-0.0393
831.00,-0.0392
830.00,-0.0391
829.00,-0.0390
828.00,-0.0389
827.00,-0.0388
826.00,-0.0387
825.00,-0.0387
824.00,-0.0388
823.00,-0.0388
822.00,-0.0389
821.00,-0.0388
820.00,-0.0387
819.00,-0.0386
818.00,-0.0385
817.00,-0.0384
816.00,-0.0383
815.00,-0.0382
814.00,-0.0382
813.00,-0.0382
812.00,-0.0382
811.00,-0.0381
810.00,-0.0380
809.00,-0.0380
808.00,-0.0379
807.00,-0.0377
806.00,-0.0376
805.00,-0.0375
804.00,-0.0374
803.00,-0.0374
802.00,-0.0374
801.00,-0.0373
800.00,-0.0373
799.00,-0.0373
798.00,-0.0373
797.00,-0.0373
796.00,-0.0372
795.00,-0.0371
794.00,-0.0369
793.00,-0.0367
792.00,-0.0366
791.00,-0.0364
790.00,-0.0362
789.00,-0.0360
788.00,-0.0358
787.00,-0.0356
786.00,-0.0354
785.00,-0.0352
784.00,-0.0350
783.00,-0.0349
782.00,-0.0347
781.00,-0.0346
780.00,-0.0344
779.00,-0.0342
778.00,-0.0340
777.00,-0.0338
776.00,-0.0334
775.00,-0.0331
774.00,-0.0328
773.00,-0.0327
772.00,-0.0325
771.00,-0.0325
770.00,-0.0324
769.00,-0.0323
768.00,-0.0322
767.00,-0.0320
766.00,-0.0317
765.00,-0.0315
764.00,-0.0312
763.00,-0.0310
762.00,-0.0309
761.00,-0.0309
760.00,-0.0308
759.00,-0.0307
758.00,-0.0305
757.00,-0.0303
756.00,-0.0301
755.00,-0.0299
754.00,-0.0297
753.00,-0.0295
752.00,-0.0292
751.00,-0.0290
750.00,-0.0288
749.00,-0.0286
748.00,-0.0284
747.00,-0.0283
746.00,-0.0283
745.00,-0.0283
744.00,-0.0282
743.00,-0.0281
742.00,-0.0281
741.00,-0.0280
740.00,-0.0279
739.00,-0.0279
738.00,-0.0278
737.00,-0.0278
736.00,-0.0277
735.00,-0.0276
734.00,-0.0275
733.00,-0.0274
732.00,-0.0272
731.00,-0.0269
730.00,-0.0266
729.00,-0.0263
728.00,-0.0259
727.00,-0.0255
726.00,-0.0251
725.00,-0.0247
724.00,-0.0242
723.00,-0.0237
722.00,-0.0231
721.00,-0.0225
720.00,-0.0218
719.00,-0.0211
718.00,-0.0205
717.00,-0.0198
716.00,-0.0191
715.00,-0.0184
714.00,-0.0177
713.00,-0.0170
712.00,-0.0163
711.00,-0.0155
710.00,-0.0147
709.00,-0.0138
708.00,-0.0129
707.00,-0.0119
706.00,-0.0110
705.00,-0.0100
704.00,-0.0090
703.00,-0.0080
702.00,-0.0071
701.00,-0.0064
700.00,-0.0059
699.00,-0.0056
698.00,-0.0055
697.00,-0.0053
696.00,-0.0052
695.00,-0.0052
694.00,-0.0052
693.00,-0.0053
692.00,-0.0054
691.00,-0.0054
690.00,-0.0054
689.00,-0.0054
688.00,-0.0054
687.00,-0.0053
686.00,-0.0052
685.00,-0.0051
684.00,-0.0050
683.00,-0.0049
682.00,-0.0048
681.00,-0.0048
680.00,-0.0048
679.00,-0.0048
678.00,-0.0049
677.00,-0.0049
676.00,-0.0048
675.00,-0.0048
674.00,-0.0048
673.00,-0.0049
672.00,-0.0049
671.00,-0.0049
670.00,-0.0049
669.00,-0.0049
668.00,-0.0047
667.00,-0.0046
666.00,-0.0046
665.00,-0.0047
664.00,-0.0047
663.00,-0.0047
662.00,-0.0046
661.00,-0.0044
660.00,-0.0042
659.00,-0.0041
658.00,-0.0040
657.00,-0.0040
656.00,-0.0040
655.00,-0.0039
654.00,-0.0038
653.00,-0.0036
652.00,-0.0034
651.00,-0.0032
650.00,-0.0030
649.00,-0.0028
648.00,-0.0026
647.00,-0.0024
646.00,-0.0022
645.00,-0.0021
644.00,-0.0019
643.00,-0.0016
642.00,-0.0014
641.00,-0.0011
640.00,-0.0008
639.00,-0.0006
638.00,-0.0003
637.00,-0.0001
636.00,0.0001
635.00,0.0002
634.00,0.0004
633.00,0.0005
632.00,0.0007
631.00,0.0009
630.00,0.0011
629.00,0.0013
628.00,0.0014
627.00,0.0015
626.00,0.0016
625.00,0.0017
624.00,0.0017
623.00,0.0016
622.00,0.0013
621.00,0.0011
620.00,0.0010
619.00,0.0010
618.00,0.0010
617.00,0.0009
616.00,0.0007
615.00,0.0005
614.00,0.0003
613.00,0.0001
612.00,-0.0000
611.00,-0.0002
610.00,-0.0004
609.00,-0.0006
608.00,-0.0008
607.00,-0.0009
606.00,-0.0011
605.00,-0.0013
604.00,-0.0014
603.00,-0.0014
602.00,-0.0013
601.00,-0.0013
600.00,-0.0013
599.00,-0.0014
598.00,-0.0015
597.00,-0.0016
596.00,-0.0016
595.00,-0.0017
594.00,-0.0017
593.00,-0.0016
592.00,-0.0016
591.00,-0.0015
590.00,-0.0014
589.00,-0.0013
588.00,-0.0011
587.00,-0.0010
586.00,-0.0010
585.00,-0.0009
584.00,-0.0009
583.00,-0.0009
582.00,-0.0009
581.00,-0.0010
580.00,-0.0009
579.00,-0.0009
578.00,-0.0007
577.00,-0.0005
576.00,-0.0003
575.00,-0.0002
574.00,-0.0002
573.00,-0.0003
572.00,-0.0005
571.00,-0.0005
570.00,-0.0007
569.00,-0.0007
568.00,-0.0006
567.00,-0.0003
566.00,-0.0001
565.00,0.0001
564.00,0.0001
563.00,0.0000
562.00,0.0000
561.00,0.0001
560.00,0.0002
559.00,0.0002
558.00,0.0003
557.00,0.0004
556.00,0.0005
555.00,0.0006
554.00,0.0005
553.00,0.0003
552.00,0.0002
551.00,0.0001
550.00,0.0002
549.00,0.0003
548.00,0.0004
547.00,0.0005
546.00,0.0004
545.00,0.0003
544.00,0.0001
543.00,0.0001
542.00,0.0001
541.00,0.0002
540.00,0.0002
539.00,0.0001
538.00,-0.0001
537.00,-0.0001
536.00,-0.0000
535.00,0.0001
534.00,0.0002
533.00,0.0003
532.00,0.0004
531.00,0.0004
530.00,0.0003
529.00,0.0002
528.00,0.0002
527.00,0.0004
526.00,0.0007
525.00,0.0011
524.00,0.0014
523.00,0.0016
522.00,0.0016
521.00,0.0015
520.00,0.0013
519.00,0.0010
518.00,0.0006
517.00,0.0003
516.00,0.0002
515.00,0.0003
514.00,0.0002
513.00,-0.0001
512.00,-0.0006
511.00,-0.0010
510.00,-0.0011
509.00,-0.0010
508.00,-0.0008
507.00,-0.0007
506.00,-0.0006
505.00,-0.0007
504.00,-0.0007
503.00,-0.0007
502.00,-0.0007
501.00,-0.0007
500.00,-0.0006
499.00,-0.0005
498.00,-0.0006
497.00,-0.0007
496.00,-0.0010
495.00,-0.0012
494.00,-0.0015
493.00,-0.0016
492.00,-0.0017
491.00,-0.0017
490.00,-0.0019
489.00,-0.0022
488.00,-0.0025
487.00,-0.0026
486.00,-0.0027
485.00,-0.0029
484.00,-0.0033
483.00,-0.0038
482.00,-0.0042
481.00,-0.0044
480.00,-0.0042
479.00,-0.0040
478.00,-0.0038
477.00,-0.0039
476.00,-0.0041
475.00,-0.0042
474.00,-0.0042
473.00,-0.0042
472.00,-0.0040
471.00,-0.0038
470.00,-0.0036
469.00,-0.0035
468.00,-0.0035
467.00,-0.0036
466.00,-0.0038
465.00,-0.0041
464.00,-0.0044
463.00,-0.0046
462.00,-0.0046
461.00,-0.0044
460.00,-0.0041
459.00,-0.0037
458.00,-0.0036
457.00,-0.0038
456.00,-0.0040
455.00,-0.0039
454.00,-0.0036
453.00,-0.0034
452.00,-0.0034
451.00,-0.0037
450.00,-0.0042
449.00,-0.0046
448.00,-0.0049
447.00,-0.0051
446.00,-0.0051
445.00,-0.0049
444.00,-0.0049
443.00,-0.0053
442.00,-0.0062
441.00,-0.0071
440.00,-0.0077
439.00,-0.0079
438.00,-0.0078
437.00,-0.0076
436.00,-0.0078
435.00,-0.0084
434.00,-0.0092
433.00,-0.0100
432.00,-0.0104
431.00,-0.0108
430.00,-0.0114
429.00,-0.0122
428.00,-0.0128
427.00,-0.0130
426.00,-0.0130
425.00,-0.0131
424.00,-0.0133
423.00,-0.0133
422.00,-0.0131
421.00,-0.0130
420.00,-0.0133
419.00,-0.0134
418.00,-0.0135
417.00,-0.0135
416.00,-0.0137
415.00,-0.0140
414.00,-0.0144
413.00,-0.0149
412.00,-0.0154
411.00,-0.0157
410.00,-0.0156
409.00,-0.0156
408.00,-0.0160
407.00,-0.0168
406.00,-0.0174
405.00,-0.0181
404.00,-0.0191
403.00,-0.0201
402.00,-0.0205
401.00,-0.0203
400.00,-0.0203
