Created as New Dataset,Sample 647 By YargerLab Date Tuesday, June 10 2025
cm-1,A
4000.00,0.0215
3999.00,0.0215
3998.00,0.0215
3997.00,0.0215
3996.00,0.0215
3995.00,0.0215
3994.00,0.0215
3993.00,0.0216
3992.00,0.0215
3991.00,0.0215
3990.00,0.0215
3989.00,0.0215
3988.00,0.0215
3987.00,0.0215
3986.00,0.0215
3985.00,0.0215
3984.00,0.0215
3983.00,0.0215
3982.00,0.0215
3981.00,0.0215
3980.00,0.0214
3979.00,0.0214
3978.00,0.0214
3977.00,0.0214
3976.00,0.0214
3975.00,0.0214
3974.00,0.0214
3973.00,0.0214
3972.00,0.0214
3971.00,0.0214
3970.00,0.0214
3969.00,0.0214
3968.00,0.0214
3967.00,0.0214
3966.00,0.0214
3965.00,0.0214
3964.00,0.0214
3963.00,0.0214
3962.00,0.0214
3961.00,0.0214
3960.00,0.0214
3959.00,0.0214
3958.00,0.0214
3957.00,0.0214
3956.00,0.0214
3955.00,0.0214
3954.00,0.0214
3953.00,0.0214
3952.00,0.0213
3951.00,0.0213
3950.00,0.0213
3949.00,0.0213
3948.00,0.0213
3947.00,0.0213
3946.00,0.0213
3945.00,0.0213
3944.00,0.0213
3943.00,0.0213
3942.00,0.0213
3941.00,0.0213
3940.00,0.0213
3939.00,0.0213
3938.00,0.0213
3937.00,0.0213
3936.00,0.0213
3935.00,0.0213
3934.00,0.0213
3933.00,0.0213
3932.00,0.0213
3931.00,0.0213
3930.00,0.0212
3929.00,0.0212
3928.00,0.0212
3927.00,0.0212
3926.00,0.0212
3925.00,0.0212
3924.00,0.0212
3923.00,0.0212
3922.00,0.0212
3921.00,0.0212
3920.00,0.0211
3919.00,0.0211
3918.00,0.0211
3917.00,0.0211
3916.00,0.0211
3915.00,0.0211
3914.00,0.0211
3913.00,0.0211
3912.00,0.0211
3911.00,0.0211
3910.00,0.0210
3909.00,0.0210
3908.00,0.0210
3907.00,0.0211
3906.00,0.0211
3905.00,0.0211
3904.00,0.0211
3903.00,0.0211
3902.00,0.0212
3901.00,0.0212
3900.00,0.0212
3899.00,0.0212
3898.00,0.0212
3897.00,0.0212
3896.00,0.0212
3895.00,0.0211
3894.00,0.0211
3893.00,0.0210
3892.00,0.0210
3891.00,0.0210
3890.00,0.0210
3889.00,0.0210
3888.00,0.0210
3887.00,0.0210
3886.00,0.0210
3885.00,0.0210
3884.00,0.0210
3883.00,0.0210
3882.00,0.0210
3881.00,0.0209
3880.00,0.0209
3879.00,0.0209
3878.00,0.0209
3877.00,0.0209
3876.00,0.0209
3875.00,0.0209
3874.00,0.0209
3873.00,0.0209
3872.00,0.0209
3871.00,0.0209
3870.00,0.0209
3869.00,0.0209
3868.00,0.0209
3867.00,0.0209
3866.00,0.0209
3865.00,0.0209
3864.00,0.0209
3863.00,0.0209
3862.00,0.0208
3861.00,0.0208
3860.00,0.0208
3859.00,0.0208
3858.00,0.0208
3857.00,0.0208
3856.00,0.0208
3855.00,0.0207
3854.00,0.0207
3853.00,0.0207
3852.00,0.0207
3851.00,0.0207
3850.00,0.0207
3849.00,0.0207
3848.00,0.0207
3847.00,0.0207
3846.00,0.0207
3845.00,0.0207
3844.00,0.0207
3843.00,0.0207
3842.00,0.0207
3841.00,0.0207
3840.00,0.0206
3839.00,0.0207
3838.00,0.0207
3837.00,0.0207
3836.00,0.0207
3835.00,0.0206
3834.00,0.0206
3833.00,0.0206
3832.00,0.0206
3831.00,0.0206
3830.00,0.0205
3829.00,0.0205
3828.00,0.0205
3827.00,0.0205
3826.00,0.0205
3825.00,0.0205
3824.00,0.0205
3823.00,0.0205
3822.00,0.0205
3821.00,0.0205
3820.00,0.0204
3819.00,0.0204
3818.00,0.0204
3817.00,0.0204
3816.00,0.0204
3815.00,0.0204
3814.00,0.0203
3813.00,0.0203
3812.00,0.0203
3811.00,0.0203
3810.00,0.0203
3809.00,0.0203
3808.00,0.0203
3807.00,0.0203
3806.00,0.0203
3805.00,0.0204
3804.00,0.0204
3803.00,0.0204
3802.00,0.0204
3801.00,0.0203
3800.00,0.0203
3799.00,0.0203
3798.00,0.0203
3797.00,0.0203
3796.00,0.0202
3795.00,0.0202
3794.00,0.0202
3793.00,0.0202
3792.00,0.0202
3791.00,0.0202
3790.00,0.0202
3789.00,0.0202
3788.00,0.0201
3787.00,0.0201
3786.00,0.0200
3785.00,0.0200
3784.00,0.0200
3783.00,0.0200
3782.00,0.0201
3781.00,0.0201
3780.00,0.0201
3779.00,0.0201
3778.00,0.0201
3777.00,0.0201
3776.00,0.0200
3775.00,0.0200
3774.00,0.0201
3773.00,0.0201
3772.00,0.0202
3771.00,0.0202
3770.00,0.0202
3769.00,0.0201
3768.00,0.0201
3767.00,0.0201
3766.00,0.0201
3765.00,0.0201
3764.00,0.0201
3763.00,0.0201
3762.00,0.0200
3761.00,0.0200
3760.00,0.0200
3759.00,0.0200
3758.00,0.0200
3757.00,0.0200
3756.00,0.0199
3755.00,0.0199
3754.00,0.0200
3753.00,0.0200
3752.00,0.0200
3751.00,0.0200
3750.00,0.0200
3749.00,0.0201
3748.00,0.0201
3747.00,0.0201
3746.00,0.0200
3745.00,0.0200
3744.00,0.0200
3743.00,0.0199
3742.00,0.0199
3741.00,0.0199
3740.00,0.0199
3739.00,0.0199
3738.00,0.0199
3737.00,0.0199
3736.00,0.0199
3735.00,0.0200
3734.00,0.0200
3733.00,0.0200
3732.00,0.0200
3731.00,0.0199
3730.00,0.0199
3729.00,0.0198
3728.00,0.0198
3727.00,0.0198
3726.00,0.0198
3725.00,0.0198
3724.00,0.0198
3723.00,0.0198
3722.00,0.0198
3721.00,0.0197
3720.00,0.0197
3719.00,0.0196
3718.00,0.0196
3717.00,0.0196
3716.00,0.0196
3715.00,0.0196
3714.00,0.0196
3713.00,0.0196
3712.00,0.0196
3711.00,0.0196
3710.00,0.0196
3709.00,0.0196
3708.00,0.0196
3707.00,0.0196
3706.00,0.0195
3705.00,0.0195
3704.00,0.0195
3703.00,0.0195
3702.00,0.0195
3701.00,0.0195
3700.00,0.0194
3699.00,0.0194
3698.00,0.0194
3697.00,0.0195
3696.00,0.0195
3695.00,0.0195
3694.00,0.0195
3693.00,0.0195
3692.00,0.0195
3691.00,0.0195
3690.00,0.0195
3689.00,0.0195
3688.00,0.0195
3687.00,0.0194
3686.00,0.0194
3685.00,0.0194
3684.00,0.0194
3683.00,0.0194
3682.00,0.0194
3681.00,0.0195
3680.00,0.0195
3679.00,0.0196
3678.00,0.0197
3677.00,0.0198
3676.00,0.0198
3675.00,0.0198
3674.00,0.0198
3673.00,0.0198
3672.00,0.0198
3671.00,0.0197
3670.00,0.0197
3669.00,0.0197
3668.00,0.0197
3667.00,0.0197
3666.00,0.0197
3665.00,0.0198
3664.00,0.0198
3663.00,0.0198
3662.00,0.0198
3661.00,0.0198
3660.00,0.0199
3659.00,0.0199
3658.00,0.0199
3657.00,0.0199
3656.00,0.0200
3655.00,0.0200
3654.00,0.0201
3653.00,0.0202
3652.00,0.0202
3651.00,0.0203
3650.00,0.0203
3649.00,0.0203
3648.00,0.0204
3647.00,0.0204
3646.00,0.0204
3645.00,0.0204
3644.00,0.0203
3643.00,0.0203
3642.00,0.0204
3641.00,0.0204
3640.00,0.0204
3639.00,0.0205
3638.00,0.0205
3637.00,0.0206
3636.00,0.0206
3635.00,0.0207
3634.00,0.0207
3633.00,0.0208
3632.00,0.0209
3631.00,0.0209
3630.00,0.0210
3629.00,0.0211
3628.00,0.0211
3627.00,0.0212
3626.00,0.0213
3625.00,0.0213
3624.00,0.0213
3623.00,0.0214
3622.00,0.0214
3621.00,0.0214
3620.00,0.0214
3619.00,0.0214
3618.00,0.0215
3617.00,0.0216
3616.00,0.0216
3615.00,0.0217
3614.00,0.0218
3613.00,0.0218
3612.00,0.0219
3611.00,0.0220
3610.00,0.0221
3609.00,0.0222
3608.00,0.0223
3607.00,0.0223
3606.00,0.0223
3605.00,0.0224
3604.00,0.0224
3603.00,0.0224
3602.00,0.0225
3601.00,0.0226
3600.00,0.0226
3599.00,0.0227
3598.00,0.0228
3597.00,0.0229
3596.00,0.0229
3595.00,0.0230
3594.00,0.0230
3593.00,0.0231
3592.00,0.0231
3591.00,0.0232
3590.00,0.0233
3589.00,0.0234
3588.00,0.0234
3587.00,0.0235
3586.00,0.0236
3585.00,0.0237
3584.00,0.0238
3583.00,0.0238
3582.00,0.0239
3581.00,0.0239
3580.00,0.0239
3579.00,0.0238
3578.00,0.0239
3577.00,0.0239
3576.00,0.0241
3575.00,0.0242
3574.00,0.0243
3573.00,0.0244
3572.00,0.0245
3571.00,0.0246
3570.00,0.0248
3569.00,0.0249
3568.00,0.0250
3567.00,0.0251
3566.00,0.0251
3565.00,0.0252
3564.00,0.0252
3563.00,0.0253
3562.00,0.0253
3561.00,0.0254
3560.00,0.0255
3559.00,0.0255
3558.00,0.0256
3557.00,0.0257
3556.00,0.0257
3555.00,0.0258
3554.00,0.0259
3553.00,0.0259
3552.00,0.0260
3551.00,0.0261
3550.00,0.0262
3549.00,0.0263
3548.00,0.0264
3547.00,0.0266
3546.00,0.0267
3545.00,0.0267
3544.00,0.0268
3543.00,0.0268
3542.00,0.0269
3541.00,0.0270
3540.00,0.0271
3539.00,0.0272
3538.00,0.0273
3537.00,0.0273
3536.00,0.0274
3535.00,0.0274
3534.00,0.0274
3533.00,0.0275
3532.00,0.0276
3531.00,0.0276
3530.00,0.0277
3529.00,0.0278
3528.00,0.0279
3527.00,0.0281
3526.00,0.0282
3525.00,0.0283
3524.00,0.0284
3523.00,0.0285
3522.00,0.0286
3521.00,0.0287
3520.00,0.0288
3519.00,0.0288
3518.00,0.0288
3517.00,0.0289
3516.00,0.0289
3515.00,0.0290
3514.00,0.0291
3513.00,0.0291
3512.00,0.0292
3511.00,0.0293
3510.00,0.0293
3509.00,0.0294
3508.00,0.0294
3507.00,0.0295
3506.00,0.0296
3505.00,0.0296
3504.00,0.0297
3503.00,0.0298
3502.00,0.0299
3501.00,0.0299
3500.00,0.0300
3499.00,0.0301
3498.00,0.0302
3497.00,0.0303
3496.00,0.0304
3495.00,0.0304
3494.00,0.0305
3493.00,0.0305
3492.00,0.0306
3491.00,0.0306
3490.00,0.0307
3489.00,0.0307
3488.00,0.0308
3487.00,0.0309
3486.00,0.0310
3485.00,0.0311
3484.00,0.0311
3483.00,0.0312
3482.00,0.0312
3481.00,0.0313
3480.00,0.0314
3479.00,0.0315
3478.00,0.0316
3477.00,0.0317
3476.00,0.0317
3475.00,0.0318
3474.00,0.0318
3473.00,0.0319
3472.00,0.0320
3471.00,0.0320
3470.00,0.0321
3469.00,0.0322
3468.00,0.0323
3467.00,0.0323
3466.00,0.0324
3465.00,0.0324
3464.00,0.0325
3463.00,0.0326
3462.00,0.0327
3461.00,0.0328
3460.00,0.0329
3459.00,0.0330
3458.00,0.0332
3457.00,0.0333
3456.00,0.0334
3455.00,0.0334
3454.00,0.0334
3453.00,0.0334
3452.00,0.0334
3451.00,0.0335
3450.00,0.0335
3449.00,0.0336
3448.00,0.0337
3447.00,0.0338
3446.00,0.0339
3445.00,0.0340
3444.00,0.0341
3443.00,0.0342
3442.00,0.0343
3441.00,0.0344
3440.00,0.0345
3439.00,0.0346
3438.00,0.0348
3437.00,0.0349
3436.00,0.0350
3435.00,0.0351
3434.00,0.0352
3433.00,0.0353
3432.00,0.0355
3431.00,0.0356
3430.00,0.0358
3429.00,0.0359
3428.00,0.0361
3427.00,0.0362
3426.00,0.0364
3425.00,0.0365
3424.00,0.0366
3423.00,0.0367
3422.00,0.0368
3421.00,0.0370
3420.00,0.0372
3419.00,0.0374
3418.00,0.0376
3417.00,0.0377
3416.00,0.0378
3415.00,0.0380
3414.00,0.0382
3413.00,0.0383
3412.00,0.0385
3411.00,0.0386
3410.00,0.0388
3409.00,0.0389
3408.00,0.0391
3407.00,0.0393
3406.00,0.0394
3405.00,0.0395
3404.00,0.0397
3403.00,0.0398
3402.00,0.0400
3401.00,0.0402
3400.00,0.0403
3399.00,0.0405
3398.00,0.0407
3397.00,0.0409
3396.00,0.0410
3395.00,0.0411
3394.00,0.0413
3393.00,0.0414
3392.00,0.0416
3391.00,0.0417
3390.00,0.0419
3389.00,0.0420
3388.00,0.0422
3387.00,0.0423
3386.00,0.0425
3385.00,0.0427
3384.00,0.0429
3383.00,0.0431
3382.00,0.0432
3381.00,0.0434
3380.00,0.0436
3379.00,0.0438
3378.00,0.0440
3377.00,0.0442
3376.00,0.0444
3375.00,0.0446
3374.00,0.0448
3373.00,0.0450
3372.00,0.0452
3371.00,0.0454
3370.00,0.0456
3369.00,0.0458
3368.00,0.0461
3367.00,0.0464
3366.00,0.0466
3365.00,0.0469
3364.00,0.0472
3363.00,0.0475
3362.00,0.0478
3361.00,0.0481
3360.00,0.0483
3359.00,0.0486
3358.00,0.0489
3357.00,0.0492
3356.00,0.0495
3355.00,0.0499
3354.00,0.0502
3353.00,0.0505
3352.00,0.0508
3351.00,0.0511
3350.00,0.0515
3349.00,0.0519
3348.00,0.0523
3347.00,0.0527
3346.00,0.0531
3345.00,0.0535
3344.00,0.0539
3343.00,0.0543
3342.00,0.0547
3341.00,0.0551
3340.00,0.0556
3339.00,0.0561
3338.00,0.0566
3337.00,0.0571
3336.00,0.0576
3335.00,0.0581
3334.00,0.0585
3333.00,0.0590
3332.00,0.0595
3331.00,0.0600
3330.00,0.0605
3329.00,0.0610
3328.00,0.0616
3327.00,0.0621
3326.00,0.0626
3325.00,0.0632
3324.00,0.0638
3323.00,0.0644
3322.00,0.0650
3321.00,0.0656
3320.00,0.0662
3319.00,0.0668
3318.00,0.0673
3317.00,0.0679
3316.00,0.0685
3315.00,0.0691
3314.00,0.0697
3313.00,0.0703
3312.00,0.0709
3311.00,0.0715
3310.00,0.0721
3309.00,0.0726
3308.00,0.0732
3307.00,0.0738
3306.00,0.0744
3305.00,0.0751
3304.00,0.0758
3303.00,0.0764
3302.00,0.0771
3301.00,0.0777
3300.00,0.0782
3299.00,0.0787
3298.00,0.0792
3297.00,0.0797
3296.00,0.0802
3295.00,0.0806
3294.00,0.0810
3293.00,0.0814
3292.00,0.0817
3291.00,0.0821
3290.00,0.0824
3289.00,0.0826
3288.00,0.0828
3287.00,0.0830
3286.00,0.0831
3285.00,0.0832
3284.00,0.0832
3283.00,0.0832
3282.00,0.0831
3281.00,0.0829
3280.00,0.0827
3279.00,0.0825
3278.00,0.0822
3277.00,0.0819
3276.00,0.0815
3275.00,0.0812
3274.00,0.0807
3273.00,0.0802
3272.00,0.0797
3271.00,0.0793
3270.00,0.0789
3269.00,0.0784
3268.00,0.0780
3267.00,0.0775
3266.00,0.0769
3265.00,0.0764
3264.00,0.0758
3263.00,0.0752
3262.00,0.0746
3261.00,0.0741
3260.00,0.0735
3259.00,0.0729
3258.00,0.0723
3257.00,0.0717
3256.00,0.0712
3255.00,0.0707
3254.00,0.0702
3253.00,0.0697
3252.00,0.0693
3251.00,0.0688
3250.00,0.0683
3249.00,0.0678
3248.00,0.0673
3247.00,0.0669
3246.00,0.0665
3245.00,0.0661
3244.00,0.0657
3243.00,0.0654
3242.00,0.0650
3241.00,0.0646
3240.00,0.0642
3239.00,0.0639
3238.00,0.0635
3237.00,0.0631
3236.00,0.0627
3235.00,0.0623
3234.00,0.0619
3233.00,0.0616
3232.00,0.0613
3231.00,0.0610
3230.00,0.0607
3229.00,0.0604
3228.00,0.0601
3227.00,0.0599
3226.00,0.0596
3225.00,0.0593
3224.00,0.0590
3223.00,0.0587
3222.00,0.0584
3221.00,0.0581
3220.00,0.0578
3219.00,0.0576
3218.00,0.0573
3217.00,0.0570
3216.00,0.0567
3215.00,0.0565
3214.00,0.0562
3213.00,0.0560
3212.00,0.0557
3211.00,0.0554
3210.00,0.0552
3209.00,0.0549
3208.00,0.0547
3207.00,0.0544
3206.00,0.0542
3205.00,0.0539
3204.00,0.0536
3203.00,0.0534
3202.00,0.0531
3201.00,0.0529
3200.00,0.0526
3199.00,0.0524
3198.00,0.0521
3197.00,0.0519
3196.00,0.0516
3195.00,0.0514
3194.00,0.0511
3193.00,0.0508
3192.00,0.0505
3191.00,0.0502
3190.00,0.0500
3189.00,0.0497
3188.00,0.0495
3187.00,0.0492
3186.00,0.0490
3185.00,0.0487
3184.00,0.0484
3183.00,0.0481
3182.00,0.0479
3181.00,0.0477
3180.00,0.0474
3179.00,0.0472
3178.00,0.0469
3177.00,0.0467
3176.00,0.0465
3175.00,0.0463
3174.00,0.0461
3173.00,0.0458
3172.00,0.0455
3171.00,0.0452
3170.00,0.0450
3169.00,0.0448
3168.00,0.0445
3167.00,0.0443
3166.00,0.0440
3165.00,0.0438
3164.00,0.0436
3163.00,0.0434
3162.00,0.0432
3161.00,0.0430
3160.00,0.0428
3159.00,0.0426
3158.00,0.0424
3157.00,0.0422
3156.00,0.0420
3155.00,0.0418
3154.00,0.0416
3153.00,0.0414
3152.00,0.0413
3151.00,0.0412
3150.00,0.0410
3149.00,0.0409
3148.00,0.0408
3147.00,0.0406
3146.00,0.0405
3145.00,0.0404
3144.00,0.0402
3143.00,0.0401
3142.00,0.0400
3141.00,0.0398
3140.00,0.0397
3139.00,0.0395
3138.00,0.0394
3137.00,0.0393
3136.00,0.0393
3135.00,0.0392
3134.00,0.0391
3133.00,0.0390
3132.00,0.0390
3131.00,0.0389
3130.00,0.0388
3129.00,0.0388
3128.00,0.0387
3127.00,0.0387
3126.00,0.0386
3125.00,0.0386
3124.00,0.0385
3123.00,0.0384
3122.00,0.0383
3121.00,0.0383
3120.00,0.0383
3119.00,0.0383
3118.00,0.0383
3117.00,0.0383
3116.00,0.0384
3115.00,0.0384
3114.00,0.0385
3113.00,0.0385
3112.00,0.0386
3111.00,0.0386
3110.00,0.0386
3109.00,0.0387
3108.00,0.0388
3107.00,0.0389
3106.00,0.0389
3105.00,0.0390
3104.00,0.0391
3103.00,0.0391
3102.00,0.0392
3101.00,0.0393
3100.00,0.0393
3099.00,0.0394
3098.00,0.0395
3097.00,0.0396
3096.00,0.0397
3095.00,0.0397
3094.00,0.0398
3093.00,0.0399
3092.00,0.0399
3091.00,0.0400
3090.00,0.0400
3089.00,0.0401
3088.00,0.0402
3087.00,0.0402
3086.00,0.0403
3085.00,0.0404
3084.00,0.0404
3083.00,0.0404
3082.00,0.0404
3081.00,0.0404
3080.00,0.0404
3079.00,0.0405
3078.00,0.0406
3077.00,0.0407
3076.00,0.0408
3075.00,0.0409
3074.00,0.0410
3073.00,0.0410
3072.00,0.0410
3071.00,0.0410
3070.00,0.0409
3069.00,0.0408
3068.00,0.0408
3067.00,0.0408
3066.00,0.0408
3065.00,0.0408
3064.00,0.0408
3063.00,0.0408
3062.00,0.0407
3061.00,0.0407
3060.00,0.0406
3059.00,0.0404
3058.00,0.0402
3057.00,0.0401
3056.00,0.0400
3055.00,0.0398
3054.00,0.0397
3053.00,0.0395
3052.00,0.0394
3051.00,0.0392
3050.00,0.0391
3049.00,0.0390
3048.00,0.0389
3047.00,0.0387
3046.00,0.0385
3045.00,0.0383
3044.00,0.0381
3043.00,0.0379
3042.00,0.0378
3041.00,0.0377
3040.00,0.0376
3039.00,0.0375
3038.00,0.0373
3037.00,0.0371
3036.00,0.0369
3035.00,0.0367
3034.00,0.0365
3033.00,0.0364
3032.00,0.0363
3031.00,0.0363
3030.00,0.0362
3029.00,0.0361
3028.00,0.0360
3027.00,0.0359
3026.00,0.0358
3025.00,0.0357
3024.00,0.0355
3023.00,0.0354
3022.00,0.0352
3021.00,0.0350
3020.00,0.0349
3019.00,0.0347
3018.00,0.0345
3017.00,0.0344
3016.00,0.0343
3015.00,0.0343
3014.00,0.0342
3013.00,0.0342
3012.00,0.0342
3011.00,0.0342
3010.00,0.0343
3009.00,0.0343
3008.00,0.0344
3007.00,0.0344
3006.00,0.0343
3005.00,0.0343
3004.00,0.0343
3003.00,0.0344
3002.00,0.0344
3001.00,0.0344
3000.00,0.0344
2999.00,0.0344
2998.00,0.0345
2997.00,0.0346
2996.00,0.0347
2995.00,0.0349
2994.00,0.0350
2993.00,0.0351
2992.00,0.0353
2991.00,0.0355
2990.00,0.0357
2989.00,0.0359
2988.00,0.0361
2987.00,0.0363
2986.00,0.0365
2985.00,0.0367
2984.00,0.0369
2983.00,0.0370
2982.00,0.0372
2981.00,0.0374
2980.00,0.0376
2979.00,0.0378
2978.00,0.0380
2977.00,0.0381
2976.00,0.0383
2975.00,0.0385
2974.00,0.0386
2973.00,0.0388
2972.00,0.0390
2971.00,0.0393
2970.00,0.0394
2969.00,0.0396
2968.00,0.0398
2967.00,0.0400
2966.00,0.0401
2965.00,0.0403
2964.00,0.0404
2963.00,0.0405
2962.00,0.0406
2961.00,0.0407
2960.00,0.0408
2959.00,0.0408
2958.00,0.0408
2957.00,0.0408
2956.00,0.0408
2955.00,0.0407
2954.00,0.0406
2953.00,0.0406
2952.00,0.0405
2951.00,0.0404
2950.00,0.0404
2949.00,0.0404
2948.00,0.0405
2947.00,0.0407
2946.00,0.0409
2945.00,0.0413
2944.00,0.0417
2943.00,0.0421
2942.00,0.0427
2941.00,0.0433
2940.00,0.0439
2939.00,0.0446
2938.00,0.0453
2937.00,0.0461
2936.00,0.0468
2935.00,0.0476
2934.00,0.0484
2933.00,0.0492
2932.00,0.0499
2931.00,0.0507
2930.00,0.0514
2929.00,0.0521
2928.00,0.0528
2927.00,0.0535
2926.00,0.0541
2925.00,0.0547
2924.00,0.0553
2923.00,0.0558
2922.00,0.0562
2921.00,0.0565
2920.00,0.0567
2919.00,0.0568
2918.00,0.0566
2917.00,0.0561
2916.00,0.0553
2915.00,0.0541
2914.00,0.0527
2913.00,0.0511
2912.00,0.0496
2911.00,0.0482
2910.00,0.0470
2909.00,0.0460
2908.00,0.0451
2907.00,0.0443
2906.00,0.0437
2905.00,0.0431
2904.00,0.0426
2903.00,0.0421
2902.00,0.0417
2901.00,0.0414
2900.00,0.0410
2899.00,0.0406
2898.00,0.0403
2897.00,0.0399
2896.00,0.0396
2895.00,0.0394
2894.00,0.0391
2893.00,0.0388
2892.00,0.0385
2891.00,0.0383
2890.00,0.0380
2889.00,0.0378
2888.00,0.0375
2887.00,0.0374
2886.00,0.0372
2885.00,0.0371
2884.00,0.0370
2883.00,0.0369
2882.00,0.0368
2881.00,0.0368
2880.00,0.0368
2879.00,0.0368
2878.00,0.0369
2877.00,0.0369
2876.00,0.0370
2875.00,0.0370
2874.00,0.0370
2873.00,0.0370
2872.00,0.0369
2871.00,0.0369
2870.00,0.0368
2869.00,0.0366
2868.00,0.0365
2867.00,0.0364
2866.00,0.0364
2865.00,0.0364
2864.00,0.0364
2863.00,0.0366
2862.00,0.0369
2861.00,0.0372
2860.00,0.0377
2859.00,0.0383
2858.00,0.0389
2857.00,0.0397
2856.00,0.0404
2855.00,0.0412
2854.00,0.0421
2853.00,0.0428
2852.00,0.0434
2851.00,0.0438
2850.00,0.0437
2849.00,0.0431
2848.00,0.0421
2847.00,0.0407
2846.00,0.0392
2845.00,0.0378
2844.00,0.0366
2843.00,0.0355
2842.00,0.0346
2841.00,0.0339
2840.00,0.0333
2839.00,0.0328
2838.00,0.0324
2837.00,0.0320
2836.00,0.0317
2835.00,0.0315
2834.00,0.0312
2833.00,0.0311
2832.00,0.0309
2831.00,0.0307
2830.00,0.0306
2829.00,0.0305
2828.00,0.0303
2827.00,0.0302
2826.00,0.0301
2825.00,0.0300
2824.00,0.0299
2823.00,0.0298
2822.00,0.0297
2821.00,0.0297
2820.00,0.0296
2819.00,0.0296
2818.00,0.0295
2817.00,0.0294
2816.00,0.0293
2815.00,0.0292
2814.00,0.0291
2813.00,0.0290
2812.00,0.0290
2811.00,0.0290
2810.00,0.0289
2809.00,0.0289
2808.00,0.0288
2807.00,0.0287
2806.00,0.0287
2805.00,0.0286
2804.00,0.0286
2803.00,0.0285
2802.00,0.0285
2801.00,0.0284
2800.00,0.0283
2799.00,0.0282
2798.00,0.0281
2797.00,0.0281
2796.00,0.0280
2795.00,0.0280
2794.00,0.0279
2793.00,0.0279
2792.00,0.0278
2791.00,0.0278
2790.00,0.0278
2789.00,0.0277
2788.00,0.0277
2787.00,0.0276
2786.00,0.0276
2785.00,0.0275
2784.00,0.0275
2783.00,0.0275
2782.00,0.0274
2781.00,0.0273
2780.00,0.0273
2779.00,0.0272
2778.00,0.0272
2777.00,0.0271
2776.00,0.0271
2775.00,0.0270
2774.00,0.0270
2773.00,0.0269
2772.00,0.0269
2771.00,0.0268
2770.00,0.0268
2769.00,0.0268
2768.00,0.0267
2767.00,0.0267
2766.00,0.0266
2765.00,0.0265
2764.00,0.0265
2763.00,0.0264
2762.00,0.0264
2761.00,0.0264
2760.00,0.0264
2759.00,0.0264
2758.00,0.0263
2757.00,0.0263
2756.00,0.0262
2755.00,0.0262
2754.00,0.0262
2753.00,0.0261
2752.00,0.0261
2751.00,0.0260
2750.00,0.0260
2749.00,0.0259
2748.00,0.0259
2747.00,0.0259
2746.00,0.0259
2745.00,0.0258
2744.00,0.0258
2743.00,0.0257
2742.00,0.0257
2741.00,0.0257
2740.00,0.0257
2739.00,0.0256
2738.00,0.0256
2737.00,0.0255
2736.00,0.0255
2735.00,0.0254
2734.00,0.0254
2733.00,0.0253
2732.00,0.0253
2731.00,0.0253
2730.00,0.0252
2729.00,0.0252
2728.00,0.0252
2727.00,0.0251
2726.00,0.0251
2725.00,0.0250
2724.00,0.0250
2723.00,0.0250
2722.00,0.0250
2721.00,0.0249
2720.00,0.0249
2719.00,0.0248
2718.00,0.0248
2717.00,0.0248
2716.00,0.0248
2715.00,0.0247
2714.00,0.0247
2713.00,0.0247
2712.00,0.0246
2711.00,0.0246
2710.00,0.0245
2709.00,0.0245
2708.00,0.0245
2707.00,0.0245
2706.00,0.0244
2705.00,0.0244
2704.00,0.0244
2703.00,0.0243
2702.00,0.0243
2701.00,0.0242
2700.00,0.0243
2699.00,0.0243
2698.00,0.0242
2697.00,0.0242
2696.00,0.0242
2695.00,0.0241
2694.00,0.0241
2693.00,0.0240
2692.00,0.0240
2691.00,0.0240
2690.00,0.0240
2689.00,0.0240
2688.00,0.0240
2687.00,0.0239
2686.00,0.0239
2685.00,0.0239
2684.00,0.0239
2683.00,0.0239
2682.00,0.0239
2681.00,0.0238
2680.00,0.0238
2679.00,0.0238
2678.00,0.0238
2677.00,0.0237
2676.00,0.0237
2675.00,0.0236
2674.00,0.0236
2673.00,0.0235
2672.00,0.0235
2671.00,0.0235
2670.00,0.0235
2669.00,0.0235
2668.00,0.0235
2667.00,0.0236
2666.00,0.0236
2665.00,0.0236
2664.00,0.0236
2663.00,0.0237
2662.00,0.0237
2661.00,0.0237
2660.00,0.0237
2659.00,0.0237
2658.00,0.0236
2657.00,0.0236
2656.00,0.0236
2655.00,0.0236
2654.00,0.0236
2653.00,0.0236
2652.00,0.0236
2651.00,0.0235
2650.00,0.0235
2649.00,0.0235
2648.00,0.0235
2647.00,0.0234
2646.00,0.0234
2645.00,0.0233
2644.00,0.0233
2643.00,0.0233
2642.00,0.0232
2641.00,0.0232
2640.00,0.0231
2639.00,0.0231
2638.00,0.0231
2637.00,0.0231
2636.00,0.0231
2635.00,0.0231
2634.00,0.0231
2633.00,0.0231
2632.00,0.0231
2631.00,0.0230
2630.00,0.0230
2629.00,0.0230
2628.00,0.0230
2627.00,0.0230
2626.00,0.0230
2625.00,0.0230
2624.00,0.0230
2623.00,0.0230
2622.00,0.0230
2621.00,0.0229
2620.00,0.0229
2619.00,0.0229
2618.00,0.0228
2617.00,0.0228
2616.00,0.0227
2615.00,0.0227
2614.00,0.0227
2613.00,0.0227
2612.00,0.0227
2611.00,0.0227
2610.00,0.0226
2609.00,0.0226
2608.00,0.0226
2607.00,0.0226
2606.00,0.0225
2605.00,0.0225
2604.00,0.0225
2603.00,0.0224
2602.00,0.0224
2601.00,0.0223
2600.00,0.0223
2599.00,0.0223
2598.00,0.0223
2597.00,0.0222
2596.00,0.0222
2595.00,0.0222
2594.00,0.0221
2593.00,0.0221
2592.00,0.0220
2591.00,0.0220
2590.00,0.0220
2589.00,0.0219
2588.00,0.0219
2587.00,0.0219
2586.00,0.0219
2585.00,0.0219
2584.00,0.0218
2583.00,0.0218
2582.00,0.0217
2581.00,0.0217
2580.00,0.0217
2579.00,0.0216
2578.00,0.0215
2577.00,0.0214
2576.00,0.0214
2575.00,0.0214
2574.00,0.0215
2573.00,0.0215
2572.00,0.0215
2571.00,0.0215
2570.00,0.0214
2569.00,0.0214
2568.00,0.0214
2567.00,0.0213
2566.00,0.0213
2565.00,0.0213
2564.00,0.0212
2563.00,0.0212
2562.00,0.0212
2561.00,0.0212
2560.00,0.0212
2559.00,0.0211
2558.00,0.0211
2557.00,0.0211
2556.00,0.0210
2555.00,0.0210
2554.00,0.0209
2553.00,0.0209
2552.00,0.0209
2551.00,0.0209
2550.00,0.0209
2549.00,0.0209
2548.00,0.0209
2547.00,0.0208
2546.00,0.0208
2545.00,0.0208
2544.00,0.0207
2543.00,0.0208
2542.00,0.0208
2541.00,0.0208
2540.00,0.0208
2539.00,0.0208
2538.00,0.0207
2537.00,0.0207
2536.00,0.0206
2535.00,0.0206
2534.00,0.0206
2533.00,0.0206
2532.00,0.0206
2531.00,0.0206
2530.00,0.0206
2529.00,0.0206
2528.00,0.0205
2527.00,0.0205
2526.00,0.0205
2525.00,0.0205
2524.00,0.0204
2523.00,0.0204
2522.00,0.0204
2521.00,0.0204
2520.00,0.0205
2519.00,0.0205
2518.00,0.0205
2517.00,0.0205
2516.00,0.0204
2515.00,0.0204
2514.00,0.0203
2513.00,0.0202
2512.00,0.0202
2511.00,0.0202
2510.00,0.0202
2509.00,0.0203
2508.00,0.0203
2507.00,0.0203
2506.00,0.0203
2505.00,0.0202
2504.00,0.0202
2503.00,0.0202
2502.00,0.0202
2501.00,0.0202
2500.00,0.0201
2499.00,0.0201
2498.00,0.0200
2497.00,0.0200
2496.00,0.0200
2495.00,0.0200
2494.00,0.0200
2493.00,0.0200
2492.00,0.0200
2491.00,0.0200
2490.00,0.0201
2489.00,0.0201
2488.00,0.0201
2487.00,0.0201
2486.00,0.0201
2485.00,0.0201
2484.00,0.0200
2483.00,0.0200
2482.00,0.0199
2481.00,0.0199
2480.00,0.0198
2479.00,0.0198
2478.00,0.0198
2477.00,0.0198
2476.00,0.0198
2475.00,0.0198
2474.00,0.0198
2473.00,0.0198
2472.00,0.0197
2471.00,0.0197
2470.00,0.0197
2469.00,0.0197
2468.00,0.0197
2467.00,0.0197
2466.00,0.0197
2465.00,0.0197
2464.00,0.0197
2463.00,0.0197
2462.00,0.0197
2461.00,0.0197
2460.00,0.0197
2459.00,0.0197
2458.00,0.0197
2457.00,0.0197
2456.00,0.0197
2455.00,0.0196
2454.00,0.0196
2453.00,0.0196
2452.00,0.0196
2451.00,0.0195
2450.00,0.0195
2449.00,0.0194
2448.00,0.0195
2447.00,0.0195
2446.00,0.0195
2445.00,0.0194
2444.00,0.0194
2443.00,0.0194
2442.00,0.0194
2441.00,0.0193
2440.00,0.0193
2439.00,0.0193
2438.00,0.0193
2437.00,0.0193
2436.00,0.0193
2435.00,0.0192
2434.00,0.0192
2433.00,0.0191
2432.00,0.0191
2431.00,0.0190
2430.00,0.0190
2429.00,0.0190
2428.00,0.0189
2427.00,0.0189
2426.00,0.0188
2425.00,0.0188
2424.00,0.0189
2423.00,0.0189
2422.00,0.0189
2421.00,0.0189
2420.00,0.0189
2419.00,0.0188
2418.00,0.0188
2417.00,0.0188
2416.00,0.0188
2415.00,0.0187
2414.00,0.0187
2413.00,0.0187
2412.00,0.0187
2411.00,0.0187
2410.00,0.0186
2409.00,0.0186
2408.00,0.0185
2407.00,0.0184
2406.00,0.0184
2405.00,0.0184
2404.00,0.0184
2403.00,0.0184
2402.00,0.0184
2401.00,0.0184
2400.00,0.0184
2399.00,0.0184
2398.00,0.0183
2397.00,0.0183
2396.00,0.0182
2395.00,0.0182
2394.00,0.0182
2393.00,0.0182
2392.00,0.0182
2391.00,0.0182
2390.00,0.0181
2389.00,0.0181
2388.00,0.0181
2387.00,0.0181
2386.00,0.0180
2385.00,0.0180
2384.00,0.0180
2383.00,0.0180
2382.00,0.0179
2381.00,0.0179
2380.00,0.0179
2379.00,0.0179
2378.00,0.0179
2377.00,0.0179
2376.00,0.0179
2375.00,0.0179
2374.00,0.0179
2373.00,0.0178
2372.00,0.0178
2371.00,0.0178
2370.00,0.0178
2369.00,0.0177
2368.00,0.0177
2367.00,0.0177
2366.00,0.0177
2365.00,0.0177
2364.00,0.0178
2363.00,0.0179
2362.00,0.0179
2361.00,0.0179
2360.00,0.0179
2359.00,0.0179
2358.00,0.0178
2357.00,0.0178
2356.00,0.0178
2355.00,0.0178
2354.00,0.0178
2353.00,0.0178
2352.00,0.0178
2351.00,0.0178
2350.00,0.0178
2349.00,0.0178
2348.00,0.0179
2347.00,0.0179
2346.00,0.0179
2345.00,0.0179
2344.00,0.0179
2343.00,0.0179
2342.00,0.0179
2341.00,0.0179
2340.00,0.0180
2339.00,0.0180
2338.00,0.0180
2337.00,0.0180
2336.00,0.0179
2335.00,0.0179
2334.00,0.0178
2333.00,0.0178
2332.00,0.0178
2331.00,0.0179
2330.00,0.0180
2329.00,0.0182
2328.00,0.0184
2327.00,0.0187
2326.00,0.0188
2325.00,0.0188
2324.00,0.0187
2323.00,0.0186
2322.00,0.0185
2321.00,0.0185
2320.00,0.0184
2319.00,0.0183
2318.00,0.0182
2317.00,0.0182
2316.00,0.0181
2315.00,0.0181
2314.00,0.0180
2313.00,0.0180
2312.00,0.0179
2311.00,0.0179
2310.00,0.0179
2309.00,0.0179
2308.00,0.0179
2307.00,0.0179
2306.00,0.0179
2305.00,0.0179
2304.00,0.0179
2303.00,0.0179
2302.00,0.0178
2301.00,0.0178
2300.00,0.0179
2299.00,0.0179
2298.00,0.0179
2297.00,0.0179
2296.00,0.0180
2295.00,0.0182
2294.00,0.0182
2293.00,0.0183
2292.00,0.0182
2291.00,0.0181
2290.00,0.0181
2289.00,0.0181
2288.00,0.0182
2287.00,0.0182
2286.00,0.0182
2285.00,0.0181
2284.00,0.0179
2283.00,0.0178
2282.00,0.0178
2281.00,0.0177
2280.00,0.0177
2279.00,0.0177
2278.00,0.0177
2277.00,0.0177
2276.00,0.0177
2275.00,0.0176
2274.00,0.0175
2273.00,0.0175
2272.00,0.0175
2271.00,0.0175
2270.00,0.0175
2269.00,0.0174
2268.00,0.0174
2267.00,0.0173
2266.00,0.0172
2265.00,0.0172
2264.00,0.0172
2263.00,0.0172
2262.00,0.0173
2261.00,0.0173
2260.00,0.0173
2259.00,0.0172
2258.00,0.0171
2257.00,0.0170
2256.00,0.0170
2255.00,0.0169
2254.00,0.0169
2253.00,0.0170
2252.00,0.0170
2251.00,0.0170
2250.00,0.0170
2249.00,0.0169
2248.00,0.0169
2247.00,0.0169
2246.00,0.0169
2245.00,0.0168
2244.00,0.0168
2243.00,0.0168
2242.00,0.0167
2241.00,0.0167
2240.00,0.0168
2239.00,0.0168
2238.00,0.0169
2237.00,0.0169
2236.00,0.0169
2235.00,0.0168
2234.00,0.0168
2233.00,0.0167
2232.00,0.0168
2231.00,0.0168
2230.00,0.0168
2229.00,0.0167
2228.00,0.0166
2227.00,0.0165
2226.00,0.0165
2225.00,0.0165
2224.00,0.0166
2223.00,0.0166
2222.00,0.0165
2221.00,0.0165
2220.00,0.0165
2219.00,0.0166
2218.00,0.0167
2217.00,0.0167
2216.00,0.0167
2215.00,0.0166
2214.00,0.0164
2213.00,0.0164
2212.00,0.0164
2211.00,0.0164
2210.00,0.0164
2209.00,0.0165
2208.00,0.0167
2207.00,0.0168
2206.00,0.0168
2205.00,0.0168
2204.00,0.0168
2203.00,0.0168
2202.00,0.0168
2201.00,0.0169
2200.00,0.0170
2199.00,0.0170
2198.00,0.0169
2197.00,0.0168
2196.00,0.0167
2195.00,0.0167
2194.00,0.0167
2193.00,0.0167
2192.00,0.0167
2191.00,0.0167
2190.00,0.0166
2189.00,0.0166
2188.00,0.0165
2187.00,0.0166
2186.00,0.0166
2185.00,0.0166
2184.00,0.0164
2183.00,0.0162
2182.00,0.0159
2181.00,0.0158
2180.00,0.0158
2179.00,0.0159
2178.00,0.0159
2177.00,0.0159
2176.00,0.0159
2175.00,0.0160
2174.00,0.0161
2173.00,0.0163
2172.00,0.0164
2171.00,0.0165
2170.00,0.0167
2169.00,0.0168
2168.00,0.0170
2167.00,0.0169
2166.00,0.0169
2165.00,0.0168
2164.00,0.0169
2163.00,0.0170
2162.00,0.0166
2161.00,0.0156
2160.00,0.0142
2159.00,0.0130
2158.00,0.0125
2157.00,0.0126
2156.00,0.0131
2155.00,0.0136
2154.00,0.0139
2153.00,0.0140
2152.00,0.0142
2151.00,0.0143
2150.00,0.0143
2149.00,0.0143
2148.00,0.0143
2147.00,0.0142
2146.00,0.0141
2145.00,0.0141
2144.00,0.0141
2143.00,0.0142
2142.00,0.0142
2141.00,0.0143
2140.00,0.0144
2139.00,0.0144
2138.00,0.0142
2137.00,0.0140
2136.00,0.0138
2135.00,0.0136
2134.00,0.0136
2133.00,0.0137
2132.00,0.0139
2131.00,0.0141
2130.00,0.0143
2129.00,0.0144
2128.00,0.0145
2127.00,0.0146
2126.00,0.0147
2125.00,0.0148
2124.00,0.0149
2123.00,0.0149
2122.00,0.0149
2121.00,0.0150
2120.00,0.0152
2119.00,0.0153
2118.00,0.0154
2117.00,0.0155
2116.00,0.0155
2115.00,0.0155
2114.00,0.0155
2113.00,0.0155
2112.00,0.0155
2111.00,0.0155
2110.00,0.0154
2109.00,0.0154
2108.00,0.0154
2107.00,0.0155
2106.00,0.0155
2105.00,0.0155
2104.00,0.0155
2103.00,0.0154
2102.00,0.0153
2101.00,0.0153
2100.00,0.0153
2099.00,0.0152
2098.00,0.0151
2097.00,0.0150
2096.00,0.0149
2095.00,0.0148
2094.00,0.0149
2093.00,0.0149
2092.00,0.0150
2091.00,0.0151
2090.00,0.0151
2089.00,0.0152
2088.00,0.0152
2087.00,0.0152
2086.00,0.0152
2085.00,0.0152
2084.00,0.0153
2083.00,0.0153
2082.00,0.0153
2081.00,0.0153
2080.00,0.0153
2079.00,0.0154
2078.00,0.0154
2077.00,0.0155
2076.00,0.0157
2075.00,0.0158
2074.00,0.0158
2073.00,0.0156
2072.00,0.0154
2071.00,0.0153
2070.00,0.0151
2069.00,0.0150
2068.00,0.0149
2067.00,0.0148
2066.00,0.0147
2065.00,0.0146
2064.00,0.0146
2063.00,0.0146
2062.00,0.0146
2061.00,0.0147
2060.00,0.0148
2059.00,0.0148
2058.00,0.0149
2057.00,0.0149
2056.00,0.0148
2055.00,0.0148
2054.00,0.0150
2053.00,0.0154
2052.00,0.0156
2051.00,0.0156
2050.00,0.0152
2049.00,0.0149
2048.00,0.0147
2047.00,0.0146
2046.00,0.0145
2045.00,0.0145
2044.00,0.0146
2043.00,0.0147
2042.00,0.0148
2041.00,0.0149
2040.00,0.0148
2039.00,0.0147
2038.00,0.0145
2037.00,0.0144
2036.00,0.0141
2035.00,0.0139
2034.00,0.0137
2033.00,0.0137
2032.00,0.0137
2031.00,0.0137
2030.00,0.0136
2029.00,0.0136
2028.00,0.0136
2027.00,0.0137
2026.00,0.0136
2025.00,0.0136
2024.00,0.0136
2023.00,0.0137
2022.00,0.0138
2021.00,0.0138
2020.00,0.0137
2019.00,0.0135
2018.00,0.0135
2017.00,0.0136
2016.00,0.0138
2015.00,0.0136
2014.00,0.0131
2013.00,0.0122
2012.00,0.0115
2011.00,0.0112
2010.00,0.0114
2009.00,0.0119
2008.00,0.0125
2007.00,0.0128
2006.00,0.0130
2005.00,0.0132
2004.00,0.0134
2003.00,0.0136
2002.00,0.0137
2001.00,0.0137
2000.00,0.0137
1999.00,0.0136
1998.00,0.0133
1997.00,0.0132
1996.00,0.0132
1995.00,0.0133
1994.00,0.0135
1993.00,0.0136
1992.00,0.0138
1991.00,0.0138
1990.00,0.0138
1989.00,0.0139
1988.00,0.0141
1987.00,0.0143
1986.00,0.0144
1985.00,0.0145
1984.00,0.0146
1983.00,0.0148
1982.00,0.0151
1981.00,0.0155
1980.00,0.0156
1979.00,0.0150
1978.00,0.0141
1977.00,0.0132
1976.00,0.0127
1975.00,0.0124
1974.00,0.0123
1973.00,0.0124
1972.00,0.0125
1971.00,0.0126
1970.00,0.0127
1969.00,0.0128
1968.00,0.0129
1967.00,0.0129
1966.00,0.0128
1965.00,0.0128
1964.00,0.0128
1963.00,0.0128
1962.00,0.0126
1961.00,0.0125
1960.00,0.0124
1959.00,0.0123
1958.00,0.0123
1957.00,0.0124
1956.00,0.0124
1955.00,0.0124
1954.00,0.0124
1953.00,0.0124
1952.00,0.0125
1951.00,0.0127
1950.00,0.0128
1949.00,0.0129
1948.00,0.0128
1947.00,0.0127
1946.00,0.0125
1945.00,0.0124
1944.00,0.0124
1943.00,0.0124
1942.00,0.0125
1941.00,0.0125
1940.00,0.0125
1939.00,0.0125
1938.00,0.0124
1937.00,0.0124
1936.00,0.0124
1935.00,0.0124
1934.00,0.0124
1933.00,0.0123
1932.00,0.0123
1931.00,0.0124
1930.00,0.0124
1929.00,0.0124
1928.00,0.0124
1927.00,0.0123
1926.00,0.0123
1925.00,0.0122
1924.00,0.0123
1923.00,0.0124
1922.00,0.0125
1921.00,0.0125
1920.00,0.0125
1919.00,0.0124
1918.00,0.0124
1917.00,0.0124
1916.00,0.0124
1915.00,0.0124
1914.00,0.0124
1913.00,0.0125
1912.00,0.0125
1911.00,0.0125
1910.00,0.0125
1909.00,0.0125
1908.00,0.0125
1907.00,0.0125
1906.00,0.0124
1905.00,0.0124
1904.00,0.0124
1903.00,0.0123
1902.00,0.0122
1901.00,0.0122
1900.00,0.0122
1899.00,0.0122
1898.00,0.0122
1897.00,0.0123
1896.00,0.0123
1895.00,0.0123
1894.00,0.0123
1893.00,0.0123
1892.00,0.0122
1891.00,0.0122
1890.00,0.0122
1889.00,0.0122
1888.00,0.0123
1887.00,0.0123
1886.00,0.0124
1885.00,0.0124
1884.00,0.0123
1883.00,0.0122
1882.00,0.0121
1881.00,0.0121
1880.00,0.0121
1879.00,0.0121
1878.00,0.0121
1877.00,0.0121
1876.00,0.0121
1875.00,0.0120
1874.00,0.0120
1873.00,0.0119
1872.00,0.0118
1871.00,0.0117
1870.00,0.0116
1869.00,0.0117
1868.00,0.0118
1867.00,0.0119
1866.00,0.0118
1865.00,0.0118
1864.00,0.0118
1863.00,0.0117
1862.00,0.0117
1861.00,0.0117
1860.00,0.0117
1859.00,0.0117
1858.00,0.0117
1857.00,0.0117
1856.00,0.0117
1855.00,0.0118
1854.00,0.0118
1853.00,0.0118
1852.00,0.0118
1851.00,0.0116
1850.00,0.0115
1849.00,0.0114
1848.00,0.0114
1847.00,0.0114
1846.00,0.0114
1845.00,0.0114
1844.00,0.0115
1843.00,0.0115
1842.00,0.0115
1841.00,0.0114
1840.00,0.0114
1839.00,0.0114
1838.00,0.0114
1837.00,0.0114
1836.00,0.0114
1835.00,0.0114
1834.00,0.0113
1833.00,0.0112
1832.00,0.0111
1831.00,0.0110
1830.00,0.0110
1829.00,0.0110
1828.00,0.0110
1827.00,0.0109
1826.00,0.0109
1825.00,0.0109
1824.00,0.0110
1823.00,0.0111
1822.00,0.0111
1821.00,0.0111
1820.00,0.0111
1819.00,0.0110
1818.00,0.0109
1817.00,0.0109
1816.00,0.0110
1815.00,0.0110
1814.00,0.0111
1813.00,0.0111
1812.00,0.0111
1811.00,0.0111
1810.00,0.0111
1809.00,0.0111
1808.00,0.0111
1807.00,0.0112
1806.00,0.0111
1805.00,0.0111
1804.00,0.0111
1803.00,0.0110
1802.00,0.0109
1801.00,0.0109
1800.00,0.0110
1799.00,0.0110
1798.00,0.0111
1797.00,0.0111
1796.00,0.0112
1795.00,0.0112
1794.00,0.0111
1793.00,0.0111
1792.00,0.0112
1791.00,0.0112
1790.00,0.0112
1789.00,0.0112
1788.00,0.0111
1787.00,0.0111
1786.00,0.0110
1785.00,0.0111
1784.00,0.0111
1783.00,0.0112
1782.00,0.0112
1781.00,0.0112
1780.00,0.0112
1779.00,0.0112
1778.00,0.0112
1777.00,0.0111
1776.00,0.0111
1775.00,0.0112
1774.00,0.0113
1773.00,0.0115
1772.00,0.0115
1771.00,0.0114
1770.00,0.0112
1769.00,0.0111
1768.00,0.0111
1767.00,0.0111
1766.00,0.0111
1765.00,0.0110
1764.00,0.0110
1763.00,0.0110
1762.00,0.0110
1761.00,0.0110
1760.00,0.0110
1759.00,0.0110
1758.00,0.0110
1757.00,0.0110
1756.00,0.0111
1755.00,0.0112
1754.00,0.0113
1753.00,0.0115
1752.00,0.0117
1751.00,0.0118
1750.00,0.0118
1749.00,0.0119
1748.00,0.0121
1747.00,0.0122
1746.00,0.0124
1745.00,0.0126
1744.00,0.0128
1743.00,0.0129
1742.00,0.0130
1741.00,0.0132
1740.00,0.0135
1739.00,0.0138
1738.00,0.0139
1737.00,0.0140
1736.00,0.0143
1735.00,0.0148
1734.00,0.0152
1733.00,0.0155
1732.00,0.0155
1731.00,0.0152
1730.00,0.0149
1729.00,0.0149
1728.00,0.0150
1727.00,0.0152
1726.00,0.0153
1725.00,0.0156
1724.00,0.0159
1723.00,0.0162
1722.00,0.0163
1721.00,0.0165
1720.00,0.0168
1719.00,0.0176
1718.00,0.0186
1717.00,0.0197
1716.00,0.0205
1715.00,0.0210
1714.00,0.0215
1713.00,0.0224
1712.00,0.0236
1711.00,0.0250
1710.00,0.0265
1709.00,0.0282
1708.00,0.0302
1707.00,0.0326
1706.00,0.0356
1705.00,0.0390
1704.00,0.0423
1703.00,0.0452
1702.00,0.0482
1701.00,0.0518
1700.00,0.0558
1699.00,0.0591
1698.00,0.0612
1697.00,0.0627
1696.00,0.0640
1695.00,0.0651
1694.00,0.0658
1693.00,0.0663
1692.00,0.0670
1691.00,0.0681
1690.00,0.0695
1689.00,0.0710
1688.00,0.0725
1687.00,0.0741
1686.00,0.0759
1685.00,0.0781
1684.00,0.0807
1683.00,0.0829
1682.00,0.0846
1681.00,0.0863
1680.00,0.0882
1679.00,0.0901
1678.00,0.0919
1677.00,0.0937
1676.00,0.0959
1675.00,0.0984
1674.00,0.1009
1673.00,0.1031
1672.00,0.1050
1671.00,0.1071
1670.00,0.1097
1669.00,0.1127
1668.00,0.1156
1667.00,0.1182
1666.00,0.1203
1665.00,0.1224
1664.00,0.1249
1663.00,0.1279
1662.00,0.1309
1661.00,0.1339
1660.00,0.1366
1659.00,0.1391
1658.00,0.1413
1657.00,0.1433
1656.00,0.1452
1655.00,0.1473
1654.00,0.1505
1653.00,0.1550
1652.00,0.1589
1651.00,0.1607
1650.00,0.1609
1649.00,0.1612
1648.00,0.1624
1647.00,0.1646
1646.00,0.1670
1645.00,0.1690
1644.00,0.1704
1643.00,0.1716
1642.00,0.1727
1641.00,0.1740
1640.00,0.1753
1639.00,0.1767
1638.00,0.1780
1637.00,0.1797
1636.00,0.1822
1635.00,0.1850
1634.00,0.1873
1633.00,0.1889
1632.00,0.1900
1631.00,0.1911
1630.00,0.1921
1629.00,0.1930
1628.00,0.1938
1627.00,0.1944
1626.00,0.1943
1625.00,0.1936
1624.00,0.1922
1623.00,0.1903
1622.00,0.1878
1621.00,0.1847
1620.00,0.1811
1619.00,0.1772
1618.00,0.1728
1617.00,0.1679
1616.00,0.1626
1615.00,0.1574
1614.00,0.1522
1613.00,0.1471
1612.00,0.1418
1611.00,0.1365
1610.00,0.1312
1609.00,0.1259
1608.00,0.1207
1607.00,0.1157
1606.00,0.1111
1605.00,0.1067
1604.00,0.1026
1603.00,0.0988
1602.00,0.0954
1601.00,0.0924
1600.00,0.0896
1599.00,0.0871
1598.00,0.0850
1597.00,0.0830
1596.00,0.0811
1595.00,0.0794
1594.00,0.0777
1593.00,0.0761
1592.00,0.0745
1591.00,0.0730
1590.00,0.0716
1589.00,0.0705
1588.00,0.0694
1587.00,0.0685
1586.00,0.0679
1585.00,0.0675
1584.00,0.0672
1583.00,0.0671
1582.00,0.0672
1581.00,0.0675
1580.00,0.0677
1579.00,0.0682
1578.00,0.0692
1577.00,0.0707
1576.00,0.0722
1575.00,0.0732
1574.00,0.0738
1573.00,0.0742
1572.00,0.0748
1571.00,0.0759
1570.00,0.0776
1569.00,0.0796
1568.00,0.0815
1567.00,0.0832
1566.00,0.0850
1565.00,0.0870
1564.00,0.0890
1563.00,0.0908
1562.00,0.0925
1561.00,0.0943
1560.00,0.0966
1559.00,0.1004
1558.00,0.1041
1557.00,0.1066
1556.00,0.1084
1555.00,0.1102
1554.00,0.1125
1553.00,0.1147
1552.00,0.1167
1551.00,0.1186
1550.00,0.1209
1549.00,0.1232
1548.00,0.1253
1547.00,0.1271
1546.00,0.1290
1545.00,0.1311
1544.00,0.1332
1543.00,0.1352
1542.00,0.1375
1541.00,0.1403
1540.00,0.1437
1539.00,0.1466
1538.00,0.1486
1537.00,0.1495
1536.00,0.1500
1535.00,0.1509
1534.00,0.1528
1533.00,0.1552
1532.00,0.1576
1531.00,0.1595
1530.00,0.1611
1529.00,0.1625
1528.00,0.1640
1527.00,0.1657
1526.00,0.1675
1525.00,0.1691
1524.00,0.1706
1523.00,0.1723
1522.00,0.1748
1521.00,0.1779
1520.00,0.1805
1519.00,0.1826
1518.00,0.1847
1517.00,0.1871
1516.00,0.1893
1515.00,0.1907
1514.00,0.1911
1513.00,0.1906
1512.00,0.1894
1511.00,0.1878
1510.00,0.1860
1509.00,0.1841
1508.00,0.1819
1507.00,0.1797
1506.00,0.1772
1505.00,0.1747
1504.00,0.1719
1503.00,0.1687
1502.00,0.1652
1501.00,0.1616
1500.00,0.1579
1499.00,0.1542
1498.00,0.1506
1497.00,0.1468
1496.00,0.1428
1495.00,0.1388
1494.00,0.1347
1493.00,0.1306
1492.00,0.1263
1491.00,0.1221
1490.00,0.1180
1489.00,0.1141
1488.00,0.1105
1487.00,0.1071
1486.00,0.1039
1485.00,0.1010
1484.00,0.0982
1483.00,0.0956
1482.00,0.0931
1481.00,0.0909
1480.00,0.0889
1479.00,0.0871
1478.00,0.0855
1477.00,0.0841
1476.00,0.0830
1475.00,0.0824
1474.00,0.0821
1473.00,0.0822
1472.00,0.0824
1471.00,0.0826
1470.00,0.0827
1469.00,0.0826
1468.00,0.0826
1467.00,0.0825
1466.00,0.0825
1465.00,0.0826
1464.00,0.0829
1463.00,0.0832
1462.00,0.0834
1461.00,0.0836
1460.00,0.0839
1459.00,0.0847
1458.00,0.0862
1457.00,0.0884
1456.00,0.0907
1455.00,0.0924
1454.00,0.0936
1453.00,0.0946
1452.00,0.0958
1451.00,0.0969
1450.00,0.0978
1449.00,0.0985
1448.00,0.0991
1447.00,0.0994
1446.00,0.0993
1445.00,0.0990
1444.00,0.0985
1443.00,0.0977
1442.00,0.0967
1441.00,0.0957
1440.00,0.0945
1439.00,0.0930
1438.00,0.0914
1437.00,0.0897
1436.00,0.0881
1435.00,0.0867
1434.00,0.0852
1433.00,0.0837
1432.00,0.0821
1431.00,0.0805
1430.00,0.0792
1429.00,0.0780
1428.00,0.0770
1427.00,0.0763
1426.00,0.0757
1425.00,0.0754
1424.00,0.0752
1423.00,0.0752
1422.00,0.0752
1421.00,0.0752
1420.00,0.0754
1419.00,0.0760
1418.00,0.0766
1417.00,0.0770
1416.00,0.0772
1415.00,0.0774
1414.00,0.0777
1413.00,0.0779
1412.00,0.0781
1411.00,0.0784
1410.00,0.0785
1409.00,0.0784
1408.00,0.0783
1407.00,0.0780
1406.00,0.0777
1405.00,0.0773
1404.00,0.0769
1403.00,0.0765
1402.00,0.0760
1401.00,0.0754
1400.00,0.0748
1399.00,0.0744
1398.00,0.0741
1397.00,0.0738
1396.00,0.0736
1395.00,0.0734
1394.00,0.0735
1393.00,0.0735
1392.00,0.0736
1391.00,0.0735
1390.00,0.0735
1389.00,0.0734
1388.00,0.0734
1387.00,0.0735
1386.00,0.0735
1385.00,0.0735
1384.00,0.0734
1383.00,0.0733
1382.00,0.0732
1381.00,0.0731
1380.00,0.0731
1379.00,0.0730
1378.00,0.0730
1377.00,0.0729
1376.00,0.0727
1375.00,0.0726
1374.00,0.0725
1373.00,0.0724
1372.00,0.0723
1371.00,0.0723
1370.00,0.0721
1369.00,0.0717
1368.00,0.0712
1367.00,0.0706
1366.00,0.0697
1365.00,0.0687
1364.00,0.0677
1363.00,0.0666
1362.00,0.0657
1361.00,0.0649
1360.00,0.0642
1359.00,0.0636
1358.00,0.0632
1357.00,0.0628
1356.00,0.0625
1355.00,0.0623
1354.00,0.0623
1353.00,0.0623
1352.00,0.0625
1351.00,0.0627
1350.00,0.0628
1349.00,0.0629
1348.00,0.0629
1347.00,0.0629
1346.00,0.0629
1345.00,0.0630
1344.00,0.0631
1343.00,0.0632
1342.00,0.0634
1341.00,0.0636
1340.00,0.0638
1339.00,0.0639
1338.00,0.0639
1337.00,0.0639
1336.00,0.0639
1335.00,0.0638
1334.00,0.0636
1333.00,0.0633
1332.00,0.0630
1331.00,0.0626
1330.00,0.0622
1329.00,0.0618
1328.00,0.0614
1327.00,0.0611
1326.00,0.0607
1325.00,0.0605
1324.00,0.0602
1323.00,0.0601
1322.00,0.0600
1321.00,0.0600
1320.00,0.0600
1319.00,0.0601
1318.00,0.0602
1317.00,0.0603
1316.00,0.0604
1315.00,0.0606
1314.00,0.0608
1313.00,0.0609
1312.00,0.0611
1311.00,0.0612
1310.00,0.0612
1309.00,0.0613
1308.00,0.0613
1307.00,0.0613
1306.00,0.0613
1305.00,0.0612
1304.00,0.0612
1303.00,0.0611
1302.00,0.0611
1301.00,0.0610
1300.00,0.0610
1299.00,0.0610
1298.00,0.0610
1297.00,0.0611
1296.00,0.0612
1295.00,0.0613
1294.00,0.0614
1293.00,0.0616
1292.00,0.0618
1291.00,0.0621
1290.00,0.0624
1289.00,0.0627
1288.00,0.0629
1287.00,0.0633
1286.00,0.0636
1285.00,0.0640
1284.00,0.0644
1283.00,0.0648
1282.00,0.0652
1281.00,0.0657
1280.00,0.0663
1279.00,0.0669
1278.00,0.0676
1277.00,0.0684
1276.00,0.0692
1275.00,0.0701
1274.00,0.0711
1273.00,0.0722
1272.00,0.0732
1271.00,0.0743
1270.00,0.0755
1269.00,0.0765
1268.00,0.0775
1267.00,0.0785
1266.00,0.0793
1265.00,0.0801
1264.00,0.0807
1263.00,0.0813
1262.00,0.0818
1261.00,0.0823
1260.00,0.0825
1259.00,0.0828
1258.00,0.0829
1257.00,0.0831
1256.00,0.0832
1255.00,0.0835
1254.00,0.0838
1253.00,0.0841
1252.00,0.0846
1251.00,0.0850
1250.00,0.0856
1249.00,0.0862
1248.00,0.0868
1247.00,0.0875
1246.00,0.0882
1245.00,0.0890
1244.00,0.0898
1243.00,0.0907
1242.00,0.0917
1241.00,0.0927
1240.00,0.0937
1239.00,0.0947
1238.00,0.0958
1237.00,0.0969
1236.00,0.0980
1235.00,0.0991
1234.00,0.1002
1233.00,0.1013
1232.00,0.1021
1231.00,0.1028
1230.00,0.1033
1229.00,0.1036
1228.00,0.1035
1227.00,0.1032
1226.00,0.1027
1225.00,0.1018
1224.00,0.1008
1223.00,0.0996
1222.00,0.0983
1221.00,0.0969
1220.00,0.0955
1219.00,0.0940
1218.00,0.0925
1217.00,0.0908
1216.00,0.0891
1215.00,0.0874
1214.00,0.0856
1213.00,0.0837
1212.00,0.0819
1211.00,0.0800
1210.00,0.0781
1209.00,0.0763
1208.00,0.0744
1207.00,0.0726
1206.00,0.0708
1205.00,0.0691
1204.00,0.0674
1203.00,0.0658
1202.00,0.0643
1201.00,0.0629
1200.00,0.0615
1199.00,0.0604
1198.00,0.0593
1197.00,0.0584
1196.00,0.0575
1195.00,0.0569
1194.00,0.0564
1193.00,0.0559
1192.00,0.0555
1191.00,0.0551
1190.00,0.0547
1189.00,0.0544
1188.00,0.0541
1187.00,0.0539
1186.00,0.0537
1185.00,0.0537
1184.00,0.0537
1183.00,0.0538
1182.00,0.0541
1181.00,0.0546
1180.00,0.0551
1179.00,0.0558
1178.00,0.0567
1177.00,0.0577
1176.00,0.0587
1175.00,0.0598
1174.00,0.0608
1173.00,0.0618
1172.00,0.0626
1171.00,0.0632
1170.00,0.0637
1169.00,0.0640
1168.00,0.0641
1167.00,0.0642
1166.00,0.0642
1165.00,0.0642
1164.00,0.0640
1163.00,0.0637
1162.00,0.0633
1161.00,0.0628
1160.00,0.0622
1159.00,0.0616
1158.00,0.0609
1157.00,0.0602
1156.00,0.0595
1155.00,0.0588
1154.00,0.0580
1153.00,0.0573
1152.00,0.0565
1151.00,0.0556
1150.00,0.0547
1149.00,0.0539
1148.00,0.0530
1147.00,0.0522
1146.00,0.0515
1145.00,0.0509
1144.00,0.0502
1143.00,0.0497
1142.00,0.0493
1141.00,0.0489
1140.00,0.0486
1139.00,0.0483
1138.00,0.0481
1137.00,0.0479
1136.00,0.0478
1135.00,0.0477
1134.00,0.0478
1133.00,0.0478
1132.00,0.0478
1131.00,0.0479
1130.00,0.0481
1129.00,0.0483
1128.00,0.0486
1127.00,0.0488
1126.00,0.0492
1125.00,0.0494
1124.00,0.0497
1123.00,0.0500
1122.00,0.0502
1121.00,0.0503
1120.00,0.0503
1119.00,0.0502
1118.00,0.0501
1117.00,0.0500
1116.00,0.0499
1115.00,0.0498
1114.00,0.0498
1113.00,0.0498
1112.00,0.0498
1111.00,0.0498
1110.00,0.0499
1109.00,0.0501
1108.00,0.0502
1107.00,0.0505
1106.00,0.0508
1105.00,0.0510
1104.00,0.0512
1103.00,0.0512
1102.00,0.0512
1101.00,0.0510
1100.00,0.0507
1099.00,0.0504
1098.00,0.0501
1097.00,0.0499
1096.00,0.0496
1095.00,0.0494
1094.00,0.0494
1093.00,0.0493
1092.00,0.0494
1091.00,0.0495
1090.00,0.0497
1089.00,0.0499
1088.00,0.0502
1087.00,0.0506
1086.00,0.0509
1085.00,0.0513
1084.00,0.0517
1083.00,0.0521
1082.00,0.0525
1081.00,0.0530
1080.00,0.0534
1079.00,0.0538
1078.00,0.0543
1077.00,0.0546
1076.00,0.0549
1075.00,0.0553
1074.00,0.0556
1073.00,0.0558
1072.00,0.0559
1071.00,0.0561
1070.00,0.0562
1069.00,0.0563
1068.00,0.0563
1067.00,0.0565
1066.00,0.0567
1065.00,0.0569
1064.00,0.0569
1063.00,0.0570
1062.00,0.0570
1061.00,0.0570
1060.00,0.0569
1059.00,0.0568
1058.00,0.0567
1057.00,0.0565
1056.00,0.0562
1055.00,0.0559
1054.00,0.0557
1053.00,0.0553
1052.00,0.0549
1051.00,0.0545
1050.00,0.0541
1049.00,0.0536
1048.00,0.0531
1047.00,0.0526
1046.00,0.0521
1045.00,0.0517
1044.00,0.0513
1043.00,0.0509
1042.00,0.0505
1041.00,0.0501
1040.00,0.0497
1039.00,0.0493
1038.00,0.0491
1037.00,0.0488
1036.00,0.0486
1035.00,0.0484
1034.00,0.0482
1033.00,0.0480
1032.00,0.0479
1031.00,0.0478
1030.00,0.0477
1029.00,0.0477
1028.00,0.0477
1027.00,0.0476
1026.00,0.0476
1025.00,0.0477
1024.00,0.0478
1023.00,0.0481
1022.00,0.0485
1021.00,0.0489
1020.00,0.0493
1019.00,0.0497
1018.00,0.0501
1017.00,0.0505
1016.00,0.0507
1015.00,0.0509
1014.00,0.0509
1013.00,0.0509
1012.00,0.0508
1011.00,0.0507
1010.00,0.0505
1009.00,0.0503
1008.00,0.0500
1007.00,0.0498
1006.00,0.0497
1005.00,0.0496
1004.00,0.0495
1003.00,0.0495
1002.00,0.0494
1001.00,0.0494
1000.00,0.0492
999.00,0.0490
998.00,0.0486
997.00,0.0480
996.00,0.0472
995.00,0.0464
994.00,0.0455
993.00,0.0447
992.00,0.0438
991.00,0.0430
990.00,0.0423
989.00,0.0417
988.00,0.0413
987.00,0.0410
986.00,0.0409
985.00,0.0409
984.00,0.0409
983.00,0.0411
982.00,0.0414
981.00,0.0417
980.00,0.0420
979.00,0.0422
978.00,0.0424
977.00,0.0425
976.00,0.0424
975.00,0.0423
974.00,0.0421
973.00,0.0418
972.00,0.0414
971.00,0.0410
970.00,0.0405
969.00,0.0399
968.00,0.0394
967.00,0.0390
966.00,0.0386
965.00,0.0382
964.00,0.0379
963.00,0.0376
962.00,0.0374
961.00,0.0373
960.00,0.0371
959.00,0.0369
958.00,0.0368
957.00,0.0367
956.00,0.0365
955.00,0.0364
954.00,0.0363
953.00,0.0362
952.00,0.0361
951.00,0.0360
950.00,0.0359
949.00,0.0357
948.00,0.0355
947.00,0.0354
946.00,0.0353
945.00,0.0352
944.00,0.0351
943.00,0.0350
942.00,0.0349
941.00,0.0348
940.00,0.0347
939.00,0.0347
938.00,0.0348
937.00,0.0348
936.00,0.0348
935.00,0.0347
934.00,0.0347
933.00,0.0347
932.00,0.0346
931.00,0.0346
930.00,0.0346
929.00,0.0345
928.00,0.0343
927.00,0.0342
926.00,0.0340
925.00,0.0338
924.00,0.0336
923.00,0.0333
922.00,0.0330
921.00,0.0327
920.00,0.0323
919.00,0.0319
918.00,0.0316
917.00,0.0313
916.00,0.0310
915.00,0.0307
914.00,0.0306
913.00,0.0304
912.00,0.0302
911.00,0.0300
910.00,0.0299
909.00,0.0298
908.00,0.0297
907.00,0.0296
906.00,0.0296
905.00,0.0295
904.00,0.0295
903.00,0.0294
902.00,0.0294
901.00,0.0294
900.00,0.0292
899.00,0.0291
898.00,0.0291
897.00,0.0291
896.00,0.0290
895.00,0.0289
894.00,0.0288
893.00,0.0287
892.00,0.0285
891.00,0.0284
890.00,0.0284
889.00,0.0283
888.00,0.0282
887.00,0.0282
886.00,0.0282
885.00,0.0283
884.00,0.0283
883.00,0.0283
882.00,0.0283
881.00,0.0283
880.00,0.0283
879.00,0.0284
878.00,0.0284
877.00,0.0284
876.00,0.0284
875.00,0.0283
874.00,0.0283
873.00,0.0284
872.00,0.0283
871.00,0.0283
870.00,0.0283
869.00,0.0283
868.00,0.0283
867.00,0.0283
866.00,0.0285
865.00,0.0286
864.00,0.0287
863.00,0.0289
862.00,0.0293
861.00,0.0297
860.00,0.0301
859.00,0.0305
858.00,0.0310
857.00,0.0313
856.00,0.0317
855.00,0.0321
854.00,0.0325
853.00,0.0328
852.00,0.0330
851.00,0.0330
850.00,0.0330
849.00,0.0329
848.00,0.0328
847.00,0.0328
846.00,0.0329
845.00,0.0329
844.00,0.0329
843.00,0.0330
842.00,0.0331
841.00,0.0333
840.00,0.0335
839.00,0.0338
838.00,0.0341
837.00,0.0345
836.00,0.0348
835.00,0.0352
834.00,0.0356
833.00,0.0360
832.00,0.0363
831.00,0.0366
830.00,0.0369
829.00,0.0371
828.00,0.0372
827.00,0.0371
826.00,0.0371
825.00,0.0370
824.00,0.0368
823.00,0.0366
822.00,0.0365
821.00,0.0364
820.00,0.0363
819.00,0.0362
818.00,0.0363
817.00,0.0364
816.00,0.0365
815.00,0.0366
814.00,0.0368
813.00,0.0370
812.00,0.0372
811.00,0.0374
810.00,0.0377
809.00,0.0379
808.00,0.0381
807.00,0.0382
806.00,0.0384
805.00,0.0386
804.00,0.0388
803.00,0.0390
802.00,0.0392
801.00,0.0394
800.00,0.0394
799.00,0.0396
798.00,0.0398
797.00,0.0402
796.00,0.0405
795.00,0.0409
794.00,0.0411
793.00,0.0413
792.00,0.0414
791.00,0.0416
790.00,0.0419
789.00,0.0423
788.00,0.0426
787.00,0.0429
786.00,0.0433
785.00,0.0436
784.00,0.0440
783.00,0.0444
782.00,0.0448
781.00,0.0451
780.00,0.0454
779.00,0.0458
778.00,0.0462
777.00,0.0466
776.00,0.0471
775.00,0.0475
774.00,0.0480
773.00,0.0484
772.00,0.0488
771.00,0.0493
770.00,0.0498
769.00,0.0502
768.00,0.0505
767.00,0.0509
766.00,0.0513
765.00,0.0517
764.00,0.0520
763.00,0.0524
762.00,0.0527
761.00,0.0530
760.00,0.0533
759.00,0.0536
758.00,0.0539
757.00,0.0543
756.00,0.0547
755.00,0.0551
754.00,0.0556
753.00,0.0561
752.00,0.0566
751.00,0.0572
750.00,0.0578
749.00,0.0585
748.00,0.0592
747.00,0.0599
746.00,0.0606
745.00,0.0613
744.00,0.0619
743.00,0.0625
742.00,0.0633
741.00,0.0640
740.00,0.0647
739.00,0.0654
738.00,0.0663
737.00,0.0672
736.00,0.0681
735.00,0.0690
734.00,0.0700
733.00,0.0709
732.00,0.0719
731.00,0.0729
730.00,0.0739
729.00,0.0750
728.00,0.0759
727.00,0.0770
726.00,0.0781
725.00,0.0791
724.00,0.0802
723.00,0.0812
722.00,0.0823
721.00,0.0833
720.00,0.0842
719.00,0.0849
718.00,0.0855
717.00,0.0859
716.00,0.0863
715.00,0.0868
714.00,0.0875
713.00,0.0882
712.00,0.0888
711.00,0.0895
710.00,0.0901
709.00,0.0908
708.00,0.0914
707.00,0.0922
706.00,0.0929
705.00,0.0937
704.00,0.0944
703.00,0.0952
702.00,0.0959
701.00,0.0966
700.00,0.0971
699.00,0.0977
698.00,0.0982
697.00,0.0987
696.00,0.0991
695.00,0.0995
694.00,0.1000
693.00,0.1004
692.00,0.1007
691.00,0.1011
690.00,0.1015
689.00,0.1020
688.00,0.1023
687.00,0.1026
686.00,0.1028
685.00,0.1030
684.00,0.1032
683.00,0.1035
682.00,0.1038
681.00,0.1041
680.00,0.1043
679.00,0.1045
678.00,0.1047
677.00,0.1050
676.00,0.1052
675.00,0.1054
674.00,0.1058
673.00,0.1061
672.00,0.1063
671.00,0.1064
670.00,0.1066
669.00,0.1069
668.00,0.1072
667.00,0.1076
666.00,0.1080
665.00,0.1082
664.00,0.1084
663.00,0.1087
662.00,0.1090
661.00,0.1093
660.00,0.1096
659.00,0.1099
658.00,0.1102
657.00,0.1106
656.00,0.1109
655.00,0.1112
654.00,0.1115
653.00,0.1119
652.00,0.1121
651.00,0.1125
650.00,0.1130
649.00,0.1135
648.00,0.1139
647.00,0.1142
646.00,0.1146
645.00,0.1148
644.00,0.1150
643.00,0.1152
642.00,0.1155
641.00,0.1157
640.00,0.1159
639.00,0.1160
638.00,0.1162
637.00,0.1163
636.00,0.1163
635.00,0.1164
634.00,0.1165
633.00,0.1166
632.00,0.1166
631.00,0.1165
630.00,0.1166
629.00,0.1167
628.00,0.1168
627.00,0.1169
626.00,0.1171
625.00,0.1173
624.00,0.1173
623.00,0.1175
622.00,0.1179
621.00,0.1184
620.00,0.1189
619.00,0.1194
618.00,0.1200
617.00,0.1205
616.00,0.1210
615.00,0.1214
614.00,0.1218
613.00,0.1222
612.00,0.1223
611.00,0.1224
610.00,0.1224
609.00,0.1222
608.00,0.1217
607.00,0.1212
606.00,0.1208
605.00,0.1203
604.00,0.1197
603.00,0.1192
602.00,0.1187
601.00,0.1183
600.00,0.1178
599.00,0.1174
598.00,0.1171
597.00,0.1168
596.00,0.1165
595.00,0.1164
594.00,0.1164
593.00,0.1164
592.00,0.1164
591.00,0.1164
590.00,0.1165
589.00,0.1165
588.00,0.1165
587.00,0.1166
586.00,0.1168
585.00,0.1171
584.00,0.1172
583.00,0.1174
582.00,0.1177
581.00,0.1179
580.00,0.1182
579.00,0.1184
578.00,0.1188
577.00,0.1192
576.00,0.1194
575.00,0.1195
574.00,0.1194
573.00,0.1193
572.00,0.1194
571.00,0.1202
570.00,0.1216
569.00,0.1228
568.00,0.1236
567.00,0.1243
566.00,0.1252
565.00,0.1263
564.00,0.1273
563.00,0.1285
562.00,0.1299
561.00,0.1312
560.00,0.1325
559.00,0.1337
558.00,0.1349
557.00,0.1361
556.00,0.1371
555.00,0.1380
554.00,0.1391
553.00,0.1399
552.00,0.1404
551.00,0.1405
550.00,0.1407
549.00,0.1407
548.00,0.1407
547.00,0.1405
546.00,0.1405
545.00,0.1402
544.00,0.1398
543.00,0.1394
542.00,0.1391
541.00,0.1388
540.00,0.1383
539.00,0.1377
538.00,0.1373
537.00,0.1369
536.00,0.1364
535.00,0.1360
534.00,0.1356
533.00,0.1352
532.00,0.1346
531.00,0.1340
530.00,0.1336
529.00,0.1332
528.00,0.1327
527.00,0.1322
526.00,0.1319
525.00,0.1317
524.00,0.1314
523.00,0.1311
522.00,0.1308
521.00,0.1305
520.00,0.1302
519.00,0.1300
518.00,0.1300
517.00,0.1301
516.00,0.1298
515.00,0.1296
514.00,0.1294
513.00,0.1290
512.00,0.1284
511.00,0.1280
510.00,0.1277
509.00,0.1274
508.00,0.1268
507.00,0.1263
506.00,0.1261
505.00,0.1259
504.00,0.1255
503.00,0.1251
502.00,0.1247
501.00,0.1244
500.00,0.1238
499.00,0.1235
498.00,0.1234
497.00,0.1234
496.00,0.1231
495.00,0.1228
494.00,0.1228
493.00,0.1227
492.00,0.1224
491.00,0.1222
490.00,0.1223
489.00,0.1224
488.00,0.1221
487.00,0.1218
486.00,0.1216
485.00,0.1214
484.00,0.1208
483.00,0.1201
482.00,0.1197
481.00,0.1192
480.00,0.1185
479.00,0.1180
478.00,0.1179
477.00,0.1177
476.00,0.1170
475.00,0.1162
474.00,0.1159
473.00,0.1157
472.00,0.1154
471.00,0.1152
470.00,0.1153
469.00,0.1153
468.00,0.1149
467.00,0.1146
466.00,0.1148
465.00,0.1149
464.00,0.1146
463.00,0.1142
462.00,0.1140
461.00,0.1136
460.00,0.1127
459.00,0.1119
458.00,0.1119
457.00,0.1120
456.00,0.1118
455.00,0.1112
454.00,0.1109
453.00,0.1106
452.00,0.1101
451.00,0.1100
450.00,0.1101
449.00,0.1100
448.00,0.1092
447.00,0.1086
446.00,0.1085
445.00,0.1085
444.00,0.1082
443.00,0.1079
442.00,0.1081
441.00,0.1080
440.00,0.1074
439.00,0.1068
438.00,0.1066
437.00,0.1065
436.00,0.1061
435.00,0.1062
434.00,0.1068
433.00,0.1073
432.00,0.1071
431.00,0.1072
430.00,0.1082
429.00,0.1092
428.00,0.1096
427.00,0.1098
426.00,0.1101
425.00,0.1100
424.00,0.1093
423.00,0.1088
422.00,0.1090
421.00,0.1089
420.00,0.1074
419.00,0.1057
418.00,0.1049
417.00,0.1045
416.00,0.1036
415.00,0.1028
414.00,0.1028
413.00,0.1028
412.00,0.1022
411.00,0.1016
410.00,0.1015
409.00,0.1007
408.00,0.0985
407.00,0.0966
406.00,0.0966
405.00,0.0971
404.00,0.0962
403.00,0.0948
402.00,0.0941
401.00,0.0933
400.00,0.0909
