Created as New Dataset,Sample 652 By YargerLab Date Tuesday, June 10 2025
cm-1,A
4000.00,0.0110
3999.00,0.0110
3998.00,0.0110
3997.00,0.0110
3996.00,0.0111
3995.00,0.0110
3994.00,0.0111
3993.00,0.0111
3992.00,0.0111
3991.00,0.0111
3990.00,0.0110
3989.00,0.0110
3988.00,0.0110
3987.00,0.0111
3986.00,0.0111
3985.00,0.0111
3984.00,0.0111
3983.00,0.0111
3982.00,0.0111
3981.00,0.0110
3980.00,0.0110
3979.00,0.0110
3978.00,0.0110
3977.00,0.0110
3976.00,0.0109
3975.00,0.0109
3974.00,0.0110
3973.00,0.0110
3972.00,0.0110
3971.00,0.0110
3970.00,0.0110
3969.00,0.0110
3968.00,0.0110
3967.00,0.0110
3966.00,0.0110
3965.00,0.0110
3964.00,0.0110
3963.00,0.0110
3962.00,0.0110
3961.00,0.0111
3960.00,0.0111
3959.00,0.0111
3958.00,0.0111
3957.00,0.0111
3956.00,0.0111
3955.00,0.0110
3954.00,0.0110
3953.00,0.0110
3952.00,0.0110
3951.00,0.0110
3950.00,0.0110
3949.00,0.0110
3948.00,0.0110
3947.00,0.0110
3946.00,0.0110
3945.00,0.0110
3944.00,0.0110
3943.00,0.0110
3942.00,0.0110
3941.00,0.0110
3940.00,0.0110
3939.00,0.0110
3938.00,0.0110
3937.00,0.0110
3936.00,0.0110
3935.00,0.0110
3934.00,0.0111
3933.00,0.0111
3932.00,0.0110
3931.00,0.0110
3930.00,0.0109
3929.00,0.0109
3928.00,0.0109
3927.00,0.0109
3926.00,0.0109
3925.00,0.0109
3924.00,0.0109
3923.00,0.0109
3922.00,0.0109
3921.00,0.0109
3920.00,0.0109
3919.00,0.0109
3918.00,0.0109
3917.00,0.0108
3916.00,0.0108
3915.00,0.0108
3914.00,0.0108
3913.00,0.0109
3912.00,0.0109
3911.00,0.0109
3910.00,0.0109
3909.00,0.0109
3908.00,0.0109
3907.00,0.0109
3906.00,0.0109
3905.00,0.0109
3904.00,0.0110
3903.00,0.0110
3902.00,0.0110
3901.00,0.0110
3900.00,0.0110
3899.00,0.0110
3898.00,0.0110
3897.00,0.0111
3896.00,0.0111
3895.00,0.0110
3894.00,0.0110
3893.00,0.0109
3892.00,0.0108
3891.00,0.0108
3890.00,0.0108
3889.00,0.0108
3888.00,0.0109
3887.00,0.0109
3886.00,0.0108
3885.00,0.0108
3884.00,0.0108
3883.00,0.0108
3882.00,0.0108
3881.00,0.0108
3880.00,0.0107
3879.00,0.0107
3878.00,0.0107
3877.00,0.0108
3876.00,0.0108
3875.00,0.0108
3874.00,0.0108
3873.00,0.0108
3872.00,0.0108
3871.00,0.0108
3870.00,0.0108
3869.00,0.0108
3868.00,0.0108
3867.00,0.0108
3866.00,0.0109
3865.00,0.0109
3864.00,0.0109
3863.00,0.0108
3862.00,0.0108
3861.00,0.0107
3860.00,0.0107
3859.00,0.0107
3858.00,0.0107
3857.00,0.0107
3856.00,0.0107
3855.00,0.0107
3854.00,0.0106
3853.00,0.0106
3852.00,0.0106
3851.00,0.0106
3850.00,0.0106
3849.00,0.0107
3848.00,0.0107
3847.00,0.0107
3846.00,0.0108
3845.00,0.0108
3844.00,0.0108
3843.00,0.0108
3842.00,0.0108
3841.00,0.0108
3840.00,0.0107
3839.00,0.0107
3838.00,0.0107
3837.00,0.0107
3836.00,0.0107
3835.00,0.0107
3834.00,0.0107
3833.00,0.0107
3832.00,0.0107
3831.00,0.0106
3830.00,0.0106
3829.00,0.0106
3828.00,0.0106
3827.00,0.0106
3826.00,0.0106
3825.00,0.0106
3824.00,0.0106
3823.00,0.0106
3822.00,0.0106
3821.00,0.0106
3820.00,0.0106
3819.00,0.0105
3818.00,0.0105
3817.00,0.0105
3816.00,0.0105
3815.00,0.0105
3814.00,0.0105
3813.00,0.0105
3812.00,0.0105
3811.00,0.0106
3810.00,0.0106
3809.00,0.0106
3808.00,0.0106
3807.00,0.0106
3806.00,0.0106
3805.00,0.0106
3804.00,0.0106
3803.00,0.0106
3802.00,0.0106
3801.00,0.0106
3800.00,0.0106
3799.00,0.0106
3798.00,0.0106
3797.00,0.0106
3796.00,0.0106
3795.00,0.0105
3794.00,0.0105
3793.00,0.0105
3792.00,0.0106
3791.00,0.0106
3790.00,0.0105
3789.00,0.0105
3788.00,0.0105
3787.00,0.0105
3786.00,0.0104
3785.00,0.0104
3784.00,0.0104
3783.00,0.0104
3782.00,0.0105
3781.00,0.0105
3780.00,0.0105
3779.00,0.0105
3778.00,0.0105
3777.00,0.0105
3776.00,0.0104
3775.00,0.0104
3774.00,0.0105
3773.00,0.0105
3772.00,0.0106
3771.00,0.0106
3770.00,0.0106
3769.00,0.0105
3768.00,0.0105
3767.00,0.0105
3766.00,0.0105
3765.00,0.0105
3764.00,0.0105
3763.00,0.0105
3762.00,0.0105
3761.00,0.0105
3760.00,0.0105
3759.00,0.0105
3758.00,0.0105
3757.00,0.0105
3756.00,0.0104
3755.00,0.0104
3754.00,0.0104
3753.00,0.0104
3752.00,0.0104
3751.00,0.0104
3750.00,0.0104
3749.00,0.0105
3748.00,0.0105
3747.00,0.0105
3746.00,0.0105
3745.00,0.0105
3744.00,0.0105
3743.00,0.0105
3742.00,0.0104
3741.00,0.0104
3740.00,0.0104
3739.00,0.0104
3738.00,0.0104
3737.00,0.0104
3736.00,0.0105
3735.00,0.0105
3734.00,0.0105
3733.00,0.0105
3732.00,0.0104
3731.00,0.0104
3730.00,0.0104
3729.00,0.0105
3728.00,0.0105
3727.00,0.0105
3726.00,0.0104
3725.00,0.0104
3724.00,0.0104
3723.00,0.0103
3722.00,0.0103
3721.00,0.0103
3720.00,0.0103
3719.00,0.0103
3718.00,0.0103
3717.00,0.0103
3716.00,0.0103
3715.00,0.0103
3714.00,0.0103
3713.00,0.0103
3712.00,0.0103
3711.00,0.0103
3710.00,0.0102
3709.00,0.0102
3708.00,0.0102
3707.00,0.0102
3706.00,0.0102
3705.00,0.0102
3704.00,0.0102
3703.00,0.0102
3702.00,0.0102
3701.00,0.0102
3700.00,0.0102
3699.00,0.0102
3698.00,0.0102
3697.00,0.0102
3696.00,0.0102
3695.00,0.0102
3694.00,0.0102
3693.00,0.0102
3692.00,0.0102
3691.00,0.0102
3690.00,0.0101
3689.00,0.0101
3688.00,0.0101
3687.00,0.0101
3686.00,0.0101
3685.00,0.0102
3684.00,0.0102
3683.00,0.0102
3682.00,0.0102
3681.00,0.0103
3680.00,0.0103
3679.00,0.0104
3678.00,0.0104
3677.00,0.0105
3676.00,0.0105
3675.00,0.0105
3674.00,0.0105
3673.00,0.0104
3672.00,0.0104
3671.00,0.0104
3670.00,0.0104
3669.00,0.0104
3668.00,0.0105
3667.00,0.0105
3666.00,0.0105
3665.00,0.0106
3664.00,0.0106
3663.00,0.0106
3662.00,0.0106
3661.00,0.0106
3660.00,0.0106
3659.00,0.0107
3658.00,0.0107
3657.00,0.0107
3656.00,0.0108
3655.00,0.0108
3654.00,0.0109
3653.00,0.0109
3652.00,0.0109
3651.00,0.0109
3650.00,0.0109
3649.00,0.0109
3648.00,0.0109
3647.00,0.0110
3646.00,0.0109
3645.00,0.0109
3644.00,0.0109
3643.00,0.0109
3642.00,0.0109
3641.00,0.0110
3640.00,0.0111
3639.00,0.0111
3638.00,0.0111
3637.00,0.0112
3636.00,0.0112
3635.00,0.0113
3634.00,0.0113
3633.00,0.0113
3632.00,0.0114
3631.00,0.0114
3630.00,0.0115
3629.00,0.0116
3628.00,0.0116
3627.00,0.0117
3626.00,0.0117
3625.00,0.0117
3624.00,0.0117
3623.00,0.0117
3622.00,0.0117
3621.00,0.0118
3620.00,0.0118
3619.00,0.0118
3618.00,0.0119
3617.00,0.0119
3616.00,0.0120
3615.00,0.0120
3614.00,0.0120
3613.00,0.0121
3612.00,0.0121
3611.00,0.0122
3610.00,0.0123
3609.00,0.0124
3608.00,0.0124
3607.00,0.0125
3606.00,0.0125
3605.00,0.0126
3604.00,0.0126
3603.00,0.0127
3602.00,0.0127
3601.00,0.0128
3600.00,0.0128
3599.00,0.0129
3598.00,0.0129
3597.00,0.0130
3596.00,0.0131
3595.00,0.0131
3594.00,0.0132
3593.00,0.0132
3592.00,0.0133
3591.00,0.0133
3590.00,0.0134
3589.00,0.0135
3588.00,0.0136
3587.00,0.0137
3586.00,0.0137
3585.00,0.0138
3584.00,0.0139
3583.00,0.0139
3582.00,0.0140
3581.00,0.0140
3580.00,0.0139
3579.00,0.0139
3578.00,0.0139
3577.00,0.0140
3576.00,0.0141
3575.00,0.0142
3574.00,0.0143
3573.00,0.0144
3572.00,0.0144
3571.00,0.0145
3570.00,0.0146
3569.00,0.0148
3568.00,0.0149
3567.00,0.0150
3566.00,0.0150
3565.00,0.0151
3564.00,0.0151
3563.00,0.0152
3562.00,0.0152
3561.00,0.0153
3560.00,0.0153
3559.00,0.0153
3558.00,0.0154
3557.00,0.0155
3556.00,0.0155
3555.00,0.0156
3554.00,0.0156
3553.00,0.0157
3552.00,0.0158
3551.00,0.0158
3550.00,0.0159
3549.00,0.0160
3548.00,0.0161
3547.00,0.0162
3546.00,0.0163
3545.00,0.0164
3544.00,0.0165
3543.00,0.0165
3542.00,0.0166
3541.00,0.0166
3540.00,0.0167
3539.00,0.0168
3538.00,0.0168
3537.00,0.0169
3536.00,0.0169
3535.00,0.0170
3534.00,0.0170
3533.00,0.0171
3532.00,0.0172
3531.00,0.0173
3530.00,0.0174
3529.00,0.0175
3528.00,0.0176
3527.00,0.0177
3526.00,0.0178
3525.00,0.0178
3524.00,0.0179
3523.00,0.0180
3522.00,0.0181
3521.00,0.0182
3520.00,0.0183
3519.00,0.0184
3518.00,0.0184
3517.00,0.0184
3516.00,0.0185
3515.00,0.0185
3514.00,0.0186
3513.00,0.0187
3512.00,0.0188
3511.00,0.0188
3510.00,0.0189
3509.00,0.0190
3508.00,0.0191
3507.00,0.0191
3506.00,0.0192
3505.00,0.0193
3504.00,0.0194
3503.00,0.0194
3502.00,0.0195
3501.00,0.0196
3500.00,0.0197
3499.00,0.0198
3498.00,0.0199
3497.00,0.0200
3496.00,0.0201
3495.00,0.0202
3494.00,0.0203
3493.00,0.0204
3492.00,0.0204
3491.00,0.0205
3490.00,0.0206
3489.00,0.0206
3488.00,0.0207
3487.00,0.0208
3486.00,0.0209
3485.00,0.0210
3484.00,0.0211
3483.00,0.0212
3482.00,0.0213
3481.00,0.0214
3480.00,0.0215
3479.00,0.0217
3478.00,0.0218
3477.00,0.0218
3476.00,0.0219
3475.00,0.0219
3474.00,0.0220
3473.00,0.0221
3472.00,0.0222
3471.00,0.0223
3470.00,0.0224
3469.00,0.0225
3468.00,0.0226
3467.00,0.0227
3466.00,0.0228
3465.00,0.0228
3464.00,0.0229
3463.00,0.0230
3462.00,0.0231
3461.00,0.0232
3460.00,0.0234
3459.00,0.0235
3458.00,0.0237
3457.00,0.0239
3456.00,0.0240
3455.00,0.0240
3454.00,0.0240
3453.00,0.0240
3452.00,0.0241
3451.00,0.0241
3450.00,0.0242
3449.00,0.0243
3448.00,0.0244
3447.00,0.0245
3446.00,0.0246
3445.00,0.0247
3444.00,0.0247
3443.00,0.0248
3442.00,0.0249
3441.00,0.0250
3440.00,0.0251
3439.00,0.0252
3438.00,0.0253
3437.00,0.0254
3436.00,0.0255
3435.00,0.0256
3434.00,0.0257
3433.00,0.0258
3432.00,0.0259
3431.00,0.0260
3430.00,0.0262
3429.00,0.0263
3428.00,0.0264
3427.00,0.0265
3426.00,0.0266
3425.00,0.0267
3424.00,0.0268
3423.00,0.0269
3422.00,0.0270
3421.00,0.0271
3420.00,0.0273
3419.00,0.0274
3418.00,0.0275
3417.00,0.0276
3416.00,0.0277
3415.00,0.0278
3414.00,0.0279
3413.00,0.0280
3412.00,0.0281
3411.00,0.0282
3410.00,0.0283
3409.00,0.0284
3408.00,0.0285
3407.00,0.0286
3406.00,0.0287
3405.00,0.0288
3404.00,0.0289
3403.00,0.0290
3402.00,0.0291
3401.00,0.0293
3400.00,0.0294
3399.00,0.0296
3398.00,0.0297
3397.00,0.0298
3396.00,0.0298
3395.00,0.0299
3394.00,0.0300
3393.00,0.0301
3392.00,0.0302
3391.00,0.0304
3390.00,0.0305
3389.00,0.0306
3388.00,0.0307
3387.00,0.0309
3386.00,0.0310
3385.00,0.0311
3384.00,0.0312
3383.00,0.0313
3382.00,0.0314
3381.00,0.0315
3380.00,0.0316
3379.00,0.0318
3378.00,0.0319
3377.00,0.0320
3376.00,0.0322
3375.00,0.0323
3374.00,0.0325
3373.00,0.0326
3372.00,0.0327
3371.00,0.0328
3370.00,0.0330
3369.00,0.0331
3368.00,0.0333
3367.00,0.0335
3366.00,0.0336
3365.00,0.0338
3364.00,0.0340
3363.00,0.0342
3362.00,0.0344
3361.00,0.0346
3360.00,0.0348
3359.00,0.0350
3358.00,0.0351
3357.00,0.0353
3356.00,0.0354
3355.00,0.0356
3354.00,0.0358
3353.00,0.0360
3352.00,0.0362
3351.00,0.0364
3350.00,0.0366
3349.00,0.0368
3348.00,0.0371
3347.00,0.0373
3346.00,0.0375
3345.00,0.0377
3344.00,0.0379
3343.00,0.0382
3342.00,0.0384
3341.00,0.0386
3340.00,0.0389
3339.00,0.0391
3338.00,0.0394
3337.00,0.0397
3336.00,0.0399
3335.00,0.0402
3334.00,0.0404
3333.00,0.0406
3332.00,0.0408
3331.00,0.0411
3330.00,0.0414
3329.00,0.0416
3328.00,0.0419
3327.00,0.0422
3326.00,0.0424
3325.00,0.0427
3324.00,0.0430
3323.00,0.0433
3322.00,0.0436
3321.00,0.0439
3320.00,0.0442
3319.00,0.0445
3318.00,0.0448
3317.00,0.0451
3316.00,0.0453
3315.00,0.0456
3314.00,0.0460
3313.00,0.0463
3312.00,0.0466
3311.00,0.0468
3310.00,0.0471
3309.00,0.0474
3308.00,0.0477
3307.00,0.0480
3306.00,0.0483
3305.00,0.0486
3304.00,0.0489
3303.00,0.0493
3302.00,0.0496
3301.00,0.0499
3300.00,0.0502
3299.00,0.0505
3298.00,0.0507
3297.00,0.0510
3296.00,0.0513
3295.00,0.0516
3294.00,0.0518
3293.00,0.0520
3292.00,0.0523
3291.00,0.0525
3290.00,0.0527
3289.00,0.0530
3288.00,0.0531
3287.00,0.0533
3286.00,0.0535
3285.00,0.0537
3284.00,0.0538
3283.00,0.0540
3282.00,0.0540
3281.00,0.0541
3280.00,0.0541
3279.00,0.0541
3278.00,0.0541
3277.00,0.0541
3276.00,0.0541
3275.00,0.0541
3274.00,0.0540
3273.00,0.0539
3272.00,0.0538
3271.00,0.0536
3270.00,0.0535
3269.00,0.0534
3268.00,0.0532
3267.00,0.0530
3266.00,0.0528
3265.00,0.0525
3264.00,0.0523
3263.00,0.0520
3262.00,0.0517
3261.00,0.0515
3260.00,0.0512
3259.00,0.0509
3258.00,0.0506
3257.00,0.0503
3256.00,0.0500
3255.00,0.0497
3254.00,0.0494
3253.00,0.0492
3252.00,0.0489
3251.00,0.0487
3250.00,0.0484
3249.00,0.0481
3248.00,0.0478
3247.00,0.0475
3246.00,0.0472
3245.00,0.0470
3244.00,0.0468
3243.00,0.0466
3242.00,0.0464
3241.00,0.0461
3240.00,0.0458
3239.00,0.0455
3238.00,0.0453
3237.00,0.0450
3236.00,0.0448
3235.00,0.0446
3234.00,0.0444
3233.00,0.0442
3232.00,0.0440
3231.00,0.0439
3230.00,0.0437
3229.00,0.0435
3228.00,0.0433
3227.00,0.0432
3226.00,0.0430
3225.00,0.0429
3224.00,0.0427
3223.00,0.0425
3222.00,0.0423
3221.00,0.0421
3220.00,0.0419
3219.00,0.0418
3218.00,0.0417
3217.00,0.0416
3216.00,0.0414
3215.00,0.0413
3214.00,0.0412
3213.00,0.0410
3212.00,0.0409
3211.00,0.0408
3210.00,0.0406
3209.00,0.0405
3208.00,0.0403
3207.00,0.0401
3206.00,0.0400
3205.00,0.0398
3204.00,0.0397
3203.00,0.0396
3202.00,0.0394
3201.00,0.0393
3200.00,0.0391
3199.00,0.0390
3198.00,0.0389
3197.00,0.0387
3196.00,0.0386
3195.00,0.0384
3194.00,0.0383
3193.00,0.0381
3192.00,0.0379
3191.00,0.0377
3190.00,0.0375
3189.00,0.0374
3188.00,0.0372
3187.00,0.0371
3186.00,0.0369
3185.00,0.0367
3184.00,0.0365
3183.00,0.0364
3182.00,0.0362
3181.00,0.0360
3180.00,0.0358
3179.00,0.0357
3178.00,0.0355
3177.00,0.0353
3176.00,0.0352
3175.00,0.0350
3174.00,0.0349
3173.00,0.0346
3172.00,0.0344
3171.00,0.0342
3170.00,0.0340
3169.00,0.0339
3168.00,0.0337
3167.00,0.0335
3166.00,0.0333
3165.00,0.0332
3164.00,0.0330
3163.00,0.0328
3162.00,0.0326
3161.00,0.0324
3160.00,0.0323
3159.00,0.0321
3158.00,0.0319
3157.00,0.0318
3156.00,0.0316
3155.00,0.0315
3154.00,0.0313
3153.00,0.0312
3152.00,0.0311
3151.00,0.0309
3150.00,0.0308
3149.00,0.0307
3148.00,0.0306
3147.00,0.0305
3146.00,0.0303
3145.00,0.0302
3144.00,0.0301
3143.00,0.0300
3142.00,0.0299
3141.00,0.0297
3140.00,0.0296
3139.00,0.0295
3138.00,0.0293
3137.00,0.0292
3136.00,0.0291
3135.00,0.0290
3134.00,0.0289
3133.00,0.0288
3132.00,0.0287
3131.00,0.0287
3130.00,0.0286
3129.00,0.0286
3128.00,0.0285
3127.00,0.0284
3126.00,0.0283
3125.00,0.0282
3124.00,0.0281
3123.00,0.0280
3122.00,0.0280
3121.00,0.0279
3120.00,0.0278
3119.00,0.0278
3118.00,0.0278
3117.00,0.0278
3116.00,0.0277
3115.00,0.0277
3114.00,0.0277
3113.00,0.0277
3112.00,0.0276
3111.00,0.0276
3110.00,0.0277
3109.00,0.0277
3108.00,0.0277
3107.00,0.0277
3106.00,0.0277
3105.00,0.0278
3104.00,0.0278
3103.00,0.0278
3102.00,0.0278
3101.00,0.0279
3100.00,0.0279
3099.00,0.0279
3098.00,0.0280
3097.00,0.0280
3096.00,0.0280
3095.00,0.0280
3094.00,0.0281
3093.00,0.0281
3092.00,0.0281
3091.00,0.0281
3090.00,0.0282
3089.00,0.0282
3088.00,0.0282
3087.00,0.0283
3086.00,0.0284
3085.00,0.0284
3084.00,0.0285
3083.00,0.0285
3082.00,0.0284
3081.00,0.0284
3080.00,0.0284
3079.00,0.0284
3078.00,0.0285
3077.00,0.0286
3076.00,0.0286
3075.00,0.0287
3074.00,0.0288
3073.00,0.0288
3072.00,0.0288
3071.00,0.0288
3070.00,0.0288
3069.00,0.0287
3068.00,0.0287
3067.00,0.0287
3066.00,0.0287
3065.00,0.0287
3064.00,0.0287
3063.00,0.0288
3062.00,0.0288
3061.00,0.0287
3060.00,0.0287
3059.00,0.0286
3058.00,0.0285
3057.00,0.0284
3056.00,0.0283
3055.00,0.0282
3054.00,0.0281
3053.00,0.0280
3052.00,0.0279
3051.00,0.0279
3050.00,0.0278
3049.00,0.0277
3048.00,0.0277
3047.00,0.0276
3046.00,0.0275
3045.00,0.0273
3044.00,0.0272
3043.00,0.0271
3042.00,0.0270
3041.00,0.0270
3040.00,0.0269
3039.00,0.0268
3038.00,0.0266
3037.00,0.0265
3036.00,0.0264
3035.00,0.0263
3034.00,0.0262
3033.00,0.0261
3032.00,0.0260
3031.00,0.0260
3030.00,0.0259
3029.00,0.0258
3028.00,0.0258
3027.00,0.0257
3026.00,0.0255
3025.00,0.0254
3024.00,0.0253
3023.00,0.0251
3022.00,0.0250
3021.00,0.0248
3020.00,0.0247
3019.00,0.0245
3018.00,0.0243
3017.00,0.0242
3016.00,0.0242
3015.00,0.0241
3014.00,0.0241
3013.00,0.0241
3012.00,0.0240
3011.00,0.0240
3010.00,0.0240
3009.00,0.0240
3008.00,0.0240
3007.00,0.0240
3006.00,0.0240
3005.00,0.0239
3004.00,0.0239
3003.00,0.0240
3002.00,0.0240
3001.00,0.0240
3000.00,0.0240
2999.00,0.0240
2998.00,0.0241
2997.00,0.0241
2996.00,0.0242
2995.00,0.0243
2994.00,0.0244
2993.00,0.0246
2992.00,0.0247
2991.00,0.0249
2990.00,0.0250
2989.00,0.0252
2988.00,0.0254
2987.00,0.0256
2986.00,0.0257
2985.00,0.0259
2984.00,0.0260
2983.00,0.0262
2982.00,0.0263
2981.00,0.0265
2980.00,0.0267
2979.00,0.0268
2978.00,0.0270
2977.00,0.0271
2976.00,0.0273
2975.00,0.0275
2974.00,0.0276
2973.00,0.0278
2972.00,0.0280
2971.00,0.0281
2970.00,0.0283
2969.00,0.0284
2968.00,0.0285
2967.00,0.0287
2966.00,0.0288
2965.00,0.0288
2964.00,0.0289
2963.00,0.0289
2962.00,0.0290
2961.00,0.0290
2960.00,0.0290
2959.00,0.0290
2958.00,0.0290
2957.00,0.0289
2956.00,0.0288
2955.00,0.0287
2954.00,0.0286
2953.00,0.0286
2952.00,0.0285
2951.00,0.0284
2950.00,0.0284
2949.00,0.0284
2948.00,0.0284
2947.00,0.0285
2946.00,0.0285
2945.00,0.0287
2944.00,0.0288
2943.00,0.0290
2942.00,0.0292
2941.00,0.0294
2940.00,0.0297
2939.00,0.0299
2938.00,0.0301
2937.00,0.0303
2936.00,0.0305
2935.00,0.0307
2934.00,0.0309
2933.00,0.0310
2932.00,0.0311
2931.00,0.0312
2930.00,0.0314
2929.00,0.0315
2928.00,0.0317
2927.00,0.0318
2926.00,0.0320
2925.00,0.0322
2924.00,0.0324
2923.00,0.0327
2922.00,0.0329
2921.00,0.0332
2920.00,0.0334
2919.00,0.0335
2918.00,0.0334
2917.00,0.0333
2916.00,0.0329
2915.00,0.0324
2914.00,0.0317
2913.00,0.0310
2912.00,0.0303
2911.00,0.0296
2910.00,0.0291
2909.00,0.0286
2908.00,0.0282
2907.00,0.0279
2906.00,0.0276
2905.00,0.0274
2904.00,0.0272
2903.00,0.0270
2902.00,0.0268
2901.00,0.0267
2900.00,0.0265
2899.00,0.0264
2898.00,0.0263
2897.00,0.0261
2896.00,0.0261
2895.00,0.0260
2894.00,0.0259
2893.00,0.0258
2892.00,0.0257
2891.00,0.0257
2890.00,0.0256
2889.00,0.0256
2888.00,0.0256
2887.00,0.0255
2886.00,0.0255
2885.00,0.0256
2884.00,0.0256
2883.00,0.0256
2882.00,0.0257
2881.00,0.0257
2880.00,0.0258
2879.00,0.0258
2878.00,0.0258
2877.00,0.0259
2876.00,0.0259
2875.00,0.0258
2874.00,0.0258
2873.00,0.0258
2872.00,0.0257
2871.00,0.0255
2870.00,0.0254
2869.00,0.0252
2868.00,0.0250
2867.00,0.0248
2866.00,0.0247
2865.00,0.0245
2864.00,0.0244
2863.00,0.0243
2862.00,0.0242
2861.00,0.0241
2860.00,0.0242
2859.00,0.0243
2858.00,0.0244
2857.00,0.0246
2856.00,0.0248
2855.00,0.0251
2854.00,0.0254
2853.00,0.0257
2852.00,0.0261
2851.00,0.0263
2850.00,0.0264
2849.00,0.0262
2848.00,0.0258
2847.00,0.0252
2846.00,0.0246
2845.00,0.0240
2844.00,0.0235
2843.00,0.0230
2842.00,0.0226
2841.00,0.0224
2840.00,0.0221
2839.00,0.0219
2838.00,0.0217
2837.00,0.0216
2836.00,0.0215
2835.00,0.0213
2834.00,0.0212
2833.00,0.0212
2832.00,0.0211
2831.00,0.0210
2830.00,0.0209
2829.00,0.0209
2828.00,0.0208
2827.00,0.0207
2826.00,0.0207
2825.00,0.0206
2824.00,0.0206
2823.00,0.0205
2822.00,0.0205
2821.00,0.0205
2820.00,0.0204
2819.00,0.0204
2818.00,0.0203
2817.00,0.0203
2816.00,0.0202
2815.00,0.0201
2814.00,0.0201
2813.00,0.0200
2812.00,0.0200
2811.00,0.0199
2810.00,0.0199
2809.00,0.0199
2808.00,0.0199
2807.00,0.0198
2806.00,0.0198
2805.00,0.0198
2804.00,0.0197
2803.00,0.0197
2802.00,0.0197
2801.00,0.0196
2800.00,0.0196
2799.00,0.0195
2798.00,0.0195
2797.00,0.0194
2796.00,0.0194
2795.00,0.0194
2794.00,0.0193
2793.00,0.0193
2792.00,0.0193
2791.00,0.0192
2790.00,0.0192
2789.00,0.0192
2788.00,0.0191
2787.00,0.0191
2786.00,0.0191
2785.00,0.0190
2784.00,0.0190
2783.00,0.0190
2782.00,0.0189
2781.00,0.0189
2780.00,0.0189
2779.00,0.0189
2778.00,0.0188
2777.00,0.0188
2776.00,0.0188
2775.00,0.0187
2774.00,0.0187
2773.00,0.0186
2772.00,0.0186
2771.00,0.0186
2770.00,0.0185
2769.00,0.0185
2768.00,0.0185
2767.00,0.0184
2766.00,0.0184
2765.00,0.0183
2764.00,0.0183
2763.00,0.0183
2762.00,0.0183
2761.00,0.0183
2760.00,0.0183
2759.00,0.0182
2758.00,0.0182
2757.00,0.0182
2756.00,0.0181
2755.00,0.0181
2754.00,0.0181
2753.00,0.0181
2752.00,0.0180
2751.00,0.0180
2750.00,0.0179
2749.00,0.0179
2748.00,0.0179
2747.00,0.0179
2746.00,0.0178
2745.00,0.0178
2744.00,0.0178
2743.00,0.0178
2742.00,0.0178
2741.00,0.0177
2740.00,0.0177
2739.00,0.0177
2738.00,0.0176
2737.00,0.0176
2736.00,0.0175
2735.00,0.0174
2734.00,0.0174
2733.00,0.0174
2732.00,0.0174
2731.00,0.0174
2730.00,0.0174
2729.00,0.0174
2728.00,0.0173
2727.00,0.0173
2726.00,0.0173
2725.00,0.0173
2724.00,0.0172
2723.00,0.0172
2722.00,0.0172
2721.00,0.0172
2720.00,0.0171
2719.00,0.0171
2718.00,0.0171
2717.00,0.0170
2716.00,0.0170
2715.00,0.0170
2714.00,0.0170
2713.00,0.0169
2712.00,0.0169
2711.00,0.0168
2710.00,0.0168
2709.00,0.0168
2708.00,0.0168
2707.00,0.0168
2706.00,0.0168
2705.00,0.0168
2704.00,0.0167
2703.00,0.0167
2702.00,0.0166
2701.00,0.0166
2700.00,0.0166
2699.00,0.0166
2698.00,0.0166
2697.00,0.0166
2696.00,0.0165
2695.00,0.0165
2694.00,0.0165
2693.00,0.0165
2692.00,0.0165
2691.00,0.0165
2690.00,0.0164
2689.00,0.0164
2688.00,0.0164
2687.00,0.0164
2686.00,0.0164
2685.00,0.0163
2684.00,0.0163
2683.00,0.0163
2682.00,0.0163
2681.00,0.0163
2680.00,0.0162
2679.00,0.0162
2678.00,0.0162
2677.00,0.0162
2676.00,0.0162
2675.00,0.0162
2674.00,0.0161
2673.00,0.0161
2672.00,0.0160
2671.00,0.0160
2670.00,0.0160
2669.00,0.0160
2668.00,0.0161
2667.00,0.0161
2666.00,0.0162
2665.00,0.0162
2664.00,0.0162
2663.00,0.0163
2662.00,0.0163
2661.00,0.0163
2660.00,0.0163
2659.00,0.0163
2658.00,0.0163
2657.00,0.0163
2656.00,0.0163
2655.00,0.0163
2654.00,0.0163
2653.00,0.0163
2652.00,0.0163
2651.00,0.0162
2650.00,0.0162
2649.00,0.0162
2648.00,0.0162
2647.00,0.0162
2646.00,0.0162
2645.00,0.0161
2644.00,0.0161
2643.00,0.0161
2642.00,0.0160
2641.00,0.0160
2640.00,0.0160
2639.00,0.0159
2638.00,0.0159
2637.00,0.0159
2636.00,0.0159
2635.00,0.0159
2634.00,0.0159
2633.00,0.0159
2632.00,0.0159
2631.00,0.0159
2630.00,0.0159
2629.00,0.0159
2628.00,0.0159
2627.00,0.0159
2626.00,0.0158
2625.00,0.0158
2624.00,0.0158
2623.00,0.0158
2622.00,0.0158
2621.00,0.0158
2620.00,0.0158
2619.00,0.0158
2618.00,0.0157
2617.00,0.0157
2616.00,0.0156
2615.00,0.0156
2614.00,0.0155
2613.00,0.0155
2612.00,0.0155
2611.00,0.0155
2610.00,0.0155
2609.00,0.0155
2608.00,0.0155
2607.00,0.0155
2606.00,0.0155
2605.00,0.0154
2604.00,0.0154
2603.00,0.0153
2602.00,0.0153
2601.00,0.0153
2600.00,0.0153
2599.00,0.0153
2598.00,0.0153
2597.00,0.0153
2596.00,0.0152
2595.00,0.0152
2594.00,0.0152
2593.00,0.0151
2592.00,0.0151
2591.00,0.0151
2590.00,0.0151
2589.00,0.0150
2588.00,0.0150
2587.00,0.0150
2586.00,0.0150
2585.00,0.0150
2584.00,0.0149
2583.00,0.0149
2582.00,0.0149
2581.00,0.0148
2580.00,0.0148
2579.00,0.0148
2578.00,0.0147
2577.00,0.0146
2576.00,0.0146
2575.00,0.0146
2574.00,0.0146
2573.00,0.0147
2572.00,0.0147
2571.00,0.0147
2570.00,0.0147
2569.00,0.0146
2568.00,0.0146
2567.00,0.0146
2566.00,0.0146
2565.00,0.0146
2564.00,0.0146
2563.00,0.0146
2562.00,0.0146
2561.00,0.0146
2560.00,0.0145
2559.00,0.0145
2558.00,0.0145
2557.00,0.0144
2556.00,0.0144
2555.00,0.0143
2554.00,0.0143
2553.00,0.0143
2552.00,0.0143
2551.00,0.0144
2550.00,0.0144
2549.00,0.0143
2548.00,0.0143
2547.00,0.0143
2546.00,0.0143
2545.00,0.0142
2544.00,0.0142
2543.00,0.0142
2542.00,0.0142
2541.00,0.0143
2540.00,0.0143
2539.00,0.0143
2538.00,0.0142
2537.00,0.0142
2536.00,0.0142
2535.00,0.0141
2534.00,0.0141
2533.00,0.0141
2532.00,0.0141
2531.00,0.0141
2530.00,0.0141
2529.00,0.0141
2528.00,0.0141
2527.00,0.0141
2526.00,0.0140
2525.00,0.0140
2524.00,0.0140
2523.00,0.0140
2522.00,0.0140
2521.00,0.0140
2520.00,0.0140
2519.00,0.0140
2518.00,0.0140
2517.00,0.0140
2516.00,0.0140
2515.00,0.0139
2514.00,0.0138
2513.00,0.0138
2512.00,0.0138
2511.00,0.0138
2510.00,0.0139
2509.00,0.0139
2508.00,0.0139
2507.00,0.0139
2506.00,0.0138
2505.00,0.0138
2504.00,0.0138
2503.00,0.0138
2502.00,0.0138
2501.00,0.0138
2500.00,0.0138
2499.00,0.0138
2498.00,0.0137
2497.00,0.0137
2496.00,0.0137
2495.00,0.0137
2494.00,0.0137
2493.00,0.0137
2492.00,0.0137
2491.00,0.0137
2490.00,0.0137
2489.00,0.0137
2488.00,0.0138
2487.00,0.0137
2486.00,0.0137
2485.00,0.0137
2484.00,0.0137
2483.00,0.0137
2482.00,0.0136
2481.00,0.0136
2480.00,0.0136
2479.00,0.0136
2478.00,0.0136
2477.00,0.0136
2476.00,0.0136
2475.00,0.0136
2474.00,0.0136
2473.00,0.0135
2472.00,0.0135
2471.00,0.0135
2470.00,0.0135
2469.00,0.0135
2468.00,0.0135
2467.00,0.0135
2466.00,0.0135
2465.00,0.0135
2464.00,0.0135
2463.00,0.0135
2462.00,0.0134
2461.00,0.0134
2460.00,0.0135
2459.00,0.0135
2458.00,0.0136
2457.00,0.0136
2456.00,0.0135
2455.00,0.0135
2454.00,0.0135
2453.00,0.0135
2452.00,0.0135
2451.00,0.0134
2450.00,0.0134
2449.00,0.0134
2448.00,0.0134
2447.00,0.0133
2446.00,0.0133
2445.00,0.0133
2444.00,0.0133
2443.00,0.0133
2442.00,0.0133
2441.00,0.0133
2440.00,0.0132
2439.00,0.0132
2438.00,0.0132
2437.00,0.0132
2436.00,0.0132
2435.00,0.0131
2434.00,0.0131
2433.00,0.0131
2432.00,0.0130
2431.00,0.0130
2430.00,0.0130
2429.00,0.0130
2428.00,0.0129
2427.00,0.0129
2426.00,0.0129
2425.00,0.0129
2424.00,0.0129
2423.00,0.0129
2422.00,0.0129
2421.00,0.0129
2420.00,0.0129
2419.00,0.0129
2418.00,0.0129
2417.00,0.0129
2416.00,0.0129
2415.00,0.0129
2414.00,0.0129
2413.00,0.0128
2412.00,0.0128
2411.00,0.0128
2410.00,0.0128
2409.00,0.0127
2408.00,0.0127
2407.00,0.0126
2406.00,0.0126
2405.00,0.0126
2404.00,0.0126
2403.00,0.0126
2402.00,0.0126
2401.00,0.0126
2400.00,0.0126
2399.00,0.0126
2398.00,0.0126
2397.00,0.0125
2396.00,0.0125
2395.00,0.0124
2394.00,0.0124
2393.00,0.0124
2392.00,0.0124
2391.00,0.0124
2390.00,0.0123
2389.00,0.0123
2388.00,0.0123
2387.00,0.0123
2386.00,0.0123
2385.00,0.0122
2384.00,0.0122
2383.00,0.0121
2382.00,0.0121
2381.00,0.0121
2380.00,0.0121
2379.00,0.0121
2378.00,0.0121
2377.00,0.0122
2376.00,0.0122
2375.00,0.0122
2374.00,0.0121
2373.00,0.0121
2372.00,0.0121
2371.00,0.0121
2370.00,0.0121
2369.00,0.0120
2368.00,0.0120
2367.00,0.0120
2366.00,0.0120
2365.00,0.0120
2364.00,0.0121
2363.00,0.0122
2362.00,0.0122
2361.00,0.0122
2360.00,0.0122
2359.00,0.0122
2358.00,0.0121
2357.00,0.0121
2356.00,0.0121
2355.00,0.0121
2354.00,0.0122
2353.00,0.0122
2352.00,0.0122
2351.00,0.0122
2350.00,0.0122
2349.00,0.0122
2348.00,0.0122
2347.00,0.0123
2346.00,0.0123
2345.00,0.0123
2344.00,0.0123
2343.00,0.0124
2342.00,0.0124
2341.00,0.0124
2340.00,0.0124
2339.00,0.0125
2338.00,0.0125
2337.00,0.0125
2336.00,0.0124
2335.00,0.0123
2334.00,0.0123
2333.00,0.0122
2332.00,0.0122
2331.00,0.0123
2330.00,0.0125
2329.00,0.0127
2328.00,0.0130
2327.00,0.0133
2326.00,0.0134
2325.00,0.0134
2324.00,0.0133
2323.00,0.0132
2322.00,0.0131
2321.00,0.0131
2320.00,0.0131
2319.00,0.0130
2318.00,0.0129
2317.00,0.0129
2316.00,0.0128
2315.00,0.0128
2314.00,0.0127
2313.00,0.0127
2312.00,0.0126
2311.00,0.0126
2310.00,0.0126
2309.00,0.0126
2308.00,0.0126
2307.00,0.0126
2306.00,0.0126
2305.00,0.0126
2304.00,0.0126
2303.00,0.0126
2302.00,0.0126
2301.00,0.0127
2300.00,0.0127
2299.00,0.0127
2298.00,0.0128
2297.00,0.0128
2296.00,0.0129
2295.00,0.0130
2294.00,0.0131
2293.00,0.0132
2292.00,0.0132
2291.00,0.0131
2290.00,0.0131
2289.00,0.0132
2288.00,0.0132
2287.00,0.0132
2286.00,0.0132
2285.00,0.0131
2284.00,0.0130
2283.00,0.0129
2282.00,0.0128
2281.00,0.0127
2280.00,0.0127
2279.00,0.0126
2278.00,0.0126
2277.00,0.0126
2276.00,0.0126
2275.00,0.0126
2274.00,0.0126
2273.00,0.0125
2272.00,0.0125
2271.00,0.0125
2270.00,0.0125
2269.00,0.0126
2268.00,0.0126
2267.00,0.0125
2266.00,0.0124
2265.00,0.0123
2264.00,0.0124
2263.00,0.0124
2262.00,0.0124
2261.00,0.0124
2260.00,0.0125
2259.00,0.0124
2258.00,0.0123
2257.00,0.0122
2256.00,0.0121
2255.00,0.0121
2254.00,0.0121
2253.00,0.0122
2252.00,0.0122
2251.00,0.0122
2250.00,0.0122
2249.00,0.0122
2248.00,0.0122
2247.00,0.0121
2246.00,0.0121
2245.00,0.0121
2244.00,0.0121
2243.00,0.0121
2242.00,0.0121
2241.00,0.0121
2240.00,0.0121
2239.00,0.0122
2238.00,0.0123
2237.00,0.0124
2236.00,0.0124
2235.00,0.0124
2234.00,0.0123
2233.00,0.0122
2232.00,0.0122
2231.00,0.0122
2230.00,0.0122
2229.00,0.0121
2228.00,0.0120
2227.00,0.0120
2226.00,0.0119
2225.00,0.0119
2224.00,0.0119
2223.00,0.0119
2222.00,0.0120
2221.00,0.0120
2220.00,0.0121
2219.00,0.0122
2218.00,0.0122
2217.00,0.0123
2216.00,0.0122
2215.00,0.0121
2214.00,0.0120
2213.00,0.0120
2212.00,0.0120
2211.00,0.0120
2210.00,0.0120
2209.00,0.0120
2208.00,0.0120
2207.00,0.0120
2206.00,0.0120
2205.00,0.0120
2204.00,0.0120
2203.00,0.0120
2202.00,0.0121
2201.00,0.0123
2200.00,0.0125
2199.00,0.0125
2198.00,0.0123
2197.00,0.0122
2196.00,0.0121
2195.00,0.0121
2194.00,0.0121
2193.00,0.0122
2192.00,0.0122
2191.00,0.0122
2190.00,0.0122
2189.00,0.0122
2188.00,0.0122
2187.00,0.0122
2186.00,0.0122
2185.00,0.0122
2184.00,0.0120
2183.00,0.0118
2182.00,0.0117
2181.00,0.0116
2180.00,0.0117
2179.00,0.0117
2178.00,0.0117
2177.00,0.0115
2176.00,0.0115
2175.00,0.0116
2174.00,0.0118
2173.00,0.0120
2172.00,0.0122
2171.00,0.0124
2170.00,0.0127
2169.00,0.0130
2168.00,0.0133
2167.00,0.0133
2166.00,0.0133
2165.00,0.0133
2164.00,0.0134
2163.00,0.0132
2162.00,0.0125
2161.00,0.0113
2160.00,0.0098
2159.00,0.0087
2158.00,0.0084
2157.00,0.0086
2156.00,0.0090
2155.00,0.0094
2154.00,0.0097
2153.00,0.0099
2152.00,0.0100
2151.00,0.0101
2150.00,0.0100
2149.00,0.0099
2148.00,0.0098
2147.00,0.0098
2146.00,0.0098
2145.00,0.0099
2144.00,0.0099
2143.00,0.0100
2142.00,0.0100
2141.00,0.0101
2140.00,0.0100
2139.00,0.0098
2138.00,0.0095
2137.00,0.0093
2136.00,0.0091
2135.00,0.0090
2134.00,0.0091
2133.00,0.0093
2132.00,0.0095
2131.00,0.0097
2130.00,0.0099
2129.00,0.0101
2128.00,0.0102
2127.00,0.0103
2126.00,0.0104
2125.00,0.0104
2124.00,0.0105
2123.00,0.0106
2122.00,0.0107
2121.00,0.0108
2120.00,0.0109
2119.00,0.0111
2118.00,0.0113
2117.00,0.0114
2116.00,0.0114
2115.00,0.0113
2114.00,0.0113
2113.00,0.0112
2112.00,0.0112
2111.00,0.0112
2110.00,0.0112
2109.00,0.0112
2108.00,0.0113
2107.00,0.0114
2106.00,0.0114
2105.00,0.0114
2104.00,0.0114
2103.00,0.0113
2102.00,0.0112
2101.00,0.0112
2100.00,0.0112
2099.00,0.0110
2098.00,0.0109
2097.00,0.0107
2096.00,0.0106
2095.00,0.0105
2094.00,0.0105
2093.00,0.0106
2092.00,0.0107
2091.00,0.0109
2090.00,0.0109
2089.00,0.0110
2088.00,0.0110
2087.00,0.0110
2086.00,0.0109
2085.00,0.0110
2084.00,0.0111
2083.00,0.0111
2082.00,0.0112
2081.00,0.0113
2080.00,0.0113
2079.00,0.0113
2078.00,0.0114
2077.00,0.0114
2076.00,0.0114
2075.00,0.0115
2074.00,0.0115
2073.00,0.0114
2072.00,0.0112
2071.00,0.0110
2070.00,0.0109
2069.00,0.0108
2068.00,0.0108
2067.00,0.0108
2066.00,0.0107
2065.00,0.0107
2064.00,0.0107
2063.00,0.0106
2062.00,0.0106
2061.00,0.0105
2060.00,0.0106
2059.00,0.0107
2058.00,0.0108
2057.00,0.0109
2056.00,0.0109
2055.00,0.0110
2054.00,0.0114
2053.00,0.0118
2052.00,0.0121
2051.00,0.0119
2050.00,0.0114
2049.00,0.0110
2048.00,0.0108
2047.00,0.0108
2046.00,0.0109
2045.00,0.0110
2044.00,0.0110
2043.00,0.0111
2042.00,0.0111
2041.00,0.0112
2040.00,0.0113
2039.00,0.0112
2038.00,0.0110
2037.00,0.0109
2036.00,0.0107
2035.00,0.0104
2034.00,0.0102
2033.00,0.0101
2032.00,0.0100
2031.00,0.0099
2030.00,0.0099
2029.00,0.0100
2028.00,0.0102
2027.00,0.0103
2026.00,0.0102
2025.00,0.0101
2024.00,0.0100
2023.00,0.0101
2022.00,0.0102
2021.00,0.0102
2020.00,0.0100
2019.00,0.0098
2018.00,0.0098
2017.00,0.0100
2016.00,0.0101
2015.00,0.0100
2014.00,0.0094
2013.00,0.0085
2012.00,0.0079
2011.00,0.0077
2010.00,0.0080
2009.00,0.0086
2008.00,0.0091
2007.00,0.0094
2006.00,0.0095
2005.00,0.0097
2004.00,0.0100
2003.00,0.0101
2002.00,0.0102
2001.00,0.0102
2000.00,0.0101
1999.00,0.0100
1998.00,0.0098
1997.00,0.0097
1996.00,0.0098
1995.00,0.0100
1994.00,0.0102
1993.00,0.0105
1992.00,0.0106
1991.00,0.0106
1990.00,0.0106
1989.00,0.0106
1988.00,0.0107
1987.00,0.0108
1986.00,0.0110
1985.00,0.0111
1984.00,0.0113
1983.00,0.0115
1982.00,0.0119
1981.00,0.0123
1980.00,0.0123
1979.00,0.0118
1978.00,0.0108
1977.00,0.0099
1976.00,0.0094
1975.00,0.0092
1974.00,0.0091
1973.00,0.0091
1972.00,0.0092
1971.00,0.0093
1970.00,0.0095
1969.00,0.0097
1968.00,0.0098
1967.00,0.0097
1966.00,0.0096
1965.00,0.0096
1964.00,0.0096
1963.00,0.0096
1962.00,0.0094
1961.00,0.0092
1960.00,0.0090
1959.00,0.0090
1958.00,0.0090
1957.00,0.0091
1956.00,0.0093
1955.00,0.0093
1954.00,0.0093
1953.00,0.0092
1952.00,0.0092
1951.00,0.0092
1950.00,0.0093
1949.00,0.0094
1948.00,0.0095
1947.00,0.0095
1946.00,0.0094
1945.00,0.0093
1944.00,0.0093
1943.00,0.0093
1942.00,0.0093
1941.00,0.0092
1940.00,0.0092
1939.00,0.0091
1938.00,0.0091
1937.00,0.0091
1936.00,0.0091
1935.00,0.0092
1934.00,0.0092
1933.00,0.0092
1932.00,0.0092
1931.00,0.0092
1930.00,0.0092
1929.00,0.0093
1928.00,0.0093
1927.00,0.0092
1926.00,0.0092
1925.00,0.0092
1924.00,0.0093
1923.00,0.0093
1922.00,0.0093
1921.00,0.0092
1920.00,0.0092
1919.00,0.0092
1918.00,0.0091
1917.00,0.0090
1916.00,0.0090
1915.00,0.0091
1914.00,0.0091
1913.00,0.0092
1912.00,0.0094
1911.00,0.0095
1910.00,0.0095
1909.00,0.0094
1908.00,0.0094
1907.00,0.0093
1906.00,0.0093
1905.00,0.0093
1904.00,0.0092
1903.00,0.0091
1902.00,0.0090
1901.00,0.0090
1900.00,0.0090
1899.00,0.0091
1898.00,0.0091
1897.00,0.0092
1896.00,0.0092
1895.00,0.0092
1894.00,0.0091
1893.00,0.0091
1892.00,0.0091
1891.00,0.0092
1890.00,0.0092
1889.00,0.0091
1888.00,0.0091
1887.00,0.0091
1886.00,0.0091
1885.00,0.0092
1884.00,0.0092
1883.00,0.0091
1882.00,0.0090
1881.00,0.0090
1880.00,0.0090
1879.00,0.0090
1878.00,0.0090
1877.00,0.0089
1876.00,0.0089
1875.00,0.0089
1874.00,0.0088
1873.00,0.0088
1872.00,0.0089
1871.00,0.0089
1870.00,0.0090
1869.00,0.0090
1868.00,0.0089
1867.00,0.0088
1866.00,0.0087
1865.00,0.0087
1864.00,0.0087
1863.00,0.0087
1862.00,0.0087
1861.00,0.0087
1860.00,0.0087
1859.00,0.0087
1858.00,0.0087
1857.00,0.0088
1856.00,0.0088
1855.00,0.0089
1854.00,0.0090
1853.00,0.0090
1852.00,0.0089
1851.00,0.0089
1850.00,0.0088
1849.00,0.0088
1848.00,0.0088
1847.00,0.0089
1846.00,0.0089
1845.00,0.0087
1844.00,0.0085
1843.00,0.0083
1842.00,0.0082
1841.00,0.0083
1840.00,0.0085
1839.00,0.0086
1838.00,0.0086
1837.00,0.0086
1836.00,0.0086
1835.00,0.0085
1834.00,0.0085
1833.00,0.0085
1832.00,0.0086
1831.00,0.0087
1830.00,0.0087
1829.00,0.0086
1828.00,0.0084
1827.00,0.0084
1826.00,0.0084
1825.00,0.0083
1824.00,0.0083
1823.00,0.0083
1822.00,0.0083
1821.00,0.0083
1820.00,0.0082
1819.00,0.0081
1818.00,0.0080
1817.00,0.0080
1816.00,0.0081
1815.00,0.0082
1814.00,0.0083
1813.00,0.0084
1812.00,0.0084
1811.00,0.0084
1810.00,0.0084
1809.00,0.0083
1808.00,0.0083
1807.00,0.0083
1806.00,0.0084
1805.00,0.0084
1804.00,0.0084
1803.00,0.0084
1802.00,0.0084
1801.00,0.0084
1800.00,0.0084
1799.00,0.0084
1798.00,0.0084
1797.00,0.0084
1796.00,0.0086
1795.00,0.0086
1794.00,0.0087
1793.00,0.0086
1792.00,0.0084
1791.00,0.0082
1790.00,0.0080
1789.00,0.0080
1788.00,0.0081
1787.00,0.0081
1786.00,0.0081
1785.00,0.0081
1784.00,0.0082
1783.00,0.0083
1782.00,0.0084
1781.00,0.0084
1780.00,0.0084
1779.00,0.0083
1778.00,0.0082
1777.00,0.0083
1776.00,0.0085
1775.00,0.0086
1774.00,0.0088
1773.00,0.0088
1772.00,0.0086
1771.00,0.0082
1770.00,0.0079
1769.00,0.0077
1768.00,0.0077
1767.00,0.0076
1766.00,0.0077
1765.00,0.0078
1764.00,0.0080
1763.00,0.0079
1762.00,0.0077
1761.00,0.0075
1760.00,0.0075
1759.00,0.0075
1758.00,0.0075
1757.00,0.0075
1756.00,0.0074
1755.00,0.0074
1754.00,0.0075
1753.00,0.0076
1752.00,0.0076
1751.00,0.0076
1750.00,0.0076
1749.00,0.0076
1748.00,0.0077
1747.00,0.0076
1746.00,0.0076
1745.00,0.0076
1744.00,0.0076
1743.00,0.0076
1742.00,0.0076
1741.00,0.0077
1740.00,0.0077
1739.00,0.0077
1738.00,0.0077
1737.00,0.0079
1736.00,0.0082
1735.00,0.0083
1734.00,0.0082
1733.00,0.0081
1732.00,0.0081
1731.00,0.0083
1730.00,0.0085
1729.00,0.0085
1728.00,0.0085
1727.00,0.0086
1726.00,0.0088
1725.00,0.0090
1724.00,0.0092
1723.00,0.0093
1722.00,0.0095
1721.00,0.0097
1720.00,0.0101
1719.00,0.0106
1718.00,0.0110
1717.00,0.0112
1716.00,0.0112
1715.00,0.0113
1714.00,0.0116
1713.00,0.0120
1712.00,0.0127
1711.00,0.0135
1710.00,0.0142
1709.00,0.0152
1708.00,0.0163
1707.00,0.0176
1706.00,0.0190
1705.00,0.0205
1704.00,0.0221
1703.00,0.0235
1702.00,0.0252
1701.00,0.0276
1700.00,0.0305
1699.00,0.0331
1698.00,0.0352
1697.00,0.0368
1696.00,0.0380
1695.00,0.0388
1694.00,0.0396
1693.00,0.0405
1692.00,0.0416
1691.00,0.0429
1690.00,0.0442
1689.00,0.0454
1688.00,0.0467
1687.00,0.0479
1686.00,0.0492
1685.00,0.0509
1684.00,0.0527
1683.00,0.0541
1682.00,0.0554
1681.00,0.0568
1680.00,0.0582
1679.00,0.0595
1678.00,0.0607
1677.00,0.0618
1676.00,0.0632
1675.00,0.0650
1674.00,0.0668
1673.00,0.0684
1672.00,0.0699
1671.00,0.0715
1670.00,0.0733
1669.00,0.0752
1668.00,0.0770
1667.00,0.0786
1666.00,0.0800
1665.00,0.0814
1664.00,0.0831
1663.00,0.0851
1662.00,0.0871
1661.00,0.0890
1660.00,0.0906
1659.00,0.0921
1658.00,0.0934
1657.00,0.0944
1656.00,0.0951
1655.00,0.0959
1654.00,0.0976
1653.00,0.1003
1652.00,0.1025
1651.00,0.1035
1650.00,0.1037
1649.00,0.1037
1648.00,0.1041
1647.00,0.1048
1646.00,0.1054
1645.00,0.1058
1644.00,0.1060
1643.00,0.1060
1642.00,0.1059
1641.00,0.1059
1640.00,0.1059
1639.00,0.1058
1638.00,0.1057
1637.00,0.1059
1636.00,0.1064
1635.00,0.1070
1634.00,0.1073
1633.00,0.1075
1632.00,0.1075
1631.00,0.1075
1630.00,0.1076
1629.00,0.1081
1628.00,0.1087
1627.00,0.1094
1626.00,0.1098
1625.00,0.1102
1624.00,0.1108
1623.00,0.1116
1622.00,0.1121
1621.00,0.1123
1620.00,0.1121
1619.00,0.1117
1618.00,0.1112
1617.00,0.1107
1616.00,0.1099
1615.00,0.1087
1614.00,0.1070
1613.00,0.1049
1612.00,0.1026
1611.00,0.1002
1610.00,0.0978
1609.00,0.0952
1608.00,0.0926
1607.00,0.0899
1606.00,0.0874
1605.00,0.0849
1604.00,0.0824
1603.00,0.0800
1602.00,0.0777
1601.00,0.0755
1600.00,0.0733
1599.00,0.0713
1598.00,0.0695
1597.00,0.0678
1596.00,0.0662
1595.00,0.0647
1594.00,0.0633
1593.00,0.0619
1592.00,0.0605
1591.00,0.0593
1590.00,0.0583
1589.00,0.0573
1588.00,0.0564
1587.00,0.0556
1586.00,0.0550
1585.00,0.0545
1584.00,0.0541
1583.00,0.0538
1582.00,0.0537
1581.00,0.0536
1580.00,0.0535
1579.00,0.0536
1578.00,0.0539
1577.00,0.0543
1576.00,0.0545
1575.00,0.0545
1574.00,0.0545
1573.00,0.0546
1572.00,0.0547
1571.00,0.0551
1570.00,0.0558
1569.00,0.0565
1568.00,0.0571
1567.00,0.0578
1566.00,0.0587
1565.00,0.0597
1564.00,0.0607
1563.00,0.0615
1562.00,0.0621
1561.00,0.0628
1560.00,0.0644
1559.00,0.0671
1558.00,0.0692
1557.00,0.0706
1556.00,0.0718
1555.00,0.0731
1554.00,0.0746
1553.00,0.0762
1552.00,0.0776
1551.00,0.0791
1550.00,0.0808
1549.00,0.0824
1548.00,0.0838
1547.00,0.0850
1546.00,0.0863
1545.00,0.0878
1544.00,0.0894
1543.00,0.0908
1542.00,0.0923
1541.00,0.0941
1540.00,0.0959
1539.00,0.0971
1538.00,0.0978
1537.00,0.0981
1536.00,0.0980
1535.00,0.0982
1534.00,0.0989
1533.00,0.1000
1532.00,0.1009
1531.00,0.1015
1530.00,0.1019
1529.00,0.1023
1528.00,0.1027
1527.00,0.1032
1526.00,0.1039
1525.00,0.1045
1524.00,0.1049
1523.00,0.1054
1522.00,0.1063
1521.00,0.1073
1520.00,0.1082
1519.00,0.1089
1518.00,0.1095
1517.00,0.1101
1516.00,0.1106
1515.00,0.1108
1514.00,0.1105
1513.00,0.1101
1512.00,0.1095
1511.00,0.1089
1510.00,0.1081
1509.00,0.1072
1508.00,0.1065
1507.00,0.1059
1506.00,0.1049
1505.00,0.1036
1504.00,0.1023
1503.00,0.1008
1502.00,0.0991
1501.00,0.0973
1500.00,0.0956
1499.00,0.0940
1498.00,0.0924
1497.00,0.0907
1496.00,0.0889
1495.00,0.0870
1494.00,0.0851
1493.00,0.0830
1492.00,0.0809
1491.00,0.0788
1490.00,0.0768
1489.00,0.0748
1488.00,0.0729
1487.00,0.0710
1486.00,0.0692
1485.00,0.0676
1484.00,0.0661
1483.00,0.0647
1482.00,0.0635
1481.00,0.0625
1480.00,0.0615
1479.00,0.0608
1478.00,0.0601
1477.00,0.0596
1476.00,0.0594
1475.00,0.0593
1474.00,0.0594
1473.00,0.0595
1472.00,0.0597
1471.00,0.0598
1470.00,0.0599
1469.00,0.0599
1468.00,0.0598
1467.00,0.0597
1466.00,0.0597
1465.00,0.0599
1464.00,0.0601
1463.00,0.0603
1462.00,0.0605
1461.00,0.0607
1460.00,0.0609
1459.00,0.0613
1458.00,0.0620
1457.00,0.0629
1456.00,0.0637
1455.00,0.0644
1454.00,0.0648
1453.00,0.0649
1452.00,0.0650
1451.00,0.0650
1450.00,0.0649
1449.00,0.0647
1448.00,0.0646
1447.00,0.0644
1446.00,0.0640
1445.00,0.0636
1444.00,0.0630
1443.00,0.0624
1442.00,0.0618
1441.00,0.0612
1440.00,0.0605
1439.00,0.0597
1438.00,0.0588
1437.00,0.0580
1436.00,0.0576
1435.00,0.0574
1434.00,0.0572
1433.00,0.0568
1432.00,0.0564
1431.00,0.0560
1430.00,0.0557
1429.00,0.0553
1428.00,0.0551
1427.00,0.0550
1426.00,0.0551
1425.00,0.0552
1424.00,0.0554
1423.00,0.0556
1422.00,0.0557
1421.00,0.0557
1420.00,0.0559
1419.00,0.0565
1418.00,0.0571
1417.00,0.0575
1416.00,0.0579
1415.00,0.0582
1414.00,0.0585
1413.00,0.0588
1412.00,0.0592
1411.00,0.0595
1410.00,0.0597
1409.00,0.0599
1408.00,0.0600
1407.00,0.0600
1406.00,0.0600
1405.00,0.0599
1404.00,0.0598
1403.00,0.0596
1402.00,0.0594
1401.00,0.0591
1400.00,0.0588
1399.00,0.0586
1398.00,0.0584
1397.00,0.0582
1396.00,0.0580
1395.00,0.0579
1394.00,0.0578
1393.00,0.0577
1392.00,0.0577
1391.00,0.0577
1390.00,0.0577
1389.00,0.0575
1388.00,0.0574
1387.00,0.0574
1386.00,0.0574
1385.00,0.0573
1384.00,0.0572
1383.00,0.0570
1382.00,0.0568
1381.00,0.0566
1380.00,0.0564
1379.00,0.0561
1378.00,0.0559
1377.00,0.0557
1376.00,0.0555
1375.00,0.0553
1374.00,0.0551
1373.00,0.0548
1372.00,0.0546
1371.00,0.0544
1370.00,0.0541
1369.00,0.0538
1368.00,0.0534
1367.00,0.0530
1366.00,0.0525
1365.00,0.0520
1364.00,0.0515
1363.00,0.0511
1362.00,0.0507
1361.00,0.0504
1360.00,0.0501
1359.00,0.0499
1358.00,0.0498
1357.00,0.0497
1356.00,0.0496
1355.00,0.0495
1354.00,0.0495
1353.00,0.0495
1352.00,0.0496
1351.00,0.0497
1350.00,0.0499
1349.00,0.0499
1348.00,0.0499
1347.00,0.0498
1346.00,0.0498
1345.00,0.0498
1344.00,0.0498
1343.00,0.0498
1342.00,0.0499
1341.00,0.0499
1340.00,0.0499
1339.00,0.0499
1338.00,0.0499
1337.00,0.0499
1336.00,0.0498
1335.00,0.0498
1334.00,0.0498
1333.00,0.0497
1332.00,0.0495
1331.00,0.0494
1330.00,0.0493
1329.00,0.0492
1328.00,0.0491
1327.00,0.0491
1326.00,0.0490
1325.00,0.0490
1324.00,0.0490
1323.00,0.0491
1322.00,0.0491
1321.00,0.0492
1320.00,0.0493
1319.00,0.0494
1318.00,0.0495
1317.00,0.0496
1316.00,0.0497
1315.00,0.0498
1314.00,0.0499
1313.00,0.0500
1312.00,0.0501
1311.00,0.0502
1310.00,0.0503
1309.00,0.0504
1308.00,0.0505
1307.00,0.0506
1306.00,0.0507
1305.00,0.0507
1304.00,0.0507
1303.00,0.0507
1302.00,0.0506
1301.00,0.0505
1300.00,0.0504
1299.00,0.0503
1298.00,0.0502
1297.00,0.0501
1296.00,0.0500
1295.00,0.0499
1294.00,0.0499
1293.00,0.0498
1292.00,0.0497
1291.00,0.0497
1290.00,0.0497
1289.00,0.0496
1288.00,0.0496
1287.00,0.0496
1286.00,0.0495
1285.00,0.0495
1284.00,0.0494
1283.00,0.0494
1282.00,0.0494
1281.00,0.0493
1280.00,0.0493
1279.00,0.0493
1278.00,0.0493
1277.00,0.0493
1276.00,0.0493
1275.00,0.0494
1274.00,0.0494
1273.00,0.0495
1272.00,0.0496
1271.00,0.0497
1270.00,0.0499
1269.00,0.0500
1268.00,0.0501
1267.00,0.0503
1266.00,0.0505
1265.00,0.0507
1264.00,0.0510
1263.00,0.0513
1262.00,0.0516
1261.00,0.0519
1260.00,0.0522
1259.00,0.0524
1258.00,0.0527
1257.00,0.0530
1256.00,0.0533
1255.00,0.0537
1254.00,0.0541
1253.00,0.0545
1252.00,0.0548
1251.00,0.0552
1250.00,0.0556
1249.00,0.0560
1248.00,0.0563
1247.00,0.0567
1246.00,0.0570
1245.00,0.0573
1244.00,0.0576
1243.00,0.0579
1242.00,0.0582
1241.00,0.0585
1240.00,0.0587
1239.00,0.0590
1238.00,0.0593
1237.00,0.0596
1236.00,0.0598
1235.00,0.0601
1234.00,0.0604
1233.00,0.0607
1232.00,0.0609
1231.00,0.0611
1230.00,0.0612
1229.00,0.0612
1228.00,0.0612
1227.00,0.0611
1226.00,0.0609
1225.00,0.0606
1224.00,0.0603
1223.00,0.0599
1222.00,0.0596
1221.00,0.0593
1220.00,0.0589
1219.00,0.0586
1218.00,0.0582
1217.00,0.0578
1216.00,0.0574
1215.00,0.0571
1214.00,0.0567
1213.00,0.0562
1212.00,0.0558
1211.00,0.0554
1210.00,0.0549
1209.00,0.0544
1208.00,0.0538
1207.00,0.0532
1206.00,0.0527
1205.00,0.0521
1204.00,0.0514
1203.00,0.0508
1202.00,0.0501
1201.00,0.0495
1200.00,0.0490
1199.00,0.0485
1198.00,0.0481
1197.00,0.0477
1196.00,0.0474
1195.00,0.0471
1194.00,0.0469
1193.00,0.0466
1192.00,0.0464
1191.00,0.0461
1190.00,0.0460
1189.00,0.0458
1188.00,0.0456
1187.00,0.0454
1186.00,0.0453
1185.00,0.0452
1184.00,0.0451
1183.00,0.0451
1182.00,0.0451
1181.00,0.0452
1180.00,0.0453
1179.00,0.0455
1178.00,0.0457
1177.00,0.0460
1176.00,0.0464
1175.00,0.0467
1174.00,0.0471
1173.00,0.0474
1172.00,0.0477
1171.00,0.0479
1170.00,0.0481
1169.00,0.0482
1168.00,0.0482
1167.00,0.0482
1166.00,0.0482
1165.00,0.0482
1164.00,0.0481
1163.00,0.0480
1162.00,0.0478
1161.00,0.0475
1160.00,0.0472
1159.00,0.0469
1158.00,0.0466
1157.00,0.0462
1156.00,0.0459
1155.00,0.0455
1154.00,0.0452
1153.00,0.0449
1152.00,0.0445
1151.00,0.0441
1150.00,0.0438
1149.00,0.0434
1148.00,0.0431
1147.00,0.0428
1146.00,0.0425
1145.00,0.0423
1144.00,0.0421
1143.00,0.0419
1142.00,0.0418
1141.00,0.0417
1140.00,0.0415
1139.00,0.0415
1138.00,0.0414
1137.00,0.0414
1136.00,0.0413
1135.00,0.0413
1134.00,0.0414
1133.00,0.0414
1132.00,0.0414
1131.00,0.0415
1130.00,0.0416
1129.00,0.0417
1128.00,0.0417
1127.00,0.0418
1126.00,0.0418
1125.00,0.0419
1124.00,0.0419
1123.00,0.0420
1122.00,0.0420
1121.00,0.0420
1120.00,0.0420
1119.00,0.0419
1118.00,0.0419
1117.00,0.0419
1116.00,0.0418
1115.00,0.0417
1114.00,0.0417
1113.00,0.0416
1112.00,0.0415
1111.00,0.0414
1110.00,0.0414
1109.00,0.0414
1108.00,0.0414
1107.00,0.0415
1106.00,0.0417
1105.00,0.0419
1104.00,0.0420
1103.00,0.0422
1102.00,0.0423
1101.00,0.0424
1100.00,0.0424
1099.00,0.0425
1098.00,0.0426
1097.00,0.0427
1096.00,0.0428
1095.00,0.0430
1094.00,0.0434
1093.00,0.0437
1092.00,0.0441
1091.00,0.0445
1090.00,0.0450
1089.00,0.0456
1088.00,0.0462
1087.00,0.0468
1086.00,0.0476
1085.00,0.0482
1084.00,0.0489
1083.00,0.0495
1082.00,0.0502
1081.00,0.0508
1080.00,0.0514
1079.00,0.0519
1078.00,0.0525
1077.00,0.0531
1076.00,0.0535
1075.00,0.0540
1074.00,0.0544
1073.00,0.0548
1072.00,0.0551
1071.00,0.0554
1070.00,0.0557
1069.00,0.0558
1068.00,0.0560
1067.00,0.0562
1066.00,0.0565
1065.00,0.0567
1064.00,0.0568
1063.00,0.0569
1062.00,0.0570
1061.00,0.0570
1060.00,0.0570
1059.00,0.0569
1058.00,0.0569
1057.00,0.0569
1056.00,0.0568
1055.00,0.0567
1054.00,0.0567
1053.00,0.0567
1052.00,0.0567
1051.00,0.0567
1050.00,0.0567
1049.00,0.0566
1048.00,0.0564
1047.00,0.0562
1046.00,0.0560
1045.00,0.0558
1044.00,0.0554
1043.00,0.0550
1042.00,0.0546
1041.00,0.0541
1040.00,0.0536
1039.00,0.0530
1038.00,0.0524
1037.00,0.0516
1036.00,0.0507
1035.00,0.0499
1034.00,0.0490
1033.00,0.0482
1032.00,0.0474
1031.00,0.0467
1030.00,0.0461
1029.00,0.0454
1028.00,0.0447
1027.00,0.0439
1026.00,0.0432
1025.00,0.0425
1024.00,0.0419
1023.00,0.0413
1022.00,0.0408
1021.00,0.0403
1020.00,0.0397
1019.00,0.0391
1018.00,0.0385
1017.00,0.0380
1016.00,0.0375
1015.00,0.0371
1014.00,0.0367
1013.00,0.0363
1012.00,0.0360
1011.00,0.0357
1010.00,0.0354
1009.00,0.0352
1008.00,0.0348
1007.00,0.0345
1006.00,0.0342
1005.00,0.0339
1004.00,0.0336
1003.00,0.0333
1002.00,0.0330
1001.00,0.0328
1000.00,0.0326
999.00,0.0324
998.00,0.0322
997.00,0.0319
996.00,0.0316
995.00,0.0314
994.00,0.0312
993.00,0.0311
992.00,0.0309
991.00,0.0307
990.00,0.0305
989.00,0.0303
988.00,0.0302
987.00,0.0300
986.00,0.0299
985.00,0.0298
984.00,0.0296
983.00,0.0295
982.00,0.0295
981.00,0.0294
980.00,0.0294
979.00,0.0293
978.00,0.0293
977.00,0.0293
976.00,0.0293
975.00,0.0293
974.00,0.0294
973.00,0.0295
972.00,0.0296
971.00,0.0297
970.00,0.0298
969.00,0.0299
968.00,0.0300
967.00,0.0301
966.00,0.0304
965.00,0.0305
964.00,0.0307
963.00,0.0308
962.00,0.0310
961.00,0.0310
960.00,0.0309
959.00,0.0308
958.00,0.0308
957.00,0.0306
956.00,0.0305
955.00,0.0303
954.00,0.0302
953.00,0.0301
952.00,0.0300
951.00,0.0299
950.00,0.0299
949.00,0.0298
948.00,0.0297
947.00,0.0296
946.00,0.0295
945.00,0.0295
944.00,0.0295
943.00,0.0295
942.00,0.0296
941.00,0.0296
940.00,0.0297
939.00,0.0298
938.00,0.0300
937.00,0.0301
936.00,0.0302
935.00,0.0303
934.00,0.0303
933.00,0.0303
932.00,0.0303
931.00,0.0302
930.00,0.0302
929.00,0.0301
928.00,0.0300
927.00,0.0299
926.00,0.0298
925.00,0.0297
924.00,0.0295
923.00,0.0293
922.00,0.0292
921.00,0.0290
920.00,0.0288
919.00,0.0286
918.00,0.0285
917.00,0.0284
916.00,0.0282
915.00,0.0280
914.00,0.0279
913.00,0.0279
912.00,0.0278
911.00,0.0278
910.00,0.0279
909.00,0.0279
908.00,0.0280
907.00,0.0281
906.00,0.0282
905.00,0.0284
904.00,0.0284
903.00,0.0285
902.00,0.0286
901.00,0.0287
900.00,0.0286
899.00,0.0285
898.00,0.0285
897.00,0.0286
896.00,0.0285
895.00,0.0285
894.00,0.0285
893.00,0.0284
892.00,0.0282
891.00,0.0280
890.00,0.0278
889.00,0.0277
888.00,0.0275
887.00,0.0275
886.00,0.0276
885.00,0.0277
884.00,0.0277
883.00,0.0275
882.00,0.0274
881.00,0.0272
880.00,0.0271
879.00,0.0270
878.00,0.0269
877.00,0.0269
876.00,0.0268
875.00,0.0267
874.00,0.0266
873.00,0.0265
872.00,0.0263
871.00,0.0261
870.00,0.0260
869.00,0.0259
868.00,0.0258
867.00,0.0257
866.00,0.0256
865.00,0.0255
864.00,0.0254
863.00,0.0252
862.00,0.0252
861.00,0.0252
860.00,0.0252
859.00,0.0252
858.00,0.0252
857.00,0.0252
856.00,0.0252
855.00,0.0252
854.00,0.0253
853.00,0.0254
852.00,0.0254
851.00,0.0254
850.00,0.0254
849.00,0.0254
848.00,0.0253
847.00,0.0254
846.00,0.0256
845.00,0.0257
844.00,0.0257
843.00,0.0257
842.00,0.0259
841.00,0.0260
840.00,0.0262
839.00,0.0264
838.00,0.0266
837.00,0.0268
836.00,0.0270
835.00,0.0272
834.00,0.0275
833.00,0.0277
832.00,0.0279
831.00,0.0281
830.00,0.0283
829.00,0.0285
828.00,0.0287
827.00,0.0288
826.00,0.0289
825.00,0.0291
824.00,0.0291
823.00,0.0292
822.00,0.0293
821.00,0.0293
820.00,0.0294
819.00,0.0295
818.00,0.0297
817.00,0.0299
816.00,0.0301
815.00,0.0303
814.00,0.0305
813.00,0.0307
812.00,0.0308
811.00,0.0310
810.00,0.0312
809.00,0.0314
808.00,0.0316
807.00,0.0317
806.00,0.0319
805.00,0.0320
804.00,0.0321
803.00,0.0322
802.00,0.0322
801.00,0.0323
800.00,0.0322
799.00,0.0323
798.00,0.0325
797.00,0.0327
796.00,0.0329
795.00,0.0331
794.00,0.0332
793.00,0.0333
792.00,0.0334
791.00,0.0335
790.00,0.0338
789.00,0.0340
788.00,0.0342
787.00,0.0344
786.00,0.0347
785.00,0.0350
784.00,0.0352
783.00,0.0355
782.00,0.0358
781.00,0.0361
780.00,0.0363
779.00,0.0366
778.00,0.0369
777.00,0.0373
776.00,0.0376
775.00,0.0379
774.00,0.0383
773.00,0.0386
772.00,0.0388
771.00,0.0390
770.00,0.0393
769.00,0.0396
768.00,0.0397
767.00,0.0399
766.00,0.0401
765.00,0.0404
764.00,0.0406
763.00,0.0407
762.00,0.0409
761.00,0.0411
760.00,0.0413
759.00,0.0415
758.00,0.0417
757.00,0.0420
756.00,0.0422
755.00,0.0424
754.00,0.0427
753.00,0.0430
752.00,0.0432
751.00,0.0435
750.00,0.0440
749.00,0.0444
748.00,0.0446
747.00,0.0450
746.00,0.0453
745.00,0.0457
744.00,0.0459
743.00,0.0462
742.00,0.0465
741.00,0.0468
740.00,0.0470
739.00,0.0471
738.00,0.0473
737.00,0.0474
736.00,0.0473
735.00,0.0473
734.00,0.0473
733.00,0.0474
732.00,0.0475
731.00,0.0477
730.00,0.0481
729.00,0.0484
728.00,0.0487
727.00,0.0491
726.00,0.0495
725.00,0.0500
724.00,0.0505
723.00,0.0511
722.00,0.0518
721.00,0.0526
720.00,0.0532
719.00,0.0539
718.00,0.0545
717.00,0.0551
716.00,0.0557
715.00,0.0564
714.00,0.0571
713.00,0.0579
712.00,0.0586
711.00,0.0593
710.00,0.0600
709.00,0.0608
708.00,0.0616
707.00,0.0624
706.00,0.0633
705.00,0.0642
704.00,0.0650
703.00,0.0657
702.00,0.0665
701.00,0.0671
700.00,0.0675
699.00,0.0678
698.00,0.0681
697.00,0.0683
696.00,0.0683
695.00,0.0683
694.00,0.0683
693.00,0.0682
692.00,0.0681
691.00,0.0681
690.00,0.0682
689.00,0.0683
688.00,0.0684
687.00,0.0686
686.00,0.0688
685.00,0.0689
684.00,0.0691
683.00,0.0692
682.00,0.0694
681.00,0.0696
680.00,0.0697
679.00,0.0699
678.00,0.0701
677.00,0.0703
676.00,0.0704
675.00,0.0706
674.00,0.0708
673.00,0.0711
672.00,0.0711
671.00,0.0712
670.00,0.0713
669.00,0.0717
668.00,0.0723
667.00,0.0729
666.00,0.0731
665.00,0.0731
664.00,0.0730
663.00,0.0730
662.00,0.0732
661.00,0.0734
660.00,0.0735
659.00,0.0737
658.00,0.0738
657.00,0.0740
656.00,0.0740
655.00,0.0741
654.00,0.0744
653.00,0.0746
652.00,0.0747
651.00,0.0749
650.00,0.0751
649.00,0.0754
648.00,0.0756
647.00,0.0758
646.00,0.0761
645.00,0.0764
644.00,0.0766
643.00,0.0769
642.00,0.0773
641.00,0.0777
640.00,0.0779
639.00,0.0781
638.00,0.0784
637.00,0.0787
636.00,0.0789
635.00,0.0792
634.00,0.0796
633.00,0.0798
632.00,0.0800
631.00,0.0801
630.00,0.0804
629.00,0.0808
628.00,0.0810
627.00,0.0812
626.00,0.0815
625.00,0.0817
624.00,0.0819
623.00,0.0820
622.00,0.0821
621.00,0.0822
620.00,0.0821
619.00,0.0820
618.00,0.0821
617.00,0.0822
616.00,0.0822
615.00,0.0822
614.00,0.0823
613.00,0.0823
612.00,0.0822
611.00,0.0822
610.00,0.0823
609.00,0.0823
608.00,0.0821
607.00,0.0821
606.00,0.0822
605.00,0.0823
604.00,0.0824
603.00,0.0824
602.00,0.0826
601.00,0.0828
600.00,0.0828
599.00,0.0829
598.00,0.0830
597.00,0.0831
596.00,0.0830
595.00,0.0831
594.00,0.0834
593.00,0.0836
592.00,0.0838
591.00,0.0839
590.00,0.0841
589.00,0.0842
588.00,0.0842
587.00,0.0842
586.00,0.0843
585.00,0.0844
584.00,0.0844
583.00,0.0845
582.00,0.0847
581.00,0.0849
580.00,0.0850
579.00,0.0851
578.00,0.0854
577.00,0.0856
576.00,0.0855
575.00,0.0855
574.00,0.0856
573.00,0.0856
572.00,0.0857
571.00,0.0859
570.00,0.0863
569.00,0.0866
568.00,0.0865
567.00,0.0864
566.00,0.0866
565.00,0.0869
564.00,0.0870
563.00,0.0872
562.00,0.0874
561.00,0.0876
560.00,0.0876
559.00,0.0877
558.00,0.0880
557.00,0.0882
556.00,0.0882
555.00,0.0882
554.00,0.0884
553.00,0.0886
552.00,0.0886
551.00,0.0887
550.00,0.0888
549.00,0.0891
548.00,0.0892
547.00,0.0893
546.00,0.0896
545.00,0.0898
544.00,0.0898
543.00,0.0899
542.00,0.0902
541.00,0.0903
540.00,0.0903
539.00,0.0904
538.00,0.0908
537.00,0.0911
536.00,0.0913
535.00,0.0915
534.00,0.0919
533.00,0.0924
532.00,0.0927
531.00,0.0931
530.00,0.0935
529.00,0.0936
528.00,0.0934
527.00,0.0933
526.00,0.0937
525.00,0.0943
524.00,0.0946
523.00,0.0947
522.00,0.0948
521.00,0.0946
520.00,0.0942
519.00,0.0939
518.00,0.0940
517.00,0.0941
516.00,0.0939
515.00,0.0937
514.00,0.0936
513.00,0.0935
512.00,0.0931
511.00,0.0929
510.00,0.0930
509.00,0.0929
508.00,0.0925
507.00,0.0921
506.00,0.0919
505.00,0.0917
504.00,0.0914
503.00,0.0913
502.00,0.0914
501.00,0.0914
500.00,0.0911
499.00,0.0908
498.00,0.0908
497.00,0.0908
496.00,0.0906
495.00,0.0905
494.00,0.0908
493.00,0.0911
492.00,0.0911
491.00,0.0910
490.00,0.0911
489.00,0.0911
488.00,0.0908
487.00,0.0907
486.00,0.0910
485.00,0.0913
484.00,0.0912
483.00,0.0909
482.00,0.0908
481.00,0.0905
480.00,0.0900
479.00,0.0900
478.00,0.0904
477.00,0.0908
476.00,0.0906
475.00,0.0903
474.00,0.0904
473.00,0.0907
472.00,0.0908
471.00,0.0912
470.00,0.0917
469.00,0.0918
468.00,0.0912
467.00,0.0908
466.00,0.0910
465.00,0.0913
464.00,0.0911
463.00,0.0909
462.00,0.0910
461.00,0.0908
460.00,0.0903
459.00,0.0900
458.00,0.0904
457.00,0.0908
456.00,0.0904
455.00,0.0899
454.00,0.0897
453.00,0.0896
452.00,0.0892
451.00,0.0890
450.00,0.0891
449.00,0.0888
448.00,0.0879
447.00,0.0870
446.00,0.0869
445.00,0.0868
444.00,0.0864
443.00,0.0859
442.00,0.0858
441.00,0.0853
440.00,0.0842
439.00,0.0831
438.00,0.0826
437.00,0.0822
436.00,0.0813
435.00,0.0805
434.00,0.0802
433.00,0.0798
432.00,0.0789
431.00,0.0781
430.00,0.0781
429.00,0.0781
428.00,0.0775
427.00,0.0771
426.00,0.0771
425.00,0.0770
424.00,0.0762
423.00,0.0755
422.00,0.0757
421.00,0.0758
420.00,0.0749
419.00,0.0741
418.00,0.0744
417.00,0.0749
416.00,0.0747
415.00,0.0749
414.00,0.0758
413.00,0.0766
412.00,0.0762
411.00,0.0758
410.00,0.0759
409.00,0.0753
408.00,0.0735
407.00,0.0725
406.00,0.0732
405.00,0.0738
404.00,0.0727
403.00,0.0714
402.00,0.0712
401.00,0.0704
400.00,0.0675
