Created as New Dataset,Sample 468 By YargerLab Date Saturday, March 01 2025
cm-1,A
4000.00,-0.0091
3999.00,-0.0091
3998.00,-0.0091
3997.00,-0.0091
3996.00,-0.0091
3995.00,-0.0091
3994.00,-0.0091
3993.00,-0.0091
3992.00,-0.0091
3991.00,-0.0091
3990.00,-0.0091
3989.00,-0.0091
3988.00,-0.0091
3987.00,-0.0091
3986.00,-0.0091
3985.00,-0.0091
3984.00,-0.0091
3983.00,-0.0091
3982.00,-0.0091
3981.00,-0.0091
3980.00,-0.0091
3979.00,-0.0091
3978.00,-0.0091
3977.00,-0.0091
3976.00,-0.0091
3975.00,-0.0091
3974.00,-0.0091
3973.00,-0.0091
3972.00,-0.0092
3971.00,-0.0092
3970.00,-0.0092
3969.00,-0.0092
3968.00,-0.0092
3967.00,-0.0092
3966.00,-0.0092
3965.00,-0.0092
3964.00,-0.0092
3963.00,-0.0092
3962.00,-0.0092
3961.00,-0.0092
3960.00,-0.0092
3959.00,-0.0092
3958.00,-0.0092
3957.00,-0.0092
3956.00,-0.0092
3955.00,-0.0092
3954.00,-0.0092
3953.00,-0.0092
3952.00,-0.0093
3951.00,-0.0092
3950.00,-0.0092
3949.00,-0.0092
3948.00,-0.0092
3947.00,-0.0092
3946.00,-0.0092
3945.00,-0.0092
3944.00,-0.0092
3943.00,-0.0092
3942.00,-0.0092
3941.00,-0.0092
3940.00,-0.0093
3939.00,-0.0093
3938.00,-0.0093
3937.00,-0.0094
3936.00,-0.0094
3935.00,-0.0094
3934.00,-0.0093
3933.00,-0.0093
3932.00,-0.0093
3931.00,-0.0093
3930.00,-0.0093
3929.00,-0.0093
3928.00,-0.0093
3927.00,-0.0093
3926.00,-0.0093
3925.00,-0.0094
3924.00,-0.0094
3923.00,-0.0094
3922.00,-0.0094
3921.00,-0.0094
3920.00,-0.0094
3919.00,-0.0094
3918.00,-0.0094
3917.00,-0.0094
3916.00,-0.0094
3915.00,-0.0094
3914.00,-0.0094
3913.00,-0.0094
3912.00,-0.0094
3911.00,-0.0094
3910.00,-0.0094
3909.00,-0.0094
3908.00,-0.0095
3907.00,-0.0095
3906.00,-0.0095
3905.00,-0.0095
3904.00,-0.0095
3903.00,-0.0096
3902.00,-0.0096
3901.00,-0.0096
3900.00,-0.0096
3899.00,-0.0096
3898.00,-0.0096
3897.00,-0.0095
3896.00,-0.0096
3895.00,-0.0096
3894.00,-0.0096
3893.00,-0.0096
3892.00,-0.0096
3891.00,-0.0096
3890.00,-0.0096
3889.00,-0.0096
3888.00,-0.0095
3887.00,-0.0095
3886.00,-0.0095
3885.00,-0.0095
3884.00,-0.0096
3883.00,-0.0096
3882.00,-0.0096
3881.00,-0.0096
3880.00,-0.0096
3879.00,-0.0096
3878.00,-0.0096
3877.00,-0.0096
3876.00,-0.0096
3875.00,-0.0096
3874.00,-0.0096
3873.00,-0.0097
3872.00,-0.0097
3871.00,-0.0097
3870.00,-0.0097
3869.00,-0.0097
3868.00,-0.0098
3867.00,-0.0098
3866.00,-0.0098
3865.00,-0.0098
3864.00,-0.0098
3863.00,-0.0097
3862.00,-0.0097
3861.00,-0.0097
3860.00,-0.0097
3859.00,-0.0097
3858.00,-0.0097
3857.00,-0.0097
3856.00,-0.0098
3855.00,-0.0098
3854.00,-0.0098
3853.00,-0.0097
3852.00,-0.0097
3851.00,-0.0098
3850.00,-0.0098
3849.00,-0.0098
3848.00,-0.0098
3847.00,-0.0098
3846.00,-0.0098
3845.00,-0.0099
3844.00,-0.0099
3843.00,-0.0099
3842.00,-0.0099
3841.00,-0.0099
3840.00,-0.0099
3839.00,-0.0099
3838.00,-0.0099
3837.00,-0.0099
3836.00,-0.0100
3835.00,-0.0100
3834.00,-0.0100
3833.00,-0.0100
3832.00,-0.0099
3831.00,-0.0099
3830.00,-0.0099
3829.00,-0.0099
3828.00,-0.0099
3827.00,-0.0099
3826.00,-0.0099
3825.00,-0.0100
3824.00,-0.0100
3823.00,-0.0100
3822.00,-0.0100
3821.00,-0.0100
3820.00,-0.0100
3819.00,-0.0100
3818.00,-0.0100
3817.00,-0.0100
3816.00,-0.0100
3815.00,-0.0100
3814.00,-0.0100
3813.00,-0.0100
3812.00,-0.0100
3811.00,-0.0100
3810.00,-0.0100
3809.00,-0.0100
3808.00,-0.0100
3807.00,-0.0100
3806.00,-0.0101
3805.00,-0.0101
3804.00,-0.0101
3803.00,-0.0101
3802.00,-0.0100
3801.00,-0.0100
3800.00,-0.0100
3799.00,-0.0100
3798.00,-0.0100
3797.00,-0.0100
3796.00,-0.0100
3795.00,-0.0100
3794.00,-0.0101
3793.00,-0.0101
3792.00,-0.0101
3791.00,-0.0101
3790.00,-0.0101
3789.00,-0.0101
3788.00,-0.0101
3787.00,-0.0101
3786.00,-0.0101
3785.00,-0.0101
3784.00,-0.0101
3783.00,-0.0101
3782.00,-0.0101
3781.00,-0.0101
3780.00,-0.0100
3779.00,-0.0100
3778.00,-0.0101
3777.00,-0.0101
3776.00,-0.0101
3775.00,-0.0101
3774.00,-0.0101
3773.00,-0.0101
3772.00,-0.0101
3771.00,-0.0101
3770.00,-0.0102
3769.00,-0.0102
3768.00,-0.0101
3767.00,-0.0101
3766.00,-0.0101
3765.00,-0.0102
3764.00,-0.0102
3763.00,-0.0102
3762.00,-0.0102
3761.00,-0.0103
3760.00,-0.0103
3759.00,-0.0102
3758.00,-0.0102
3757.00,-0.0102
3756.00,-0.0102
3755.00,-0.0102
3754.00,-0.0102
3753.00,-0.0102
3752.00,-0.0102
3751.00,-0.0103
3750.00,-0.0103
3749.00,-0.0104
3748.00,-0.0104
3747.00,-0.0104
3746.00,-0.0103
3745.00,-0.0103
3744.00,-0.0103
3743.00,-0.0103
3742.00,-0.0103
3741.00,-0.0103
3740.00,-0.0103
3739.00,-0.0104
3738.00,-0.0104
3737.00,-0.0104
3736.00,-0.0104
3735.00,-0.0104
3734.00,-0.0104
3733.00,-0.0104
3732.00,-0.0103
3731.00,-0.0103
3730.00,-0.0103
3729.00,-0.0104
3728.00,-0.0104
3727.00,-0.0104
3726.00,-0.0104
3725.00,-0.0105
3724.00,-0.0105
3723.00,-0.0105
3722.00,-0.0104
3721.00,-0.0104
3720.00,-0.0104
3719.00,-0.0104
3718.00,-0.0104
3717.00,-0.0105
3716.00,-0.0105
3715.00,-0.0105
3714.00,-0.0105
3713.00,-0.0105
3712.00,-0.0105
3711.00,-0.0105
3710.00,-0.0104
3709.00,-0.0104
3708.00,-0.0103
3707.00,-0.0103
3706.00,-0.0104
3705.00,-0.0104
3704.00,-0.0104
3703.00,-0.0105
3702.00,-0.0105
3701.00,-0.0105
3700.00,-0.0105
3699.00,-0.0105
3698.00,-0.0105
3697.00,-0.0106
3696.00,-0.0106
3695.00,-0.0106
3694.00,-0.0106
3693.00,-0.0106
3692.00,-0.0106
3691.00,-0.0106
3690.00,-0.0106
3689.00,-0.0106
3688.00,-0.0107
3687.00,-0.0107
3686.00,-0.0107
3685.00,-0.0107
3684.00,-0.0108
3683.00,-0.0108
3682.00,-0.0109
3681.00,-0.0109
3680.00,-0.0110
3679.00,-0.0110
3678.00,-0.0111
3677.00,-0.0111
3676.00,-0.0111
3675.00,-0.0112
3674.00,-0.0112
3673.00,-0.0112
3672.00,-0.0112
3671.00,-0.0112
3670.00,-0.0112
3669.00,-0.0111
3668.00,-0.0111
3667.00,-0.0111
3666.00,-0.0110
3665.00,-0.0110
3664.00,-0.0110
3663.00,-0.0111
3662.00,-0.0111
3661.00,-0.0111
3660.00,-0.0111
3659.00,-0.0111
3658.00,-0.0111
3657.00,-0.0111
3656.00,-0.0111
3655.00,-0.0111
3654.00,-0.0112
3653.00,-0.0112
3652.00,-0.0112
3651.00,-0.0112
3650.00,-0.0112
3649.00,-0.0112
3648.00,-0.0111
3647.00,-0.0111
3646.00,-0.0110
3645.00,-0.0109
3644.00,-0.0109
3643.00,-0.0108
3642.00,-0.0108
3641.00,-0.0107
3640.00,-0.0107
3639.00,-0.0107
3638.00,-0.0107
3637.00,-0.0107
3636.00,-0.0107
3635.00,-0.0106
3634.00,-0.0106
3633.00,-0.0105
3632.00,-0.0104
3631.00,-0.0104
3630.00,-0.0103
3629.00,-0.0103
3628.00,-0.0103
3627.00,-0.0103
3626.00,-0.0102
3625.00,-0.0102
3624.00,-0.0102
3623.00,-0.0101
3622.00,-0.0101
3621.00,-0.0101
3620.00,-0.0100
3619.00,-0.0100
3618.00,-0.0100
3617.00,-0.0100
3616.00,-0.0100
3615.00,-0.0100
3614.00,-0.0100
3613.00,-0.0100
3612.00,-0.0100
3611.00,-0.0100
3610.00,-0.0099
3609.00,-0.0099
3608.00,-0.0099
3607.00,-0.0099
3606.00,-0.0098
3605.00,-0.0098
3604.00,-0.0098
3603.00,-0.0098
3602.00,-0.0098
3601.00,-0.0097
3600.00,-0.0097
3599.00,-0.0097
3598.00,-0.0097
3597.00,-0.0096
3596.00,-0.0096
3595.00,-0.0096
3594.00,-0.0096
3593.00,-0.0096
3592.00,-0.0095
3591.00,-0.0095
3590.00,-0.0095
3589.00,-0.0094
3588.00,-0.0094
3587.00,-0.0094
3586.00,-0.0094
3585.00,-0.0094
3584.00,-0.0094
3583.00,-0.0094
3582.00,-0.0094
3581.00,-0.0094
3580.00,-0.0094
3579.00,-0.0094
3578.00,-0.0093
3577.00,-0.0093
3576.00,-0.0093
3575.00,-0.0092
3574.00,-0.0092
3573.00,-0.0092
3572.00,-0.0092
3571.00,-0.0092
3570.00,-0.0093
3569.00,-0.0093
3568.00,-0.0092
3567.00,-0.0092
3566.00,-0.0092
3565.00,-0.0091
3564.00,-0.0091
3563.00,-0.0091
3562.00,-0.0090
3561.00,-0.0090
3560.00,-0.0090
3559.00,-0.0090
3558.00,-0.0090
3557.00,-0.0090
3556.00,-0.0089
3555.00,-0.0089
3554.00,-0.0089
3553.00,-0.0089
3552.00,-0.0089
3551.00,-0.0089
3550.00,-0.0089
3549.00,-0.0089
3548.00,-0.0089
3547.00,-0.0089
3546.00,-0.0089
3545.00,-0.0088
3544.00,-0.0088
3543.00,-0.0087
3542.00,-0.0087
3541.00,-0.0087
3540.00,-0.0087
3539.00,-0.0087
3538.00,-0.0087
3537.00,-0.0086
3536.00,-0.0086
3535.00,-0.0086
3534.00,-0.0086
3533.00,-0.0086
3532.00,-0.0086
3531.00,-0.0085
3530.00,-0.0085
3529.00,-0.0085
3528.00,-0.0085
3527.00,-0.0085
3526.00,-0.0084
3525.00,-0.0084
3524.00,-0.0084
3523.00,-0.0084
3522.00,-0.0084
3521.00,-0.0083
3520.00,-0.0083
3519.00,-0.0083
3518.00,-0.0082
3517.00,-0.0082
3516.00,-0.0082
3515.00,-0.0082
3514.00,-0.0082
3513.00,-0.0082
3512.00,-0.0082
3511.00,-0.0082
3510.00,-0.0081
3509.00,-0.0081
3508.00,-0.0080
3507.00,-0.0080
3506.00,-0.0080
3505.00,-0.0080
3504.00,-0.0079
3503.00,-0.0079
3502.00,-0.0079
3501.00,-0.0079
3500.00,-0.0079
3499.00,-0.0078
3498.00,-0.0078
3497.00,-0.0077
3496.00,-0.0077
3495.00,-0.0077
3494.00,-0.0077
3493.00,-0.0076
3492.00,-0.0076
3491.00,-0.0075
3490.00,-0.0075
3489.00,-0.0074
3488.00,-0.0074
3487.00,-0.0074
3486.00,-0.0074
3485.00,-0.0074
3484.00,-0.0073
3483.00,-0.0073
3482.00,-0.0073
3481.00,-0.0072
3480.00,-0.0072
3479.00,-0.0071
3478.00,-0.0071
3477.00,-0.0071
3476.00,-0.0071
3475.00,-0.0070
3474.00,-0.0070
3473.00,-0.0070
3472.00,-0.0069
3471.00,-0.0069
3470.00,-0.0068
3469.00,-0.0068
3468.00,-0.0067
3467.00,-0.0067
3466.00,-0.0067
3465.00,-0.0067
3464.00,-0.0067
3463.00,-0.0067
3462.00,-0.0066
3461.00,-0.0066
3460.00,-0.0065
3459.00,-0.0065
3458.00,-0.0065
3457.00,-0.0064
3456.00,-0.0064
3455.00,-0.0064
3454.00,-0.0063
3453.00,-0.0063
3452.00,-0.0063
3451.00,-0.0062
3450.00,-0.0062
3449.00,-0.0061
3448.00,-0.0061
3447.00,-0.0060
3446.00,-0.0060
3445.00,-0.0059
3444.00,-0.0059
3443.00,-0.0059
3442.00,-0.0059
3441.00,-0.0059
3440.00,-0.0058
3439.00,-0.0057
3438.00,-0.0056
3437.00,-0.0055
3436.00,-0.0054
3435.00,-0.0054
3434.00,-0.0054
3433.00,-0.0054
3432.00,-0.0053
3431.00,-0.0053
3430.00,-0.0052
3429.00,-0.0051
3428.00,-0.0051
3427.00,-0.0050
3426.00,-0.0050
3425.00,-0.0049
3424.00,-0.0048
3423.00,-0.0048
3422.00,-0.0047
3421.00,-0.0047
3420.00,-0.0047
3419.00,-0.0046
3418.00,-0.0046
3417.00,-0.0045
3416.00,-0.0045
3415.00,-0.0044
3414.00,-0.0044
3413.00,-0.0043
3412.00,-0.0043
3411.00,-0.0042
3410.00,-0.0042
3409.00,-0.0041
3408.00,-0.0041
3407.00,-0.0040
3406.00,-0.0040
3405.00,-0.0039
3404.00,-0.0038
3403.00,-0.0037
3402.00,-0.0037
3401.00,-0.0036
3400.00,-0.0036
3399.00,-0.0035
3398.00,-0.0035
3397.00,-0.0034
3396.00,-0.0033
3395.00,-0.0033
3394.00,-0.0032
3393.00,-0.0031
3392.00,-0.0030
3391.00,-0.0030
3390.00,-0.0029
3389.00,-0.0029
3388.00,-0.0029
3387.00,-0.0028
3386.00,-0.0028
3385.00,-0.0027
3384.00,-0.0026
3383.00,-0.0026
3382.00,-0.0025
3381.00,-0.0024
3380.00,-0.0023
3379.00,-0.0023
3378.00,-0.0022
3377.00,-0.0021
3376.00,-0.0020
3375.00,-0.0019
3374.00,-0.0018
3373.00,-0.0017
3372.00,-0.0017
3371.00,-0.0016
3370.00,-0.0015
3369.00,-0.0014
3368.00,-0.0013
3367.00,-0.0011
3366.00,-0.0010
3365.00,-0.0009
3364.00,-0.0008
3363.00,-0.0007
3362.00,-0.0006
3361.00,-0.0005
3360.00,-0.0004
3359.00,-0.0003
3358.00,-0.0002
3357.00,-0.0000
3356.00,0.0001
3355.00,0.0002
3354.00,0.0003
3353.00,0.0004
3352.00,0.0006
3351.00,0.0007
3350.00,0.0008
3349.00,0.0010
3348.00,0.0011
3347.00,0.0013
3346.00,0.0014
3345.00,0.0016
3344.00,0.0017
3343.00,0.0019
3342.00,0.0020
3341.00,0.0022
3340.00,0.0023
3339.00,0.0025
3338.00,0.0026
3337.00,0.0028
3336.00,0.0030
3335.00,0.0032
3334.00,0.0034
3333.00,0.0036
3332.00,0.0037
3331.00,0.0039
3330.00,0.0041
3329.00,0.0043
3328.00,0.0045
3327.00,0.0047
3326.00,0.0049
3325.00,0.0051
3324.00,0.0053
3323.00,0.0055
3322.00,0.0057
3321.00,0.0059
3320.00,0.0062
3319.00,0.0064
3318.00,0.0066
3317.00,0.0068
3316.00,0.0071
3315.00,0.0073
3314.00,0.0076
3313.00,0.0078
3312.00,0.0081
3311.00,0.0084
3310.00,0.0086
3309.00,0.0089
3308.00,0.0091
3307.00,0.0094
3306.00,0.0097
3305.00,0.0099
3304.00,0.0102
3303.00,0.0105
3302.00,0.0108
3301.00,0.0111
3300.00,0.0113
3299.00,0.0116
3298.00,0.0119
3297.00,0.0121
3296.00,0.0124
3295.00,0.0127
3294.00,0.0130
3293.00,0.0132
3292.00,0.0135
3291.00,0.0137
3290.00,0.0140
3289.00,0.0142
3288.00,0.0144
3287.00,0.0146
3286.00,0.0148
3285.00,0.0150
3284.00,0.0152
3283.00,0.0154
3282.00,0.0156
3281.00,0.0157
3280.00,0.0158
3279.00,0.0159
3278.00,0.0160
3277.00,0.0161
3276.00,0.0161
3275.00,0.0162
3274.00,0.0163
3273.00,0.0163
3272.00,0.0163
3271.00,0.0163
3270.00,0.0162
3269.00,0.0161
3268.00,0.0160
3267.00,0.0159
3266.00,0.0158
3265.00,0.0157
3264.00,0.0155
3263.00,0.0153
3262.00,0.0152
3261.00,0.0150
3260.00,0.0149
3259.00,0.0147
3258.00,0.0145
3257.00,0.0143
3256.00,0.0141
3255.00,0.0138
3254.00,0.0136
3253.00,0.0134
3252.00,0.0132
3251.00,0.0129
3250.00,0.0127
3249.00,0.0125
3248.00,0.0124
3247.00,0.0122
3246.00,0.0120
3245.00,0.0118
3244.00,0.0116
3243.00,0.0114
3242.00,0.0112
3241.00,0.0111
3240.00,0.0109
3239.00,0.0107
3238.00,0.0105
3237.00,0.0104
3236.00,0.0102
3235.00,0.0100
3234.00,0.0099
3233.00,0.0097
3232.00,0.0096
3231.00,0.0094
3230.00,0.0093
3229.00,0.0091
3228.00,0.0090
3227.00,0.0088
3226.00,0.0087
3225.00,0.0086
3224.00,0.0085
3223.00,0.0084
3222.00,0.0082
3221.00,0.0081
3220.00,0.0080
3219.00,0.0078
3218.00,0.0077
3217.00,0.0075
3216.00,0.0074
3215.00,0.0073
3214.00,0.0072
3213.00,0.0071
3212.00,0.0071
3211.00,0.0070
3210.00,0.0068
3209.00,0.0067
3208.00,0.0066
3207.00,0.0065
3206.00,0.0064
3205.00,0.0063
3204.00,0.0062
3203.00,0.0061
3202.00,0.0060
3201.00,0.0059
3200.00,0.0057
3199.00,0.0056
3198.00,0.0056
3197.00,0.0055
3196.00,0.0055
3195.00,0.0054
3194.00,0.0052
3193.00,0.0051
3192.00,0.0050
3191.00,0.0049
3190.00,0.0048
3189.00,0.0047
3188.00,0.0046
3187.00,0.0045
3186.00,0.0044
3185.00,0.0043
3184.00,0.0041
3183.00,0.0040
3182.00,0.0038
3181.00,0.0037
3180.00,0.0036
3179.00,0.0034
3178.00,0.0033
3177.00,0.0032
3176.00,0.0030
3175.00,0.0029
3174.00,0.0028
3173.00,0.0027
3172.00,0.0026
3171.00,0.0025
3170.00,0.0024
3169.00,0.0023
3168.00,0.0022
3167.00,0.0020
3166.00,0.0019
3165.00,0.0018
3164.00,0.0017
3163.00,0.0016
3162.00,0.0015
3161.00,0.0014
3160.00,0.0013
3159.00,0.0012
3158.00,0.0010
3157.00,0.0009
3156.00,0.0008
3155.00,0.0007
3154.00,0.0006
3153.00,0.0005
3152.00,0.0005
3151.00,0.0003
3150.00,0.0002
3149.00,0.0001
3148.00,-0.0000
3147.00,-0.0001
3146.00,-0.0002
3145.00,-0.0003
3144.00,-0.0003
3143.00,-0.0004
3142.00,-0.0005
3141.00,-0.0005
3140.00,-0.0006
3139.00,-0.0007
3138.00,-0.0008
3137.00,-0.0008
3136.00,-0.0009
3135.00,-0.0010
3134.00,-0.0011
3133.00,-0.0012
3132.00,-0.0013
3131.00,-0.0013
3130.00,-0.0013
3129.00,-0.0014
3128.00,-0.0014
3127.00,-0.0015
3126.00,-0.0016
3125.00,-0.0016
3124.00,-0.0017
3123.00,-0.0017
3122.00,-0.0018
3121.00,-0.0019
3120.00,-0.0019
3119.00,-0.0020
3118.00,-0.0021
3117.00,-0.0021
3116.00,-0.0021
3115.00,-0.0021
3114.00,-0.0021
3113.00,-0.0021
3112.00,-0.0021
3111.00,-0.0021
3110.00,-0.0022
3109.00,-0.0022
3108.00,-0.0022
3107.00,-0.0022
3106.00,-0.0022
3105.00,-0.0021
3104.00,-0.0021
3103.00,-0.0021
3102.00,-0.0021
3101.00,-0.0021
3100.00,-0.0022
3099.00,-0.0022
3098.00,-0.0022
3097.00,-0.0021
3096.00,-0.0021
3095.00,-0.0021
3094.00,-0.0021
3093.00,-0.0021
3092.00,-0.0021
3091.00,-0.0020
3090.00,-0.0020
3089.00,-0.0019
3088.00,-0.0019
3087.00,-0.0019
3086.00,-0.0019
3085.00,-0.0019
3084.00,-0.0018
3083.00,-0.0018
3082.00,-0.0018
3081.00,-0.0018
3080.00,-0.0018
3079.00,-0.0018
3078.00,-0.0018
3077.00,-0.0017
3076.00,-0.0017
3075.00,-0.0016
3074.00,-0.0016
3073.00,-0.0016
3072.00,-0.0016
3071.00,-0.0016
3070.00,-0.0016
3069.00,-0.0016
3068.00,-0.0016
3067.00,-0.0016
3066.00,-0.0016
3065.00,-0.0017
3064.00,-0.0017
3063.00,-0.0017
3062.00,-0.0017
3061.00,-0.0017
3060.00,-0.0017
3059.00,-0.0017
3058.00,-0.0018
3057.00,-0.0019
3056.00,-0.0020
3055.00,-0.0020
3054.00,-0.0021
3053.00,-0.0021
3052.00,-0.0022
3051.00,-0.0022
3050.00,-0.0023
3049.00,-0.0024
3048.00,-0.0026
3047.00,-0.0027
3046.00,-0.0028
3045.00,-0.0029
3044.00,-0.0030
3043.00,-0.0031
3042.00,-0.0032
3041.00,-0.0033
3040.00,-0.0033
3039.00,-0.0034
3038.00,-0.0035
3037.00,-0.0036
3036.00,-0.0037
3035.00,-0.0038
3034.00,-0.0039
3033.00,-0.0040
3032.00,-0.0041
3031.00,-0.0042
3030.00,-0.0042
3029.00,-0.0043
3028.00,-0.0044
3027.00,-0.0045
3026.00,-0.0047
3025.00,-0.0048
3024.00,-0.0049
3023.00,-0.0049
3022.00,-0.0051
3021.00,-0.0052
3020.00,-0.0053
3019.00,-0.0055
3018.00,-0.0056
3017.00,-0.0058
3016.00,-0.0059
3015.00,-0.0060
3014.00,-0.0062
3013.00,-0.0063
3012.00,-0.0064
3011.00,-0.0065
3010.00,-0.0066
3009.00,-0.0068
3008.00,-0.0070
3007.00,-0.0072
3006.00,-0.0074
3005.00,-0.0076
3004.00,-0.0078
3003.00,-0.0081
3002.00,-0.0083
3001.00,-0.0085
3000.00,-0.0088
2999.00,-0.0090
2998.00,-0.0092
2997.00,-0.0093
2996.00,-0.0094
2995.00,-0.0095
2994.00,-0.0095
2993.00,-0.0096
2992.00,-0.0097
2991.00,-0.0097
2990.00,-0.0097
2989.00,-0.0097
2988.00,-0.0097
2987.00,-0.0098
2986.00,-0.0100
2985.00,-0.0104
2984.00,-0.0109
2983.00,-0.0114
2982.00,-0.0117
2981.00,-0.0118
2980.00,-0.0116
2979.00,-0.0112
2978.00,-0.0107
2977.00,-0.0103
2976.00,-0.0100
2975.00,-0.0097
2974.00,-0.0096
2973.00,-0.0095
2972.00,-0.0094
2971.00,-0.0091
2970.00,-0.0088
2969.00,-0.0084
2968.00,-0.0080
2967.00,-0.0077
2966.00,-0.0075
2965.00,-0.0072
2964.00,-0.0070
2963.00,-0.0068
2962.00,-0.0066
2961.00,-0.0064
2960.00,-0.0063
2959.00,-0.0062
2958.00,-0.0061
2957.00,-0.0060
2956.00,-0.0060
2955.00,-0.0060
2954.00,-0.0060
2953.00,-0.0060
2952.00,-0.0060
2951.00,-0.0060
2950.00,-0.0060
2949.00,-0.0060
2948.00,-0.0059
2947.00,-0.0058
2946.00,-0.0057
2945.00,-0.0056
2944.00,-0.0055
2943.00,-0.0053
2942.00,-0.0052
2941.00,-0.0050
2940.00,-0.0048
2939.00,-0.0046
2938.00,-0.0044
2937.00,-0.0042
2936.00,-0.0040
2935.00,-0.0038
2934.00,-0.0036
2933.00,-0.0034
2932.00,-0.0033
2931.00,-0.0031
2930.00,-0.0029
2929.00,-0.0027
2928.00,-0.0026
2927.00,-0.0025
2926.00,-0.0024
2925.00,-0.0023
2924.00,-0.0023
2923.00,-0.0023
2922.00,-0.0024
2921.00,-0.0025
2920.00,-0.0026
2919.00,-0.0028
2918.00,-0.0030
2917.00,-0.0033
2916.00,-0.0035
2915.00,-0.0038
2914.00,-0.0040
2913.00,-0.0043
2912.00,-0.0045
2911.00,-0.0048
2910.00,-0.0050
2909.00,-0.0052
2908.00,-0.0054
2907.00,-0.0056
2906.00,-0.0057
2905.00,-0.0059
2904.00,-0.0060
2903.00,-0.0061
2902.00,-0.0062
2901.00,-0.0063
2900.00,-0.0064
2899.00,-0.0065
2898.00,-0.0066
2897.00,-0.0067
2896.00,-0.0069
2895.00,-0.0070
2894.00,-0.0071
2893.00,-0.0072
2892.00,-0.0073
2891.00,-0.0074
2890.00,-0.0075
2889.00,-0.0076
2888.00,-0.0076
2887.00,-0.0076
2886.00,-0.0076
2885.00,-0.0076
2884.00,-0.0075
2883.00,-0.0074
2882.00,-0.0073
2881.00,-0.0072
2880.00,-0.0070
2879.00,-0.0069
2878.00,-0.0067
2877.00,-0.0066
2876.00,-0.0066
2875.00,-0.0065
2874.00,-0.0065
2873.00,-0.0065
2872.00,-0.0065
2871.00,-0.0065
2870.00,-0.0066
2869.00,-0.0066
2868.00,-0.0066
2867.00,-0.0067
2866.00,-0.0067
2865.00,-0.0067
2864.00,-0.0068
2863.00,-0.0067
2862.00,-0.0067
2861.00,-0.0067
2860.00,-0.0066
2859.00,-0.0065
2858.00,-0.0064
2857.00,-0.0063
2856.00,-0.0062
2855.00,-0.0061
2854.00,-0.0060
2853.00,-0.0060
2852.00,-0.0060
2851.00,-0.0061
2850.00,-0.0062
2849.00,-0.0064
2848.00,-0.0066
2847.00,-0.0068
2846.00,-0.0070
2845.00,-0.0072
2844.00,-0.0073
2843.00,-0.0075
2842.00,-0.0077
2841.00,-0.0078
2840.00,-0.0079
2839.00,-0.0080
2838.00,-0.0081
2837.00,-0.0082
2836.00,-0.0083
2835.00,-0.0084
2834.00,-0.0084
2833.00,-0.0084
2832.00,-0.0085
2831.00,-0.0085
2830.00,-0.0085
2829.00,-0.0086
2828.00,-0.0086
2827.00,-0.0086
2826.00,-0.0087
2825.00,-0.0087
2824.00,-0.0087
2823.00,-0.0087
2822.00,-0.0087
2821.00,-0.0088
2820.00,-0.0088
2819.00,-0.0089
2818.00,-0.0089
2817.00,-0.0089
2816.00,-0.0089
2815.00,-0.0090
2814.00,-0.0090
2813.00,-0.0090
2812.00,-0.0090
2811.00,-0.0090
2810.00,-0.0090
2809.00,-0.0091
2808.00,-0.0091
2807.00,-0.0091
2806.00,-0.0090
2805.00,-0.0090
2804.00,-0.0091
2803.00,-0.0091
2802.00,-0.0092
2801.00,-0.0093
2800.00,-0.0093
2799.00,-0.0094
2798.00,-0.0094
2797.00,-0.0094
2796.00,-0.0094
2795.00,-0.0094
2794.00,-0.0094
2793.00,-0.0094
2792.00,-0.0094
2791.00,-0.0095
2790.00,-0.0095
2789.00,-0.0095
2788.00,-0.0096
2787.00,-0.0096
2786.00,-0.0096
2785.00,-0.0096
2784.00,-0.0096
2783.00,-0.0096
2782.00,-0.0097
2781.00,-0.0097
2780.00,-0.0097
2779.00,-0.0098
2778.00,-0.0098
2777.00,-0.0098
2776.00,-0.0098
2775.00,-0.0098
2774.00,-0.0098
2773.00,-0.0099
2772.00,-0.0099
2771.00,-0.0099
2770.00,-0.0100
2769.00,-0.0100
2768.00,-0.0100
2767.00,-0.0100
2766.00,-0.0101
2765.00,-0.0101
2764.00,-0.0102
2763.00,-0.0102
2762.00,-0.0102
2761.00,-0.0102
2760.00,-0.0102
2759.00,-0.0102
2758.00,-0.0102
2757.00,-0.0103
2756.00,-0.0103
2755.00,-0.0103
2754.00,-0.0104
2753.00,-0.0104
2752.00,-0.0104
2751.00,-0.0104
2750.00,-0.0104
2749.00,-0.0105
2748.00,-0.0105
2747.00,-0.0106
2746.00,-0.0106
2745.00,-0.0106
2744.00,-0.0106
2743.00,-0.0107
2742.00,-0.0107
2741.00,-0.0107
2740.00,-0.0107
2739.00,-0.0108
2738.00,-0.0108
2737.00,-0.0108
2736.00,-0.0108
2735.00,-0.0108
2734.00,-0.0108
2733.00,-0.0109
2732.00,-0.0109
2731.00,-0.0109
2730.00,-0.0109
2729.00,-0.0109
2728.00,-0.0110
2727.00,-0.0110
2726.00,-0.0111
2725.00,-0.0111
2724.00,-0.0112
2723.00,-0.0112
2722.00,-0.0112
2721.00,-0.0113
2720.00,-0.0113
2719.00,-0.0113
2718.00,-0.0113
2717.00,-0.0113
2716.00,-0.0113
2715.00,-0.0113
2714.00,-0.0113
2713.00,-0.0114
2712.00,-0.0114
2711.00,-0.0114
2710.00,-0.0114
2709.00,-0.0114
2708.00,-0.0115
2707.00,-0.0115
2706.00,-0.0115
2705.00,-0.0116
2704.00,-0.0116
2703.00,-0.0116
2702.00,-0.0116
2701.00,-0.0117
2700.00,-0.0117
2699.00,-0.0117
2698.00,-0.0117
2697.00,-0.0117
2696.00,-0.0118
2695.00,-0.0118
2694.00,-0.0118
2693.00,-0.0118
2692.00,-0.0118
2691.00,-0.0119
2690.00,-0.0119
2689.00,-0.0120
2688.00,-0.0120
2687.00,-0.0120
2686.00,-0.0120
2685.00,-0.0120
2684.00,-0.0121
2683.00,-0.0121
2682.00,-0.0121
2681.00,-0.0121
2680.00,-0.0122
2679.00,-0.0122
2678.00,-0.0122
2677.00,-0.0122
2676.00,-0.0122
2675.00,-0.0122
2674.00,-0.0123
2673.00,-0.0123
2672.00,-0.0123
2671.00,-0.0124
2670.00,-0.0124
2669.00,-0.0124
2668.00,-0.0125
2667.00,-0.0125
2666.00,-0.0125
2665.00,-0.0125
2664.00,-0.0125
2663.00,-0.0125
2662.00,-0.0126
2661.00,-0.0126
2660.00,-0.0126
2659.00,-0.0126
2658.00,-0.0126
2657.00,-0.0126
2656.00,-0.0127
2655.00,-0.0127
2654.00,-0.0127
2653.00,-0.0127
2652.00,-0.0127
2651.00,-0.0127
2650.00,-0.0127
2649.00,-0.0127
2648.00,-0.0127
2647.00,-0.0127
2646.00,-0.0127
2645.00,-0.0128
2644.00,-0.0128
2643.00,-0.0128
2642.00,-0.0128
2641.00,-0.0128
2640.00,-0.0128
2639.00,-0.0128
2638.00,-0.0128
2637.00,-0.0128
2636.00,-0.0128
2635.00,-0.0128
2634.00,-0.0128
2633.00,-0.0128
2632.00,-0.0128
2631.00,-0.0128
2630.00,-0.0129
2629.00,-0.0129
2628.00,-0.0129
2627.00,-0.0130
2626.00,-0.0130
2625.00,-0.0129
2624.00,-0.0129
2623.00,-0.0129
2622.00,-0.0129
2621.00,-0.0129
2620.00,-0.0129
2619.00,-0.0129
2618.00,-0.0129
2617.00,-0.0128
2616.00,-0.0129
2615.00,-0.0129
2614.00,-0.0129
2613.00,-0.0129
2612.00,-0.0129
2611.00,-0.0129
2610.00,-0.0130
2609.00,-0.0130
2608.00,-0.0130
2607.00,-0.0130
2606.00,-0.0129
2605.00,-0.0129
2604.00,-0.0130
2603.00,-0.0130
2602.00,-0.0131
2601.00,-0.0131
2600.00,-0.0131
2599.00,-0.0131
2598.00,-0.0132
2597.00,-0.0132
2596.00,-0.0132
2595.00,-0.0132
2594.00,-0.0132
2593.00,-0.0132
2592.00,-0.0131
2591.00,-0.0131
2590.00,-0.0132
2589.00,-0.0132
2588.00,-0.0132
2587.00,-0.0132
2586.00,-0.0132
2585.00,-0.0132
2584.00,-0.0132
2583.00,-0.0133
2582.00,-0.0133
2581.00,-0.0133
2580.00,-0.0133
2579.00,-0.0133
2578.00,-0.0133
2577.00,-0.0133
2576.00,-0.0134
2575.00,-0.0134
2574.00,-0.0135
2573.00,-0.0135
2572.00,-0.0135
2571.00,-0.0135
2570.00,-0.0135
2569.00,-0.0135
2568.00,-0.0135
2567.00,-0.0135
2566.00,-0.0135
2565.00,-0.0134
2564.00,-0.0134
2563.00,-0.0134
2562.00,-0.0134
2561.00,-0.0135
2560.00,-0.0135
2559.00,-0.0135
2558.00,-0.0136
2557.00,-0.0137
2556.00,-0.0137
2555.00,-0.0138
2554.00,-0.0138
2553.00,-0.0138
2552.00,-0.0138
2551.00,-0.0138
2550.00,-0.0138
2549.00,-0.0139
2548.00,-0.0138
2547.00,-0.0138
2546.00,-0.0138
2545.00,-0.0139
2544.00,-0.0139
2543.00,-0.0139
2542.00,-0.0140
2541.00,-0.0140
2540.00,-0.0140
2539.00,-0.0140
2538.00,-0.0139
2537.00,-0.0140
2536.00,-0.0140
2535.00,-0.0141
2534.00,-0.0141
2533.00,-0.0142
2532.00,-0.0142
2531.00,-0.0141
2530.00,-0.0141
2529.00,-0.0140
2528.00,-0.0140
2527.00,-0.0140
2526.00,-0.0140
2525.00,-0.0141
2524.00,-0.0141
2523.00,-0.0141
2522.00,-0.0141
2521.00,-0.0141
2520.00,-0.0141
2519.00,-0.0141
2518.00,-0.0141
2517.00,-0.0141
2516.00,-0.0141
2515.00,-0.0141
2514.00,-0.0141
2513.00,-0.0142
2512.00,-0.0142
2511.00,-0.0143
2510.00,-0.0143
2509.00,-0.0143
2508.00,-0.0143
2507.00,-0.0144
2506.00,-0.0144
2505.00,-0.0144
2504.00,-0.0144
2503.00,-0.0144
2502.00,-0.0144
2501.00,-0.0144
2500.00,-0.0144
2499.00,-0.0143
2498.00,-0.0143
2497.00,-0.0143
2496.00,-0.0143
2495.00,-0.0144
2494.00,-0.0144
2493.00,-0.0144
2492.00,-0.0144
2491.00,-0.0144
2490.00,-0.0144
2489.00,-0.0145
2488.00,-0.0145
2487.00,-0.0145
2486.00,-0.0145
2485.00,-0.0145
2484.00,-0.0145
2483.00,-0.0145
2482.00,-0.0145
2481.00,-0.0145
2480.00,-0.0145
2479.00,-0.0145
2478.00,-0.0146
2477.00,-0.0146
2476.00,-0.0147
2475.00,-0.0147
2474.00,-0.0148
2473.00,-0.0148
2472.00,-0.0148
2471.00,-0.0147
2470.00,-0.0147
2469.00,-0.0147
2468.00,-0.0147
2467.00,-0.0147
2466.00,-0.0147
2465.00,-0.0148
2464.00,-0.0148
2463.00,-0.0148
2462.00,-0.0148
2461.00,-0.0148
2460.00,-0.0148
2459.00,-0.0149
2458.00,-0.0149
2457.00,-0.0149
2456.00,-0.0149
2455.00,-0.0149
2454.00,-0.0149
2453.00,-0.0149
2452.00,-0.0149
2451.00,-0.0149
2450.00,-0.0150
2449.00,-0.0150
2448.00,-0.0150
2447.00,-0.0150
2446.00,-0.0150
2445.00,-0.0150
2444.00,-0.0150
2443.00,-0.0151
2442.00,-0.0151
2441.00,-0.0150
2440.00,-0.0151
2439.00,-0.0151
2438.00,-0.0151
2437.00,-0.0152
2436.00,-0.0152
2435.00,-0.0152
2434.00,-0.0152
2433.00,-0.0153
2432.00,-0.0153
2431.00,-0.0152
2430.00,-0.0152
2429.00,-0.0152
2428.00,-0.0152
2427.00,-0.0153
2426.00,-0.0153
2425.00,-0.0153
2424.00,-0.0154
2423.00,-0.0154
2422.00,-0.0154
2421.00,-0.0154
2420.00,-0.0154
2419.00,-0.0154
2418.00,-0.0154
2417.00,-0.0154
2416.00,-0.0154
2415.00,-0.0154
2414.00,-0.0154
2413.00,-0.0155
2412.00,-0.0155
2411.00,-0.0154
2410.00,-0.0154
2409.00,-0.0154
2408.00,-0.0155
2407.00,-0.0155
2406.00,-0.0156
2405.00,-0.0156
2404.00,-0.0156
2403.00,-0.0157
2402.00,-0.0157
2401.00,-0.0157
2400.00,-0.0157
2399.00,-0.0157
2398.00,-0.0157
2397.00,-0.0158
2396.00,-0.0158
2395.00,-0.0158
2394.00,-0.0158
2393.00,-0.0158
2392.00,-0.0158
2391.00,-0.0158
2390.00,-0.0159
2389.00,-0.0159
2388.00,-0.0160
2387.00,-0.0160
2386.00,-0.0159
2385.00,-0.0159
2384.00,-0.0160
2383.00,-0.0160
2382.00,-0.0160
2381.00,-0.0160
2380.00,-0.0160
2379.00,-0.0160
2378.00,-0.0160
2377.00,-0.0161
2376.00,-0.0161
2375.00,-0.0161
2374.00,-0.0161
2373.00,-0.0161
2372.00,-0.0161
2371.00,-0.0162
2370.00,-0.0162
2369.00,-0.0162
2368.00,-0.0161
2367.00,-0.0161
2366.00,-0.0160
2365.00,-0.0160
2364.00,-0.0161
2363.00,-0.0162
2362.00,-0.0163
2361.00,-0.0164
2360.00,-0.0164
2359.00,-0.0164
2358.00,-0.0163
2357.00,-0.0164
2356.00,-0.0164
2355.00,-0.0164
2354.00,-0.0165
2353.00,-0.0165
2352.00,-0.0166
2351.00,-0.0167
2350.00,-0.0168
2349.00,-0.0169
2348.00,-0.0169
2347.00,-0.0167
2346.00,-0.0166
2345.00,-0.0164
2344.00,-0.0164
2343.00,-0.0164
2342.00,-0.0164
2341.00,-0.0164
2340.00,-0.0164
2339.00,-0.0165
2338.00,-0.0166
2337.00,-0.0166
2336.00,-0.0167
2335.00,-0.0167
2334.00,-0.0167
2333.00,-0.0168
2332.00,-0.0168
2331.00,-0.0168
2330.00,-0.0168
2329.00,-0.0169
2328.00,-0.0170
2327.00,-0.0170
2326.00,-0.0170
2325.00,-0.0169
2324.00,-0.0169
2323.00,-0.0169
2322.00,-0.0169
2321.00,-0.0169
2320.00,-0.0169
2319.00,-0.0169
2318.00,-0.0169
2317.00,-0.0169
2316.00,-0.0169
2315.00,-0.0169
2314.00,-0.0170
2313.00,-0.0169
2312.00,-0.0169
2311.00,-0.0169
2310.00,-0.0169
2309.00,-0.0170
2308.00,-0.0171
2307.00,-0.0171
2306.00,-0.0171
2305.00,-0.0172
2304.00,-0.0172
2303.00,-0.0171
2302.00,-0.0171
2301.00,-0.0170
2300.00,-0.0169
2299.00,-0.0169
2298.00,-0.0170
2297.00,-0.0171
2296.00,-0.0171
2295.00,-0.0172
2294.00,-0.0172
2293.00,-0.0172
2292.00,-0.0172
2291.00,-0.0172
2290.00,-0.0172
2289.00,-0.0172
2288.00,-0.0173
2287.00,-0.0173
2286.00,-0.0173
2285.00,-0.0173
2284.00,-0.0174
2283.00,-0.0174
2282.00,-0.0175
2281.00,-0.0175
2280.00,-0.0175
2279.00,-0.0174
2278.00,-0.0174
2277.00,-0.0174
2276.00,-0.0173
2275.00,-0.0173
2274.00,-0.0174
2273.00,-0.0174
2272.00,-0.0173
2271.00,-0.0172
2270.00,-0.0172
2269.00,-0.0172
2268.00,-0.0173
2267.00,-0.0173
2266.00,-0.0173
2265.00,-0.0173
2264.00,-0.0173
2263.00,-0.0173
2262.00,-0.0173
2261.00,-0.0173
2260.00,-0.0173
2259.00,-0.0174
2258.00,-0.0174
2257.00,-0.0175
2256.00,-0.0175
2255.00,-0.0175
2254.00,-0.0175
2253.00,-0.0175
2252.00,-0.0174
2251.00,-0.0174
2250.00,-0.0174
2249.00,-0.0174
2248.00,-0.0174
2247.00,-0.0174
2246.00,-0.0176
2245.00,-0.0177
2244.00,-0.0178
2243.00,-0.0179
2242.00,-0.0179
2241.00,-0.0179
2240.00,-0.0178
2239.00,-0.0178
2238.00,-0.0178
2237.00,-0.0178
2236.00,-0.0178
2235.00,-0.0178
2234.00,-0.0178
2233.00,-0.0179
2232.00,-0.0179
2231.00,-0.0179
2230.00,-0.0178
2229.00,-0.0178
2228.00,-0.0178
2227.00,-0.0178
2226.00,-0.0178
2225.00,-0.0177
2224.00,-0.0177
2223.00,-0.0176
2222.00,-0.0177
2221.00,-0.0177
2220.00,-0.0178
2219.00,-0.0179
2218.00,-0.0179
2217.00,-0.0179
2216.00,-0.0179
2215.00,-0.0179
2214.00,-0.0179
2213.00,-0.0179
2212.00,-0.0180
2211.00,-0.0180
2210.00,-0.0180
2209.00,-0.0180
2208.00,-0.0181
2207.00,-0.0183
2206.00,-0.0184
2205.00,-0.0185
2204.00,-0.0185
2203.00,-0.0184
2202.00,-0.0182
2201.00,-0.0181
2200.00,-0.0181
2199.00,-0.0181
2198.00,-0.0182
2197.00,-0.0183
2196.00,-0.0184
2195.00,-0.0184
2194.00,-0.0184
2193.00,-0.0183
2192.00,-0.0182
2191.00,-0.0182
2190.00,-0.0183
2189.00,-0.0185
2188.00,-0.0187
2187.00,-0.0187
2186.00,-0.0186
2185.00,-0.0184
2184.00,-0.0184
2183.00,-0.0185
2182.00,-0.0187
2181.00,-0.0189
2180.00,-0.0190
2179.00,-0.0189
2178.00,-0.0187
2177.00,-0.0185
2176.00,-0.0183
2175.00,-0.0182
2174.00,-0.0182
2173.00,-0.0182
2172.00,-0.0183
2171.00,-0.0184
2170.00,-0.0186
2169.00,-0.0186
2168.00,-0.0188
2167.00,-0.0189
2166.00,-0.0191
2165.00,-0.0191
2164.00,-0.0190
2163.00,-0.0188
2162.00,-0.0185
2161.00,-0.0183
2160.00,-0.0183
2159.00,-0.0184
2158.00,-0.0187
2157.00,-0.0188
2156.00,-0.0189
2155.00,-0.0190
2154.00,-0.0192
2153.00,-0.0193
2152.00,-0.0194
2151.00,-0.0193
2150.00,-0.0192
2149.00,-0.0191
2148.00,-0.0190
2147.00,-0.0189
2146.00,-0.0188
2145.00,-0.0188
2144.00,-0.0188
2143.00,-0.0189
2142.00,-0.0190
2141.00,-0.0190
2140.00,-0.0189
2139.00,-0.0188
2138.00,-0.0188
2137.00,-0.0189
2136.00,-0.0190
2135.00,-0.0191
2134.00,-0.0192
2133.00,-0.0193
2132.00,-0.0194
2131.00,-0.0194
2130.00,-0.0194
2129.00,-0.0193
2128.00,-0.0193
2127.00,-0.0192
2126.00,-0.0192
2125.00,-0.0192
2124.00,-0.0192
2123.00,-0.0192
2122.00,-0.0192
2121.00,-0.0192
2120.00,-0.0193
2119.00,-0.0194
2118.00,-0.0194
2117.00,-0.0194
2116.00,-0.0194
2115.00,-0.0194
2114.00,-0.0195
2113.00,-0.0195
2112.00,-0.0196
2111.00,-0.0196
2110.00,-0.0196
2109.00,-0.0195
2108.00,-0.0194
2107.00,-0.0194
2106.00,-0.0194
2105.00,-0.0194
2104.00,-0.0193
2103.00,-0.0193
2102.00,-0.0194
2101.00,-0.0195
2100.00,-0.0197
2099.00,-0.0198
2098.00,-0.0198
2097.00,-0.0198
2096.00,-0.0198
2095.00,-0.0198
2094.00,-0.0199
2093.00,-0.0199
2092.00,-0.0200
2091.00,-0.0201
2090.00,-0.0201
2089.00,-0.0201
2088.00,-0.0201
2087.00,-0.0201
2086.00,-0.0200
2085.00,-0.0200
2084.00,-0.0199
2083.00,-0.0199
2082.00,-0.0199
2081.00,-0.0200
2080.00,-0.0201
2079.00,-0.0201
2078.00,-0.0201
2077.00,-0.0201
2076.00,-0.0201
2075.00,-0.0201
2074.00,-0.0200
2073.00,-0.0201
2072.00,-0.0202
2071.00,-0.0203
2070.00,-0.0204
2069.00,-0.0204
2068.00,-0.0204
2067.00,-0.0204
2066.00,-0.0203
2065.00,-0.0203
2064.00,-0.0203
2063.00,-0.0204
2062.00,-0.0205
2061.00,-0.0205
2060.00,-0.0205
2059.00,-0.0205
2058.00,-0.0205
2057.00,-0.0205
2056.00,-0.0205
2055.00,-0.0205
2054.00,-0.0205
2053.00,-0.0206
2052.00,-0.0206
2051.00,-0.0205
2050.00,-0.0204
2049.00,-0.0204
2048.00,-0.0204
2047.00,-0.0205
2046.00,-0.0206
2045.00,-0.0206
2044.00,-0.0206
2043.00,-0.0206
2042.00,-0.0206
2041.00,-0.0207
2040.00,-0.0207
2039.00,-0.0206
2038.00,-0.0205
2037.00,-0.0205
2036.00,-0.0206
2035.00,-0.0208
2034.00,-0.0208
2033.00,-0.0208
2032.00,-0.0207
2031.00,-0.0206
2030.00,-0.0207
2029.00,-0.0209
2028.00,-0.0211
2027.00,-0.0213
2026.00,-0.0213
2025.00,-0.0212
2024.00,-0.0210
2023.00,-0.0209
2022.00,-0.0208
2021.00,-0.0210
2020.00,-0.0212
2019.00,-0.0214
2018.00,-0.0214
2017.00,-0.0213
2016.00,-0.0211
2015.00,-0.0211
2014.00,-0.0213
2013.00,-0.0214
2012.00,-0.0215
2011.00,-0.0216
2010.00,-0.0217
2009.00,-0.0217
2008.00,-0.0215
2007.00,-0.0213
2006.00,-0.0210
2005.00,-0.0209
2004.00,-0.0209
2003.00,-0.0210
2002.00,-0.0211
2001.00,-0.0212
2000.00,-0.0213
1999.00,-0.0214
1998.00,-0.0215
1997.00,-0.0214
1996.00,-0.0213
1995.00,-0.0213
1994.00,-0.0213
1993.00,-0.0214
1992.00,-0.0216
1991.00,-0.0217
1990.00,-0.0218
1989.00,-0.0219
1988.00,-0.0219
1987.00,-0.0220
1986.00,-0.0220
1985.00,-0.0221
1984.00,-0.0221
1983.00,-0.0222
1982.00,-0.0221
1981.00,-0.0219
1980.00,-0.0217
1979.00,-0.0215
1978.00,-0.0217
1977.00,-0.0218
1976.00,-0.0219
1975.00,-0.0218
1974.00,-0.0218
1973.00,-0.0220
1972.00,-0.0222
1971.00,-0.0224
1970.00,-0.0224
1969.00,-0.0223
1968.00,-0.0223
1967.00,-0.0224
1966.00,-0.0225
1965.00,-0.0225
1964.00,-0.0224
1963.00,-0.0221
1962.00,-0.0219
1961.00,-0.0219
1960.00,-0.0220
1959.00,-0.0221
1958.00,-0.0223
1957.00,-0.0223
1956.00,-0.0222
1955.00,-0.0221
1954.00,-0.0220
1953.00,-0.0220
1952.00,-0.0222
1951.00,-0.0223
1950.00,-0.0225
1949.00,-0.0226
1948.00,-0.0227
1947.00,-0.0228
1946.00,-0.0229
1945.00,-0.0229
1944.00,-0.0228
1943.00,-0.0227
1942.00,-0.0227
1941.00,-0.0227
1940.00,-0.0228
1939.00,-0.0229
1938.00,-0.0229
1937.00,-0.0231
1936.00,-0.0232
1935.00,-0.0233
1934.00,-0.0233
1933.00,-0.0234
1932.00,-0.0234
1931.00,-0.0234
1930.00,-0.0234
1929.00,-0.0234
1928.00,-0.0234
1927.00,-0.0235
1926.00,-0.0236
1925.00,-0.0237
1924.00,-0.0238
1923.00,-0.0239
1922.00,-0.0239
1921.00,-0.0238
1920.00,-0.0236
1919.00,-0.0236
1918.00,-0.0236
1917.00,-0.0237
1916.00,-0.0239
1915.00,-0.0240
1914.00,-0.0241
1913.00,-0.0241
1912.00,-0.0241
1911.00,-0.0241
1910.00,-0.0241
1909.00,-0.0241
1908.00,-0.0241
1907.00,-0.0241
1906.00,-0.0241
1905.00,-0.0241
1904.00,-0.0241
1903.00,-0.0241
1902.00,-0.0242
1901.00,-0.0242
1900.00,-0.0242
1899.00,-0.0241
1898.00,-0.0241
1897.00,-0.0242
1896.00,-0.0242
1895.00,-0.0243
1894.00,-0.0244
1893.00,-0.0245
1892.00,-0.0245
1891.00,-0.0245
1890.00,-0.0245
1889.00,-0.0246
1888.00,-0.0247
1887.00,-0.0247
1886.00,-0.0247
1885.00,-0.0247
1884.00,-0.0247
1883.00,-0.0248
1882.00,-0.0248
1881.00,-0.0248
1880.00,-0.0248
1879.00,-0.0249
1878.00,-0.0250
1877.00,-0.0251
1876.00,-0.0251
1875.00,-0.0252
1874.00,-0.0253
1873.00,-0.0254
1872.00,-0.0254
1871.00,-0.0254
1870.00,-0.0253
1869.00,-0.0253
1868.00,-0.0254
1867.00,-0.0254
1866.00,-0.0254
1865.00,-0.0255
1864.00,-0.0256
1863.00,-0.0256
1862.00,-0.0257
1861.00,-0.0258
1860.00,-0.0258
1859.00,-0.0258
1858.00,-0.0259
1857.00,-0.0259
1856.00,-0.0260
1855.00,-0.0260
1854.00,-0.0260
1853.00,-0.0260
1852.00,-0.0260
1851.00,-0.0261
1850.00,-0.0261
1849.00,-0.0261
1848.00,-0.0262
1847.00,-0.0262
1846.00,-0.0263
1845.00,-0.0263
1844.00,-0.0264
1843.00,-0.0265
1842.00,-0.0266
1841.00,-0.0266
1840.00,-0.0266
1839.00,-0.0266
1838.00,-0.0267
1837.00,-0.0267
1836.00,-0.0268
1835.00,-0.0268
1834.00,-0.0268
1833.00,-0.0268
1832.00,-0.0268
1831.00,-0.0268
1830.00,-0.0269
1829.00,-0.0269
1828.00,-0.0270
1827.00,-0.0271
1826.00,-0.0271
1825.00,-0.0272
1824.00,-0.0272
1823.00,-0.0273
1822.00,-0.0273
1821.00,-0.0274
1820.00,-0.0275
1819.00,-0.0275
1818.00,-0.0276
1817.00,-0.0276
1816.00,-0.0277
1815.00,-0.0277
1814.00,-0.0278
1813.00,-0.0278
1812.00,-0.0278
1811.00,-0.0278
1810.00,-0.0279
1809.00,-0.0280
1808.00,-0.0280
1807.00,-0.0280
1806.00,-0.0280
1805.00,-0.0281
1804.00,-0.0281
1803.00,-0.0282
1802.00,-0.0283
1801.00,-0.0284
1800.00,-0.0284
1799.00,-0.0284
1798.00,-0.0284
1797.00,-0.0285
1796.00,-0.0285
1795.00,-0.0286
1794.00,-0.0287
1793.00,-0.0287
1792.00,-0.0288
1791.00,-0.0289
1790.00,-0.0289
1789.00,-0.0289
1788.00,-0.0290
1787.00,-0.0290
1786.00,-0.0291
1785.00,-0.0292
1784.00,-0.0293
1783.00,-0.0293
1782.00,-0.0293
1781.00,-0.0294
1780.00,-0.0294
1779.00,-0.0295
1778.00,-0.0295
1777.00,-0.0296
1776.00,-0.0296
1775.00,-0.0297
1774.00,-0.0298
1773.00,-0.0299
1772.00,-0.0300
1771.00,-0.0301
1770.00,-0.0301
1769.00,-0.0302
1768.00,-0.0302
1767.00,-0.0303
1766.00,-0.0304
1765.00,-0.0304
1764.00,-0.0304
1763.00,-0.0305
1762.00,-0.0306
1761.00,-0.0307
1760.00,-0.0308
1759.00,-0.0308
1758.00,-0.0308
1757.00,-0.0308
1756.00,-0.0308
1755.00,-0.0309
1754.00,-0.0309
1753.00,-0.0309
1752.00,-0.0310
1751.00,-0.0310
1750.00,-0.0311
1749.00,-0.0311
1748.00,-0.0311
1747.00,-0.0311
1746.00,-0.0311
1745.00,-0.0312
1744.00,-0.0312
1743.00,-0.0313
1742.00,-0.0314
1741.00,-0.0315
1740.00,-0.0316
1739.00,-0.0318
1738.00,-0.0320
1737.00,-0.0321
1736.00,-0.0323
1735.00,-0.0326
1734.00,-0.0329
1733.00,-0.0333
1732.00,-0.0334
1731.00,-0.0334
1730.00,-0.0334
1729.00,-0.0336
1728.00,-0.0337
1727.00,-0.0339
1726.00,-0.0340
1725.00,-0.0341
1724.00,-0.0342
1723.00,-0.0343
1722.00,-0.0344
1721.00,-0.0344
1720.00,-0.0344
1719.00,-0.0344
1718.00,-0.0345
1717.00,-0.0345
1716.00,-0.0344
1715.00,-0.0342
1714.00,-0.0339
1713.00,-0.0336
1712.00,-0.0332
1711.00,-0.0327
1710.00,-0.0322
1709.00,-0.0315
1708.00,-0.0306
1707.00,-0.0296
1706.00,-0.0285
1705.00,-0.0271
1704.00,-0.0258
1703.00,-0.0244
1702.00,-0.0228
1701.00,-0.0209
1700.00,-0.0189
1699.00,-0.0172
1698.00,-0.0160
1697.00,-0.0151
1696.00,-0.0143
1695.00,-0.0136
1694.00,-0.0130
1693.00,-0.0124
1692.00,-0.0119
1691.00,-0.0113
1690.00,-0.0106
1689.00,-0.0100
1688.00,-0.0093
1687.00,-0.0087
1686.00,-0.0081
1685.00,-0.0072
1684.00,-0.0060
1683.00,-0.0049
1682.00,-0.0039
1681.00,-0.0030
1680.00,-0.0021
1679.00,-0.0012
1678.00,-0.0004
1677.00,0.0004
1676.00,0.0014
1675.00,0.0024
1674.00,0.0033
1673.00,0.0041
1672.00,0.0049
1671.00,0.0056
1670.00,0.0064
1669.00,0.0073
1668.00,0.0080
1667.00,0.0086
1666.00,0.0091
1665.00,0.0096
1664.00,0.0102
1663.00,0.0108
1662.00,0.0114
1661.00,0.0119
1660.00,0.0122
1659.00,0.0125
1658.00,0.0128
1657.00,0.0129
1656.00,0.0129
1655.00,0.0128
1654.00,0.0127
1653.00,0.0128
1652.00,0.0128
1651.00,0.0127
1650.00,0.0126
1649.00,0.0124
1648.00,0.0121
1647.00,0.0118
1646.00,0.0114
1645.00,0.0110
1644.00,0.0106
1643.00,0.0102
1642.00,0.0098
1641.00,0.0093
1640.00,0.0089
1639.00,0.0085
1638.00,0.0081
1637.00,0.0079
1636.00,0.0078
1635.00,0.0078
1634.00,0.0078
1633.00,0.0079
1632.00,0.0079
1631.00,0.0081
1630.00,0.0085
1629.00,0.0091
1628.00,0.0099
1627.00,0.0109
1626.00,0.0118
1625.00,0.0128
1624.00,0.0140
1623.00,0.0154
1622.00,0.0167
1621.00,0.0176
1620.00,0.0183
1619.00,0.0187
1618.00,0.0190
1617.00,0.0194
1616.00,0.0197
1615.00,0.0197
1614.00,0.0193
1613.00,0.0186
1612.00,0.0178
1611.00,0.0168
1610.00,0.0157
1609.00,0.0146
1608.00,0.0135
1607.00,0.0123
1606.00,0.0111
1605.00,0.0099
1604.00,0.0088
1603.00,0.0077
1602.00,0.0068
1601.00,0.0058
1600.00,0.0050
1599.00,0.0041
1598.00,0.0033
1597.00,0.0025
1596.00,0.0017
1595.00,0.0009
1594.00,0.0001
1593.00,-0.0006
1592.00,-0.0014
1591.00,-0.0021
1590.00,-0.0028
1589.00,-0.0034
1588.00,-0.0041
1587.00,-0.0046
1586.00,-0.0051
1585.00,-0.0055
1584.00,-0.0059
1583.00,-0.0062
1582.00,-0.0064
1581.00,-0.0066
1580.00,-0.0068
1579.00,-0.0070
1578.00,-0.0071
1577.00,-0.0071
1576.00,-0.0069
1575.00,-0.0066
1574.00,-0.0062
1573.00,-0.0059
1572.00,-0.0055
1571.00,-0.0051
1570.00,-0.0045
1569.00,-0.0039
1568.00,-0.0033
1567.00,-0.0026
1566.00,-0.0018
1565.00,-0.0009
1564.00,-0.0001
1563.00,0.0007
1562.00,0.0014
1561.00,0.0022
1560.00,0.0034
1559.00,0.0051
1558.00,0.0067
1557.00,0.0080
1556.00,0.0091
1555.00,0.0102
1554.00,0.0113
1553.00,0.0125
1552.00,0.0136
1551.00,0.0147
1550.00,0.0159
1549.00,0.0170
1548.00,0.0180
1547.00,0.0189
1546.00,0.0198
1545.00,0.0208
1544.00,0.0218
1543.00,0.0226
1542.00,0.0234
1541.00,0.0243
1540.00,0.0254
1539.00,0.0265
1538.00,0.0275
1537.00,0.0283
1536.00,0.0289
1535.00,0.0296
1534.00,0.0305
1533.00,0.0315
1532.00,0.0323
1531.00,0.0330
1530.00,0.0336
1529.00,0.0341
1528.00,0.0348
1527.00,0.0355
1526.00,0.0363
1525.00,0.0370
1524.00,0.0378
1523.00,0.0386
1522.00,0.0396
1521.00,0.0409
1520.00,0.0421
1519.00,0.0431
1518.00,0.0440
1517.00,0.0449
1516.00,0.0456
1515.00,0.0461
1514.00,0.0463
1513.00,0.0462
1512.00,0.0461
1511.00,0.0458
1510.00,0.0454
1509.00,0.0447
1508.00,0.0440
1507.00,0.0434
1506.00,0.0426
1505.00,0.0418
1504.00,0.0408
1503.00,0.0399
1502.00,0.0388
1501.00,0.0376
1500.00,0.0364
1499.00,0.0352
1498.00,0.0339
1497.00,0.0325
1496.00,0.0310
1495.00,0.0295
1494.00,0.0280
1493.00,0.0264
1492.00,0.0248
1491.00,0.0232
1490.00,0.0216
1489.00,0.0199
1488.00,0.0183
1487.00,0.0167
1486.00,0.0151
1485.00,0.0136
1484.00,0.0122
1483.00,0.0109
1482.00,0.0096
1481.00,0.0084
1480.00,0.0073
1479.00,0.0063
1478.00,0.0053
1477.00,0.0045
1476.00,0.0037
1475.00,0.0030
1474.00,0.0024
1473.00,0.0020
1472.00,0.0018
1471.00,0.0016
1470.00,0.0014
1469.00,0.0012
1468.00,0.0009
1467.00,0.0005
1466.00,0.0001
1465.00,-0.0002
1464.00,-0.0004
1463.00,-0.0006
1462.00,-0.0006
1461.00,-0.0006
1460.00,-0.0005
1459.00,-0.0003
1458.00,0.0001
1457.00,0.0007
1456.00,0.0013
1455.00,0.0018
1454.00,0.0022
1453.00,0.0025
1452.00,0.0026
1451.00,0.0026
1450.00,0.0026
1449.00,0.0026
1448.00,0.0026
1447.00,0.0025
1446.00,0.0023
1445.00,0.0020
1444.00,0.0016
1443.00,0.0011
1442.00,0.0006
1441.00,-0.0000
1440.00,-0.0007
1439.00,-0.0013
1438.00,-0.0020
1437.00,-0.0027
1436.00,-0.0034
1435.00,-0.0040
1434.00,-0.0046
1433.00,-0.0051
1432.00,-0.0057
1431.00,-0.0061
1430.00,-0.0065
1429.00,-0.0068
1428.00,-0.0071
1427.00,-0.0073
1426.00,-0.0075
1425.00,-0.0076
1424.00,-0.0076
1423.00,-0.0075
1422.00,-0.0075
1421.00,-0.0074
1420.00,-0.0073
1419.00,-0.0069
1418.00,-0.0066
1417.00,-0.0062
1416.00,-0.0058
1415.00,-0.0054
1414.00,-0.0051
1413.00,-0.0047
1412.00,-0.0044
1411.00,-0.0041
1410.00,-0.0038
1409.00,-0.0034
1408.00,-0.0032
1407.00,-0.0029
1406.00,-0.0026
1405.00,-0.0024
1404.00,-0.0022
1403.00,-0.0021
1402.00,-0.0021
1401.00,-0.0021
1400.00,-0.0021
1399.00,-0.0021
1398.00,-0.0021
1397.00,-0.0022
1396.00,-0.0023
1395.00,-0.0023
1394.00,-0.0024
1393.00,-0.0025
1392.00,-0.0025
1391.00,-0.0026
1390.00,-0.0027
1389.00,-0.0028
1388.00,-0.0030
1387.00,-0.0031
1386.00,-0.0034
1385.00,-0.0037
1384.00,-0.0040
1383.00,-0.0043
1382.00,-0.0046
1381.00,-0.0048
1380.00,-0.0050
1379.00,-0.0052
1378.00,-0.0054
1377.00,-0.0056
1376.00,-0.0058
1375.00,-0.0060
1374.00,-0.0063
1373.00,-0.0065
1372.00,-0.0068
1371.00,-0.0069
1370.00,-0.0071
1369.00,-0.0073
1368.00,-0.0075
1367.00,-0.0077
1366.00,-0.0080
1365.00,-0.0083
1364.00,-0.0086
1363.00,-0.0088
1362.00,-0.0091
1361.00,-0.0093
1360.00,-0.0094
1359.00,-0.0095
1358.00,-0.0095
1357.00,-0.0095
1356.00,-0.0094
1355.00,-0.0092
1354.00,-0.0090
1353.00,-0.0088
1352.00,-0.0086
1351.00,-0.0084
1350.00,-0.0082
1349.00,-0.0080
1348.00,-0.0078
1347.00,-0.0076
1346.00,-0.0075
1345.00,-0.0074
1344.00,-0.0074
1343.00,-0.0073
1342.00,-0.0072
1341.00,-0.0071
1340.00,-0.0070
1339.00,-0.0070
1338.00,-0.0070
1337.00,-0.0070
1336.00,-0.0071
1335.00,-0.0072
1334.00,-0.0072
1333.00,-0.0073
1332.00,-0.0074
1331.00,-0.0074
1330.00,-0.0075
1329.00,-0.0076
1328.00,-0.0077
1327.00,-0.0077
1326.00,-0.0078
1325.00,-0.0079
1324.00,-0.0079
1323.00,-0.0080
1322.00,-0.0080
1321.00,-0.0080
1320.00,-0.0080
1319.00,-0.0081
1318.00,-0.0081
1317.00,-0.0081
1316.00,-0.0082
1315.00,-0.0082
1314.00,-0.0082
1313.00,-0.0082
1312.00,-0.0082
1311.00,-0.0082
1310.00,-0.0082
1309.00,-0.0083
1308.00,-0.0084
1307.00,-0.0084
1306.00,-0.0085
1305.00,-0.0086
1304.00,-0.0087
1303.00,-0.0088
1302.00,-0.0089
1301.00,-0.0090
1300.00,-0.0092
1299.00,-0.0093
1298.00,-0.0095
1297.00,-0.0096
1296.00,-0.0098
1295.00,-0.0099
1294.00,-0.0100
1293.00,-0.0101
1292.00,-0.0102
1291.00,-0.0103
1290.00,-0.0104
1289.00,-0.0104
1288.00,-0.0105
1287.00,-0.0106
1286.00,-0.0107
1285.00,-0.0108
1284.00,-0.0109
1283.00,-0.0110
1282.00,-0.0111
1281.00,-0.0113
1280.00,-0.0115
1279.00,-0.0116
1278.00,-0.0118
1277.00,-0.0120
1276.00,-0.0122
1275.00,-0.0124
1274.00,-0.0126
1273.00,-0.0127
1272.00,-0.0129
1271.00,-0.0130
1270.00,-0.0132
1269.00,-0.0133
1268.00,-0.0135
1267.00,-0.0136
1266.00,-0.0138
1265.00,-0.0140
1264.00,-0.0141
1263.00,-0.0143
1262.00,-0.0143
1261.00,-0.0145
1260.00,-0.0146
1259.00,-0.0147
1258.00,-0.0148
1257.00,-0.0149
1256.00,-0.0149
1255.00,-0.0148
1254.00,-0.0146
1253.00,-0.0144
1252.00,-0.0141
1251.00,-0.0138
1250.00,-0.0133
1249.00,-0.0129
1248.00,-0.0124
1247.00,-0.0120
1246.00,-0.0116
1245.00,-0.0112
1244.00,-0.0108
1243.00,-0.0103
1242.00,-0.0098
1241.00,-0.0094
1240.00,-0.0090
1239.00,-0.0085
1238.00,-0.0080
1237.00,-0.0075
1236.00,-0.0070
1235.00,-0.0065
1234.00,-0.0060
1233.00,-0.0056
1232.00,-0.0052
1231.00,-0.0048
1230.00,-0.0045
1229.00,-0.0042
1228.00,-0.0039
1227.00,-0.0037
1226.00,-0.0035
1225.00,-0.0034
1224.00,-0.0033
1223.00,-0.0032
1222.00,-0.0032
1221.00,-0.0032
1220.00,-0.0032
1219.00,-0.0033
1218.00,-0.0034
1217.00,-0.0036
1216.00,-0.0038
1215.00,-0.0041
1214.00,-0.0044
1213.00,-0.0047
1212.00,-0.0050
1211.00,-0.0053
1210.00,-0.0056
1209.00,-0.0060
1208.00,-0.0064
1207.00,-0.0068
1206.00,-0.0072
1205.00,-0.0076
1204.00,-0.0081
1203.00,-0.0086
1202.00,-0.0090
1201.00,-0.0095
1200.00,-0.0100
1199.00,-0.0105
1198.00,-0.0110
1197.00,-0.0114
1196.00,-0.0119
1195.00,-0.0123
1194.00,-0.0126
1193.00,-0.0130
1192.00,-0.0133
1191.00,-0.0137
1190.00,-0.0140
1189.00,-0.0144
1188.00,-0.0147
1187.00,-0.0150
1186.00,-0.0153
1185.00,-0.0156
1184.00,-0.0159
1183.00,-0.0162
1182.00,-0.0164
1181.00,-0.0167
1180.00,-0.0169
1179.00,-0.0171
1178.00,-0.0172
1177.00,-0.0172
1176.00,-0.0172
1175.00,-0.0172
1174.00,-0.0171
1173.00,-0.0171
1172.00,-0.0171
1171.00,-0.0171
1170.00,-0.0171
1169.00,-0.0171
1168.00,-0.0171
1167.00,-0.0171
1166.00,-0.0170
1165.00,-0.0170
1164.00,-0.0170
1163.00,-0.0169
1162.00,-0.0169
1161.00,-0.0168
1160.00,-0.0168
1159.00,-0.0168
1158.00,-0.0169
1157.00,-0.0170
1156.00,-0.0171
1155.00,-0.0173
1154.00,-0.0175
1153.00,-0.0178
1152.00,-0.0181
1151.00,-0.0184
1150.00,-0.0187
1149.00,-0.0190
1148.00,-0.0193
1147.00,-0.0196
1146.00,-0.0198
1145.00,-0.0201
1144.00,-0.0203
1143.00,-0.0205
1142.00,-0.0206
1141.00,-0.0208
1140.00,-0.0210
1139.00,-0.0213
1138.00,-0.0215
1137.00,-0.0218
1136.00,-0.0222
1135.00,-0.0224
1134.00,-0.0227
1133.00,-0.0230
1132.00,-0.0232
1131.00,-0.0233
1130.00,-0.0234
1129.00,-0.0234
1128.00,-0.0235
1127.00,-0.0236
1126.00,-0.0237
1125.00,-0.0238
1124.00,-0.0239
1123.00,-0.0240
1122.00,-0.0241
1121.00,-0.0242
1120.00,-0.0243
1119.00,-0.0243
1118.00,-0.0243
1117.00,-0.0243
1116.00,-0.0243
1115.00,-0.0244
1114.00,-0.0244
1113.00,-0.0245
1112.00,-0.0245
1111.00,-0.0246
1110.00,-0.0247
1109.00,-0.0247
1108.00,-0.0248
1107.00,-0.0249
1106.00,-0.0249
1105.00,-0.0249
1104.00,-0.0251
1103.00,-0.0252
1102.00,-0.0252
1101.00,-0.0253
1100.00,-0.0253
1099.00,-0.0254
1098.00,-0.0254
1097.00,-0.0254
1096.00,-0.0254
1095.00,-0.0254
1094.00,-0.0254
1093.00,-0.0253
1092.00,-0.0251
1091.00,-0.0249
1090.00,-0.0247
1089.00,-0.0245
1088.00,-0.0242
1087.00,-0.0240
1086.00,-0.0236
1085.00,-0.0232
1084.00,-0.0228
1083.00,-0.0224
1082.00,-0.0220
1081.00,-0.0216
1080.00,-0.0212
1079.00,-0.0208
1078.00,-0.0204
1077.00,-0.0201
1076.00,-0.0198
1075.00,-0.0195
1074.00,-0.0192
1073.00,-0.0189
1072.00,-0.0186
1071.00,-0.0184
1070.00,-0.0181
1069.00,-0.0179
1068.00,-0.0176
1067.00,-0.0174
1066.00,-0.0173
1065.00,-0.0172
1064.00,-0.0171
1063.00,-0.0171
1062.00,-0.0172
1061.00,-0.0174
1060.00,-0.0177
1059.00,-0.0179
1058.00,-0.0182
1057.00,-0.0185
1056.00,-0.0188
1055.00,-0.0191
1054.00,-0.0194
1053.00,-0.0197
1052.00,-0.0200
1051.00,-0.0203
1050.00,-0.0205
1049.00,-0.0206
1048.00,-0.0208
1047.00,-0.0210
1046.00,-0.0212
1045.00,-0.0214
1044.00,-0.0217
1043.00,-0.0220
1042.00,-0.0223
1041.00,-0.0227
1040.00,-0.0230
1039.00,-0.0232
1038.00,-0.0235
1037.00,-0.0237
1036.00,-0.0240
1035.00,-0.0242
1034.00,-0.0244
1033.00,-0.0246
1032.00,-0.0248
1031.00,-0.0251
1030.00,-0.0253
1029.00,-0.0256
1028.00,-0.0260
1027.00,-0.0263
1026.00,-0.0267
1025.00,-0.0271
1024.00,-0.0275
1023.00,-0.0280
1022.00,-0.0284
1021.00,-0.0288
1020.00,-0.0292
1019.00,-0.0295
1018.00,-0.0298
1017.00,-0.0301
1016.00,-0.0304
1015.00,-0.0307
1014.00,-0.0310
1013.00,-0.0313
1012.00,-0.0315
1011.00,-0.0317
1010.00,-0.0319
1009.00,-0.0321
1008.00,-0.0323
1007.00,-0.0325
1006.00,-0.0327
1005.00,-0.0329
1004.00,-0.0330
1003.00,-0.0332
1002.00,-0.0334
1001.00,-0.0336
1000.00,-0.0338
999.00,-0.0340
998.00,-0.0341
997.00,-0.0343
996.00,-0.0344
995.00,-0.0345
994.00,-0.0346
993.00,-0.0347
992.00,-0.0347
991.00,-0.0348
990.00,-0.0348
989.00,-0.0348
988.00,-0.0348
987.00,-0.0348
986.00,-0.0349
985.00,-0.0350
984.00,-0.0351
983.00,-0.0351
982.00,-0.0351
981.00,-0.0351
980.00,-0.0351
979.00,-0.0352
978.00,-0.0353
977.00,-0.0354
976.00,-0.0356
975.00,-0.0358
974.00,-0.0359
973.00,-0.0361
972.00,-0.0362
971.00,-0.0363
970.00,-0.0364
969.00,-0.0365
968.00,-0.0366
967.00,-0.0367
966.00,-0.0367
965.00,-0.0367
964.00,-0.0368
963.00,-0.0368
962.00,-0.0369
961.00,-0.0370
960.00,-0.0372
959.00,-0.0373
958.00,-0.0374
957.00,-0.0376
956.00,-0.0377
955.00,-0.0379
954.00,-0.0381
953.00,-0.0382
952.00,-0.0383
951.00,-0.0384
950.00,-0.0384
949.00,-0.0385
948.00,-0.0385
947.00,-0.0386
946.00,-0.0386
945.00,-0.0386
944.00,-0.0385
943.00,-0.0384
942.00,-0.0383
941.00,-0.0382
940.00,-0.0382
939.00,-0.0381
938.00,-0.0380
937.00,-0.0379
936.00,-0.0377
935.00,-0.0376
934.00,-0.0374
933.00,-0.0372
932.00,-0.0371
931.00,-0.0370
930.00,-0.0369
929.00,-0.0369
928.00,-0.0370
927.00,-0.0371
926.00,-0.0373
925.00,-0.0375
924.00,-0.0377
923.00,-0.0380
922.00,-0.0382
921.00,-0.0384
920.00,-0.0387
919.00,-0.0389
918.00,-0.0392
917.00,-0.0394
916.00,-0.0396
915.00,-0.0398
914.00,-0.0399
913.00,-0.0400
912.00,-0.0401
911.00,-0.0401
910.00,-0.0401
909.00,-0.0401
908.00,-0.0401
907.00,-0.0400
906.00,-0.0400
905.00,-0.0399
904.00,-0.0398
903.00,-0.0397
902.00,-0.0396
901.00,-0.0394
900.00,-0.0394
899.00,-0.0394
898.00,-0.0393
897.00,-0.0394
896.00,-0.0394
895.00,-0.0394
894.00,-0.0394
893.00,-0.0394
892.00,-0.0394
891.00,-0.0394
890.00,-0.0394
889.00,-0.0394
888.00,-0.0395
887.00,-0.0395
886.00,-0.0395
885.00,-0.0395
884.00,-0.0396
883.00,-0.0396
882.00,-0.0396
881.00,-0.0396
880.00,-0.0396
879.00,-0.0396
878.00,-0.0395
877.00,-0.0395
876.00,-0.0395
875.00,-0.0396
874.00,-0.0397
873.00,-0.0398
872.00,-0.0399
871.00,-0.0400
870.00,-0.0401
869.00,-0.0403
868.00,-0.0404
867.00,-0.0405
866.00,-0.0405
865.00,-0.0406
864.00,-0.0407
863.00,-0.0408
862.00,-0.0409
861.00,-0.0410
860.00,-0.0412
859.00,-0.0413
858.00,-0.0413
857.00,-0.0413
856.00,-0.0414
855.00,-0.0414
854.00,-0.0414
853.00,-0.0414
852.00,-0.0415
851.00,-0.0415
850.00,-0.0416
849.00,-0.0417
848.00,-0.0417
847.00,-0.0417
846.00,-0.0416
845.00,-0.0416
844.00,-0.0417
843.00,-0.0418
842.00,-0.0419
841.00,-0.0419
840.00,-0.0418
839.00,-0.0418
838.00,-0.0416
837.00,-0.0415
836.00,-0.0414
835.00,-0.0413
834.00,-0.0412
833.00,-0.0411
832.00,-0.0410
831.00,-0.0409
830.00,-0.0409
829.00,-0.0409
828.00,-0.0409
827.00,-0.0409
826.00,-0.0408
825.00,-0.0407
824.00,-0.0407
823.00,-0.0407
822.00,-0.0407
821.00,-0.0407
820.00,-0.0406
819.00,-0.0405
818.00,-0.0405
817.00,-0.0404
816.00,-0.0404
815.00,-0.0404
814.00,-0.0403
813.00,-0.0402
812.00,-0.0402
811.00,-0.0401
810.00,-0.0400
809.00,-0.0400
808.00,-0.0399
807.00,-0.0398
806.00,-0.0396
805.00,-0.0394
804.00,-0.0393
803.00,-0.0392
802.00,-0.0392
801.00,-0.0391
800.00,-0.0392
799.00,-0.0392
798.00,-0.0392
797.00,-0.0393
796.00,-0.0393
795.00,-0.0393
794.00,-0.0392
793.00,-0.0391
792.00,-0.0390
791.00,-0.0389
790.00,-0.0388
789.00,-0.0386
788.00,-0.0386
787.00,-0.0386
786.00,-0.0386
785.00,-0.0387
784.00,-0.0388
783.00,-0.0388
782.00,-0.0389
781.00,-0.0389
780.00,-0.0389
779.00,-0.0389
778.00,-0.0388
777.00,-0.0387
776.00,-0.0386
775.00,-0.0385
774.00,-0.0383
773.00,-0.0382
772.00,-0.0384
771.00,-0.0387
770.00,-0.0392
769.00,-0.0396
768.00,-0.0398
767.00,-0.0394
766.00,-0.0386
765.00,-0.0378
764.00,-0.0372
763.00,-0.0367
762.00,-0.0364
761.00,-0.0362
760.00,-0.0359
759.00,-0.0357
758.00,-0.0353
757.00,-0.0351
756.00,-0.0348
755.00,-0.0346
754.00,-0.0343
753.00,-0.0341
752.00,-0.0339
751.00,-0.0337
750.00,-0.0334
749.00,-0.0331
748.00,-0.0328
747.00,-0.0325
746.00,-0.0322
745.00,-0.0320
744.00,-0.0319
743.00,-0.0318
742.00,-0.0317
741.00,-0.0316
740.00,-0.0316
739.00,-0.0316
738.00,-0.0314
737.00,-0.0313
736.00,-0.0312
735.00,-0.0310
734.00,-0.0309
733.00,-0.0307
732.00,-0.0305
731.00,-0.0304
730.00,-0.0302
729.00,-0.0300
728.00,-0.0298
727.00,-0.0296
726.00,-0.0292
725.00,-0.0288
724.00,-0.0284
723.00,-0.0279
722.00,-0.0273
721.00,-0.0267
720.00,-0.0262
719.00,-0.0257
718.00,-0.0253
717.00,-0.0248
716.00,-0.0244
715.00,-0.0239
714.00,-0.0233
713.00,-0.0227
712.00,-0.0221
711.00,-0.0216
710.00,-0.0209
709.00,-0.0203
708.00,-0.0197
707.00,-0.0191
706.00,-0.0184
705.00,-0.0176
704.00,-0.0167
703.00,-0.0158
702.00,-0.0149
701.00,-0.0143
700.00,-0.0138
699.00,-0.0135
698.00,-0.0133
697.00,-0.0132
696.00,-0.0132
695.00,-0.0132
694.00,-0.0132
693.00,-0.0132
692.00,-0.0133
691.00,-0.0134
690.00,-0.0135
689.00,-0.0134
688.00,-0.0134
687.00,-0.0134
686.00,-0.0134
685.00,-0.0134
684.00,-0.0134
683.00,-0.0133
682.00,-0.0132
681.00,-0.0132
680.00,-0.0132
679.00,-0.0131
678.00,-0.0129
677.00,-0.0128
676.00,-0.0127
675.00,-0.0127
674.00,-0.0126
673.00,-0.0126
672.00,-0.0127
671.00,-0.0127
670.00,-0.0127
669.00,-0.0128
668.00,-0.0129
667.00,-0.0130
666.00,-0.0130
665.00,-0.0130
664.00,-0.0132
663.00,-0.0132
662.00,-0.0130
661.00,-0.0128
660.00,-0.0127
659.00,-0.0127
658.00,-0.0126
657.00,-0.0124
656.00,-0.0122
655.00,-0.0121
654.00,-0.0119
653.00,-0.0118
652.00,-0.0119
651.00,-0.0118
650.00,-0.0117
649.00,-0.0115
648.00,-0.0113
647.00,-0.0111
646.00,-0.0108
645.00,-0.0106
644.00,-0.0105
643.00,-0.0103
642.00,-0.0101
641.00,-0.0099
640.00,-0.0099
639.00,-0.0099
638.00,-0.0098
637.00,-0.0096
636.00,-0.0095
635.00,-0.0093
634.00,-0.0091
633.00,-0.0089
632.00,-0.0089
631.00,-0.0088
630.00,-0.0087
629.00,-0.0086
628.00,-0.0086
627.00,-0.0086
626.00,-0.0084
625.00,-0.0083
624.00,-0.0082
623.00,-0.0082
622.00,-0.0083
621.00,-0.0084
620.00,-0.0086
619.00,-0.0087
618.00,-0.0087
617.00,-0.0088
616.00,-0.0088
615.00,-0.0089
614.00,-0.0089
613.00,-0.0089
612.00,-0.0090
611.00,-0.0091
610.00,-0.0090
609.00,-0.0090
608.00,-0.0091
607.00,-0.0093
606.00,-0.0094
605.00,-0.0097
604.00,-0.0100
603.00,-0.0103
602.00,-0.0103
601.00,-0.0102
600.00,-0.0101
599.00,-0.0101
598.00,-0.0102
597.00,-0.0104
596.00,-0.0108
595.00,-0.0109
594.00,-0.0109
593.00,-0.0108
592.00,-0.0108
591.00,-0.0107
590.00,-0.0106
589.00,-0.0104
588.00,-0.0103
587.00,-0.0102
586.00,-0.0100
585.00,-0.0099
584.00,-0.0100
583.00,-0.0103
582.00,-0.0105
581.00,-0.0104
580.00,-0.0101
579.00,-0.0098
578.00,-0.0094
577.00,-0.0093
576.00,-0.0094
575.00,-0.0094
574.00,-0.0093
573.00,-0.0093
572.00,-0.0096
571.00,-0.0097
570.00,-0.0097
569.00,-0.0096
568.00,-0.0097
567.00,-0.0097
566.00,-0.0096
565.00,-0.0093
564.00,-0.0091
563.00,-0.0091
562.00,-0.0092
561.00,-0.0093
560.00,-0.0093
559.00,-0.0092
558.00,-0.0090
557.00,-0.0089
556.00,-0.0091
555.00,-0.0092
554.00,-0.0090
553.00,-0.0088
552.00,-0.0088
551.00,-0.0088
550.00,-0.0088
549.00,-0.0087
548.00,-0.0086
547.00,-0.0086
546.00,-0.0086
545.00,-0.0087
544.00,-0.0091
543.00,-0.0094
542.00,-0.0095
541.00,-0.0095
540.00,-0.0095
539.00,-0.0093
538.00,-0.0091
537.00,-0.0089
536.00,-0.0089
535.00,-0.0091
534.00,-0.0092
533.00,-0.0093
532.00,-0.0092
531.00,-0.0090
530.00,-0.0087
529.00,-0.0087
528.00,-0.0091
527.00,-0.0095
526.00,-0.0096
525.00,-0.0094
524.00,-0.0091
523.00,-0.0090
522.00,-0.0090
521.00,-0.0093
520.00,-0.0096
519.00,-0.0099
518.00,-0.0099
517.00,-0.0099
516.00,-0.0099
515.00,-0.0097
514.00,-0.0097
513.00,-0.0099
512.00,-0.0105
511.00,-0.0109
510.00,-0.0109
509.00,-0.0108
508.00,-0.0110
507.00,-0.0113
506.00,-0.0114
505.00,-0.0114
504.00,-0.0113
503.00,-0.0109
502.00,-0.0104
501.00,-0.0103
500.00,-0.0106
499.00,-0.0109
498.00,-0.0109
497.00,-0.0109
496.00,-0.0111
495.00,-0.0113
494.00,-0.0115
493.00,-0.0117
492.00,-0.0118
491.00,-0.0117
490.00,-0.0114
489.00,-0.0113
488.00,-0.0113
487.00,-0.0114
486.00,-0.0115
485.00,-0.0118
484.00,-0.0124
483.00,-0.0128
482.00,-0.0130
481.00,-0.0132
480.00,-0.0136
479.00,-0.0138
478.00,-0.0135
477.00,-0.0131
476.00,-0.0127
475.00,-0.0124
474.00,-0.0121
473.00,-0.0124
472.00,-0.0132
471.00,-0.0139
470.00,-0.0141
469.00,-0.0137
468.00,-0.0134
467.00,-0.0131
466.00,-0.0129
465.00,-0.0130
464.00,-0.0132
463.00,-0.0129
462.00,-0.0123
461.00,-0.0121
460.00,-0.0125
459.00,-0.0131
458.00,-0.0134
457.00,-0.0139
456.00,-0.0144
455.00,-0.0145
454.00,-0.0139
453.00,-0.0135
452.00,-0.0137
451.00,-0.0141
450.00,-0.0143
449.00,-0.0145
448.00,-0.0146
447.00,-0.0146
446.00,-0.0143
445.00,-0.0143
444.00,-0.0149
443.00,-0.0151
442.00,-0.0147
441.00,-0.0145
440.00,-0.0150
439.00,-0.0158
438.00,-0.0163
437.00,-0.0165
436.00,-0.0170
435.00,-0.0173
434.00,-0.0173
433.00,-0.0175
432.00,-0.0184
431.00,-0.0193
430.00,-0.0199
429.00,-0.0204
428.00,-0.0208
427.00,-0.0208
426.00,-0.0204
425.00,-0.0207
424.00,-0.0222
423.00,-0.0234
422.00,-0.0233
421.00,-0.0229
420.00,-0.0232
419.00,-0.0237
418.00,-0.0233
417.00,-0.0222
416.00,-0.0212
415.00,-0.0202
414.00,-0.0194
413.00,-0.0196
412.00,-0.0211
411.00,-0.0224
410.00,-0.0228
409.00,-0.0236
408.00,-0.0255
407.00,-0.0271
406.00,-0.0271
405.00,-0.0269
404.00,-0.0282
403.00,-0.0301
402.00,-0.0307
401.00,-0.0301
400.00,-0.0293
