Created as New Dataset,Sample 365 By YargerLab Date Friday, November 14 2025
cm-1,A
4000.00,0.0246
3999.00,0.0246
3998.00,0.0246
3997.00,0.0246
3996.00,0.0246
3995.00,0.0246
3994.00,0.0246
3993.00,0.0246
3992.00,0.0245
3991.00,0.0245
3990.00,0.0245
3989.00,0.0245
3988.00,0.0245
3987.00,0.0245
3986.00,0.0244
3985.00,0.0244
3984.00,0.0244
3983.00,0.0244
3982.00,0.0244
3981.00,0.0243
3980.00,0.0243
3979.00,0.0243
3978.00,0.0243
3977.00,0.0243
3976.00,0.0242
3975.00,0.0242
3974.00,0.0242
3973.00,0.0242
3972.00,0.0242
3971.00,0.0242
3970.00,0.0241
3969.00,0.0241
3968.00,0.0241
3967.00,0.0241
3966.00,0.0241
3965.00,0.0241
3964.00,0.0240
3963.00,0.0240
3962.00,0.0241
3961.00,0.0241
3960.00,0.0240
3959.00,0.0240
3958.00,0.0240
3957.00,0.0239
3956.00,0.0239
3955.00,0.0239
3954.00,0.0239
3953.00,0.0239
3952.00,0.0239
3951.00,0.0239
3950.00,0.0239
3949.00,0.0239
3948.00,0.0239
3947.00,0.0239
3946.00,0.0239
3945.00,0.0238
3944.00,0.0238
3943.00,0.0238
3942.00,0.0237
3941.00,0.0237
3940.00,0.0237
3939.00,0.0237
3938.00,0.0236
3937.00,0.0236
3936.00,0.0236
3935.00,0.0236
3934.00,0.0236
3933.00,0.0236
3932.00,0.0236
3931.00,0.0235
3930.00,0.0235
3929.00,0.0235
3928.00,0.0235
3927.00,0.0235
3926.00,0.0235
3925.00,0.0234
3924.00,0.0235
3923.00,0.0235
3922.00,0.0235
3921.00,0.0235
3920.00,0.0235
3919.00,0.0235
3918.00,0.0235
3917.00,0.0234
3916.00,0.0234
3915.00,0.0233
3914.00,0.0233
3913.00,0.0233
3912.00,0.0232
3911.00,0.0232
3910.00,0.0232
3909.00,0.0232
3908.00,0.0232
3907.00,0.0231
3906.00,0.0231
3905.00,0.0232
3904.00,0.0233
3903.00,0.0233
3902.00,0.0234
3901.00,0.0234
3900.00,0.0233
3899.00,0.0232
3898.00,0.0231
3897.00,0.0231
3896.00,0.0230
3895.00,0.0230
3894.00,0.0230
3893.00,0.0229
3892.00,0.0229
3891.00,0.0229
3890.00,0.0229
3889.00,0.0229
3888.00,0.0230
3887.00,0.0230
3886.00,0.0230
3885.00,0.0230
3884.00,0.0230
3883.00,0.0230
3882.00,0.0230
3881.00,0.0230
3880.00,0.0229
3879.00,0.0229
3878.00,0.0229
3877.00,0.0229
3876.00,0.0229
3875.00,0.0228
3874.00,0.0228
3873.00,0.0227
3872.00,0.0228
3871.00,0.0228
3870.00,0.0228
3869.00,0.0227
3868.00,0.0227
3867.00,0.0226
3866.00,0.0226
3865.00,0.0226
3864.00,0.0226
3863.00,0.0226
3862.00,0.0227
3861.00,0.0227
3860.00,0.0226
3859.00,0.0226
3858.00,0.0225
3857.00,0.0224
3856.00,0.0223
3855.00,0.0223
3854.00,0.0222
3853.00,0.0223
3852.00,0.0224
3851.00,0.0224
3850.00,0.0224
3849.00,0.0224
3848.00,0.0224
3847.00,0.0224
3846.00,0.0224
3845.00,0.0224
3844.00,0.0224
3843.00,0.0224
3842.00,0.0224
3841.00,0.0224
3840.00,0.0224
3839.00,0.0224
3838.00,0.0224
3837.00,0.0223
3836.00,0.0223
3835.00,0.0222
3834.00,0.0222
3833.00,0.0221
3832.00,0.0221
3831.00,0.0221
3830.00,0.0221
3829.00,0.0221
3828.00,0.0221
3827.00,0.0221
3826.00,0.0221
3825.00,0.0221
3824.00,0.0221
3823.00,0.0221
3822.00,0.0221
3821.00,0.0221
3820.00,0.0221
3819.00,0.0221
3818.00,0.0221
3817.00,0.0221
3816.00,0.0220
3815.00,0.0220
3814.00,0.0219
3813.00,0.0219
3812.00,0.0219
3811.00,0.0218
3810.00,0.0218
3809.00,0.0217
3808.00,0.0218
3807.00,0.0218
3806.00,0.0218
3805.00,0.0218
3804.00,0.0218
3803.00,0.0218
3802.00,0.0218
3801.00,0.0217
3800.00,0.0217
3799.00,0.0217
3798.00,0.0217
3797.00,0.0218
3796.00,0.0217
3795.00,0.0217
3794.00,0.0217
3793.00,0.0216
3792.00,0.0215
3791.00,0.0215
3790.00,0.0215
3789.00,0.0215
3788.00,0.0215
3787.00,0.0215
3786.00,0.0214
3785.00,0.0214
3784.00,0.0214
3783.00,0.0214
3782.00,0.0214
3781.00,0.0214
3780.00,0.0214
3779.00,0.0214
3778.00,0.0214
3777.00,0.0213
3776.00,0.0213
3775.00,0.0213
3774.00,0.0213
3773.00,0.0213
3772.00,0.0213
3771.00,0.0213
3770.00,0.0213
3769.00,0.0213
3768.00,0.0213
3767.00,0.0213
3766.00,0.0213
3765.00,0.0212
3764.00,0.0212
3763.00,0.0212
3762.00,0.0212
3761.00,0.0212
3760.00,0.0212
3759.00,0.0212
3758.00,0.0212
3757.00,0.0212
3756.00,0.0212
3755.00,0.0212
3754.00,0.0212
3753.00,0.0212
3752.00,0.0213
3751.00,0.0213
3750.00,0.0213
3749.00,0.0213
3748.00,0.0213
3747.00,0.0213
3746.00,0.0213
3745.00,0.0213
3744.00,0.0213
3743.00,0.0212
3742.00,0.0212
3741.00,0.0212
3740.00,0.0212
3739.00,0.0212
3738.00,0.0212
3737.00,0.0212
3736.00,0.0212
3735.00,0.0212
3734.00,0.0212
3733.00,0.0213
3732.00,0.0212
3731.00,0.0211
3730.00,0.0211
3729.00,0.0210
3728.00,0.0210
3727.00,0.0210
3726.00,0.0209
3725.00,0.0209
3724.00,0.0209
3723.00,0.0209
3722.00,0.0208
3721.00,0.0207
3720.00,0.0207
3719.00,0.0206
3718.00,0.0206
3717.00,0.0206
3716.00,0.0206
3715.00,0.0206
3714.00,0.0206
3713.00,0.0206
3712.00,0.0206
3711.00,0.0206
3710.00,0.0206
3709.00,0.0206
3708.00,0.0206
3707.00,0.0206
3706.00,0.0205
3705.00,0.0205
3704.00,0.0205
3703.00,0.0204
3702.00,0.0204
3701.00,0.0204
3700.00,0.0204
3699.00,0.0204
3698.00,0.0204
3697.00,0.0204
3696.00,0.0204
3695.00,0.0204
3694.00,0.0204
3693.00,0.0203
3692.00,0.0203
3691.00,0.0203
3690.00,0.0204
3689.00,0.0205
3688.00,0.0205
3687.00,0.0205
3686.00,0.0205
3685.00,0.0205
3684.00,0.0205
3683.00,0.0205
3682.00,0.0205
3681.00,0.0204
3680.00,0.0204
3679.00,0.0205
3678.00,0.0205
3677.00,0.0206
3676.00,0.0207
3675.00,0.0207
3674.00,0.0208
3673.00,0.0208
3672.00,0.0208
3671.00,0.0208
3670.00,0.0207
3669.00,0.0207
3668.00,0.0206
3667.00,0.0206
3666.00,0.0206
3665.00,0.0206
3664.00,0.0206
3663.00,0.0206
3662.00,0.0206
3661.00,0.0206
3660.00,0.0206
3659.00,0.0207
3658.00,0.0207
3657.00,0.0207
3656.00,0.0208
3655.00,0.0208
3654.00,0.0209
3653.00,0.0210
3652.00,0.0211
3651.00,0.0212
3650.00,0.0212
3649.00,0.0213
3648.00,0.0214
3647.00,0.0214
3646.00,0.0213
3645.00,0.0213
3644.00,0.0213
3643.00,0.0213
3642.00,0.0213
3641.00,0.0213
3640.00,0.0213
3639.00,0.0213
3638.00,0.0213
3637.00,0.0214
3636.00,0.0215
3635.00,0.0215
3634.00,0.0216
3633.00,0.0217
3632.00,0.0218
3631.00,0.0218
3630.00,0.0219
3629.00,0.0219
3628.00,0.0220
3627.00,0.0220
3626.00,0.0221
3625.00,0.0222
3624.00,0.0223
3623.00,0.0223
3622.00,0.0223
3621.00,0.0223
3620.00,0.0223
3619.00,0.0224
3618.00,0.0224
3617.00,0.0226
3616.00,0.0227
3615.00,0.0228
3614.00,0.0229
3613.00,0.0229
3612.00,0.0230
3611.00,0.0231
3610.00,0.0231
3609.00,0.0232
3608.00,0.0232
3607.00,0.0233
3606.00,0.0233
3605.00,0.0234
3604.00,0.0234
3603.00,0.0235
3602.00,0.0235
3601.00,0.0236
3600.00,0.0236
3599.00,0.0237
3598.00,0.0238
3597.00,0.0238
3596.00,0.0239
3595.00,0.0239
3594.00,0.0240
3593.00,0.0241
3592.00,0.0242
3591.00,0.0243
3590.00,0.0245
3589.00,0.0246
3588.00,0.0246
3587.00,0.0246
3586.00,0.0246
3585.00,0.0246
3584.00,0.0247
3583.00,0.0248
3582.00,0.0248
3581.00,0.0249
3580.00,0.0249
3579.00,0.0250
3578.00,0.0251
3577.00,0.0252
3576.00,0.0253
3575.00,0.0254
3574.00,0.0255
3573.00,0.0255
3572.00,0.0257
3571.00,0.0258
3570.00,0.0260
3569.00,0.0262
3568.00,0.0263
3567.00,0.0263
3566.00,0.0264
3565.00,0.0264
3564.00,0.0265
3563.00,0.0265
3562.00,0.0266
3561.00,0.0266
3560.00,0.0267
3559.00,0.0268
3558.00,0.0269
3557.00,0.0270
3556.00,0.0271
3555.00,0.0272
3554.00,0.0273
3553.00,0.0274
3552.00,0.0275
3551.00,0.0276
3550.00,0.0277
3549.00,0.0279
3548.00,0.0280
3547.00,0.0281
3546.00,0.0282
3545.00,0.0282
3544.00,0.0282
3543.00,0.0283
3542.00,0.0284
3541.00,0.0285
3540.00,0.0286
3539.00,0.0287
3538.00,0.0288
3537.00,0.0289
3536.00,0.0290
3535.00,0.0291
3534.00,0.0292
3533.00,0.0293
3532.00,0.0294
3531.00,0.0296
3530.00,0.0297
3529.00,0.0297
3528.00,0.0298
3527.00,0.0299
3526.00,0.0300
3525.00,0.0301
3524.00,0.0302
3523.00,0.0303
3522.00,0.0304
3521.00,0.0304
3520.00,0.0305
3519.00,0.0306
3518.00,0.0306
3517.00,0.0307
3516.00,0.0308
3515.00,0.0309
3514.00,0.0310
3513.00,0.0311
3512.00,0.0312
3511.00,0.0313
3510.00,0.0314
3509.00,0.0315
3508.00,0.0316
3507.00,0.0317
3506.00,0.0318
3505.00,0.0319
3504.00,0.0320
3503.00,0.0321
3502.00,0.0321
3501.00,0.0322
3500.00,0.0323
3499.00,0.0323
3498.00,0.0324
3497.00,0.0325
3496.00,0.0326
3495.00,0.0327
3494.00,0.0328
3493.00,0.0328
3492.00,0.0329
3491.00,0.0330
3490.00,0.0331
3489.00,0.0332
3488.00,0.0332
3487.00,0.0333
3486.00,0.0334
3485.00,0.0335
3484.00,0.0336
3483.00,0.0337
3482.00,0.0338
3481.00,0.0338
3480.00,0.0339
3479.00,0.0340
3478.00,0.0341
3477.00,0.0342
3476.00,0.0343
3475.00,0.0344
3474.00,0.0345
3473.00,0.0345
3472.00,0.0346
3471.00,0.0347
3470.00,0.0348
3469.00,0.0348
3468.00,0.0349
3467.00,0.0350
3466.00,0.0351
3465.00,0.0352
3464.00,0.0353
3463.00,0.0354
3462.00,0.0354
3461.00,0.0355
3460.00,0.0356
3459.00,0.0356
3458.00,0.0357
3457.00,0.0358
3456.00,0.0359
3455.00,0.0360
3454.00,0.0361
3453.00,0.0362
3452.00,0.0363
3451.00,0.0364
3450.00,0.0364
3449.00,0.0365
3448.00,0.0365
3447.00,0.0366
3446.00,0.0366
3445.00,0.0367
3444.00,0.0368
3443.00,0.0368
3442.00,0.0369
3441.00,0.0370
3440.00,0.0371
3439.00,0.0372
3438.00,0.0372
3437.00,0.0373
3436.00,0.0374
3435.00,0.0375
3434.00,0.0375
3433.00,0.0376
3432.00,0.0377
3431.00,0.0378
3430.00,0.0378
3429.00,0.0379
3428.00,0.0380
3427.00,0.0381
3426.00,0.0381
3425.00,0.0382
3424.00,0.0383
3423.00,0.0383
3422.00,0.0384
3421.00,0.0385
3420.00,0.0386
3419.00,0.0387
3418.00,0.0388
3417.00,0.0389
3416.00,0.0389
3415.00,0.0390
3414.00,0.0390
3413.00,0.0391
3412.00,0.0391
3411.00,0.0392
3410.00,0.0392
3409.00,0.0393
3408.00,0.0394
3407.00,0.0395
3406.00,0.0395
3405.00,0.0396
3404.00,0.0396
3403.00,0.0396
3402.00,0.0396
3401.00,0.0397
3400.00,0.0397
3399.00,0.0398
3398.00,0.0399
3397.00,0.0399
3396.00,0.0400
3395.00,0.0400
3394.00,0.0401
3393.00,0.0401
3392.00,0.0402
3391.00,0.0403
3390.00,0.0404
3389.00,0.0405
3388.00,0.0405
3387.00,0.0406
3386.00,0.0406
3385.00,0.0407
3384.00,0.0407
3383.00,0.0408
3382.00,0.0409
3381.00,0.0409
3380.00,0.0410
3379.00,0.0411
3378.00,0.0411
3377.00,0.0412
3376.00,0.0412
3375.00,0.0413
3374.00,0.0413
3373.00,0.0414
3372.00,0.0415
3371.00,0.0415
3370.00,0.0416
3369.00,0.0416
3368.00,0.0417
3367.00,0.0418
3366.00,0.0418
3365.00,0.0418
3364.00,0.0419
3363.00,0.0419
3362.00,0.0420
3361.00,0.0420
3360.00,0.0421
3359.00,0.0422
3358.00,0.0422
3357.00,0.0423
3356.00,0.0423
3355.00,0.0424
3354.00,0.0424
3353.00,0.0425
3352.00,0.0425
3351.00,0.0426
3350.00,0.0426
3349.00,0.0426
3348.00,0.0427
3347.00,0.0428
3346.00,0.0429
3345.00,0.0429
3344.00,0.0430
3343.00,0.0431
3342.00,0.0431
3341.00,0.0431
3340.00,0.0432
3339.00,0.0433
3338.00,0.0434
3337.00,0.0434
3336.00,0.0435
3335.00,0.0435
3334.00,0.0436
3333.00,0.0436
3332.00,0.0437
3331.00,0.0437
3330.00,0.0438
3329.00,0.0439
3328.00,0.0439
3327.00,0.0440
3326.00,0.0441
3325.00,0.0442
3324.00,0.0442
3323.00,0.0443
3322.00,0.0444
3321.00,0.0445
3320.00,0.0446
3319.00,0.0447
3318.00,0.0447
3317.00,0.0448
3316.00,0.0448
3315.00,0.0449
3314.00,0.0450
3313.00,0.0450
3312.00,0.0451
3311.00,0.0451
3310.00,0.0452
3309.00,0.0452
3308.00,0.0453
3307.00,0.0453
3306.00,0.0454
3305.00,0.0455
3304.00,0.0456
3303.00,0.0457
3302.00,0.0458
3301.00,0.0459
3300.00,0.0459
3299.00,0.0460
3298.00,0.0460
3297.00,0.0461
3296.00,0.0461
3295.00,0.0461
3294.00,0.0462
3293.00,0.0462
3292.00,0.0462
3291.00,0.0463
3290.00,0.0463
3289.00,0.0463
3288.00,0.0463
3287.00,0.0464
3286.00,0.0464
3285.00,0.0464
3284.00,0.0464
3283.00,0.0464
3282.00,0.0464
3281.00,0.0464
3280.00,0.0464
3279.00,0.0464
3278.00,0.0464
3277.00,0.0464
3276.00,0.0464
3275.00,0.0463
3274.00,0.0462
3273.00,0.0462
3272.00,0.0461
3271.00,0.0460
3270.00,0.0460
3269.00,0.0460
3268.00,0.0459
3267.00,0.0458
3266.00,0.0458
3265.00,0.0457
3264.00,0.0456
3263.00,0.0455
3262.00,0.0454
3261.00,0.0454
3260.00,0.0453
3259.00,0.0452
3258.00,0.0451
3257.00,0.0450
3256.00,0.0448
3255.00,0.0447
3254.00,0.0447
3253.00,0.0446
3252.00,0.0445
3251.00,0.0444
3250.00,0.0443
3249.00,0.0442
3248.00,0.0440
3247.00,0.0440
3246.00,0.0439
3245.00,0.0438
3244.00,0.0438
3243.00,0.0436
3242.00,0.0435
3241.00,0.0434
3240.00,0.0433
3239.00,0.0432
3238.00,0.0431
3237.00,0.0430
3236.00,0.0428
3235.00,0.0427
3234.00,0.0427
3233.00,0.0426
3232.00,0.0425
3231.00,0.0424
3230.00,0.0423
3229.00,0.0422
3228.00,0.0421
3227.00,0.0421
3226.00,0.0420
3225.00,0.0419
3224.00,0.0418
3223.00,0.0417
3222.00,0.0416
3221.00,0.0415
3220.00,0.0415
3219.00,0.0414
3218.00,0.0413
3217.00,0.0412
3216.00,0.0411
3215.00,0.0410
3214.00,0.0410
3213.00,0.0409
3212.00,0.0408
3211.00,0.0408
3210.00,0.0407
3209.00,0.0406
3208.00,0.0404
3207.00,0.0403
3206.00,0.0402
3205.00,0.0402
3204.00,0.0401
3203.00,0.0400
3202.00,0.0399
3201.00,0.0398
3200.00,0.0397
3199.00,0.0397
3198.00,0.0396
3197.00,0.0395
3196.00,0.0394
3195.00,0.0393
3194.00,0.0392
3193.00,0.0391
3192.00,0.0390
3191.00,0.0389
3190.00,0.0388
3189.00,0.0387
3188.00,0.0386
3187.00,0.0385
3186.00,0.0384
3185.00,0.0383
3184.00,0.0382
3183.00,0.0381
3182.00,0.0380
3181.00,0.0379
3180.00,0.0378
3179.00,0.0377
3178.00,0.0376
3177.00,0.0374
3176.00,0.0373
3175.00,0.0372
3174.00,0.0372
3173.00,0.0371
3172.00,0.0370
3171.00,0.0368
3170.00,0.0367
3169.00,0.0366
3168.00,0.0365
3167.00,0.0364
3166.00,0.0363
3165.00,0.0362
3164.00,0.0361
3163.00,0.0360
3162.00,0.0359
3161.00,0.0358
3160.00,0.0356
3159.00,0.0355
3158.00,0.0354
3157.00,0.0353
3156.00,0.0352
3155.00,0.0351
3154.00,0.0350
3153.00,0.0349
3152.00,0.0348
3151.00,0.0346
3150.00,0.0346
3149.00,0.0345
3148.00,0.0344
3147.00,0.0343
3146.00,0.0343
3145.00,0.0342
3144.00,0.0341
3143.00,0.0340
3142.00,0.0339
3141.00,0.0338
3140.00,0.0337
3139.00,0.0336
3138.00,0.0336
3137.00,0.0335
3136.00,0.0335
3135.00,0.0334
3134.00,0.0334
3133.00,0.0333
3132.00,0.0332
3131.00,0.0331
3130.00,0.0330
3129.00,0.0330
3128.00,0.0329
3127.00,0.0328
3126.00,0.0328
3125.00,0.0327
3124.00,0.0326
3123.00,0.0326
3122.00,0.0325
3121.00,0.0324
3120.00,0.0323
3119.00,0.0323
3118.00,0.0322
3117.00,0.0322
3116.00,0.0322
3115.00,0.0322
3114.00,0.0322
3113.00,0.0323
3112.00,0.0323
3111.00,0.0322
3110.00,0.0322
3109.00,0.0321
3108.00,0.0321
3107.00,0.0321
3106.00,0.0321
3105.00,0.0321
3104.00,0.0321
3103.00,0.0321
3102.00,0.0321
3101.00,0.0321
3100.00,0.0321
3099.00,0.0321
3098.00,0.0321
3097.00,0.0321
3096.00,0.0321
3095.00,0.0321
3094.00,0.0321
3093.00,0.0321
3092.00,0.0321
3091.00,0.0321
3090.00,0.0320
3089.00,0.0320
3088.00,0.0320
3087.00,0.0320
3086.00,0.0319
3085.00,0.0319
3084.00,0.0319
3083.00,0.0319
3082.00,0.0319
3081.00,0.0318
3080.00,0.0318
3079.00,0.0317
3078.00,0.0317
3077.00,0.0317
3076.00,0.0317
3075.00,0.0317
3074.00,0.0318
3073.00,0.0317
3072.00,0.0317
3071.00,0.0316
3070.00,0.0316
3069.00,0.0315
3068.00,0.0315
3067.00,0.0314
3066.00,0.0314
3065.00,0.0314
3064.00,0.0314
3063.00,0.0313
3062.00,0.0313
3061.00,0.0312
3060.00,0.0311
3059.00,0.0311
3058.00,0.0310
3057.00,0.0309
3056.00,0.0308
3055.00,0.0307
3054.00,0.0306
3053.00,0.0305
3052.00,0.0305
3051.00,0.0304
3050.00,0.0303
3049.00,0.0302
3048.00,0.0302
3047.00,0.0301
3046.00,0.0300
3045.00,0.0299
3044.00,0.0298
3043.00,0.0297
3042.00,0.0297
3041.00,0.0296
3040.00,0.0296
3039.00,0.0296
3038.00,0.0295
3037.00,0.0295
3036.00,0.0294
3035.00,0.0293
3034.00,0.0293
3033.00,0.0293
3032.00,0.0293
3031.00,0.0292
3030.00,0.0292
3029.00,0.0292
3028.00,0.0292
3027.00,0.0292
3026.00,0.0292
3025.00,0.0292
3024.00,0.0292
3023.00,0.0293
3022.00,0.0293
3021.00,0.0294
3020.00,0.0294
3019.00,0.0295
3018.00,0.0295
3017.00,0.0295
3016.00,0.0295
3015.00,0.0296
3014.00,0.0297
3013.00,0.0297
3012.00,0.0297
3011.00,0.0297
3010.00,0.0297
3009.00,0.0296
3008.00,0.0296
3007.00,0.0295
3006.00,0.0294
3005.00,0.0293
3004.00,0.0291
3003.00,0.0290
3002.00,0.0288
3001.00,0.0287
3000.00,0.0286
2999.00,0.0285
2998.00,0.0284
2997.00,0.0283
2996.00,0.0283
2995.00,0.0283
2994.00,0.0282
2993.00,0.0282
2992.00,0.0282
2991.00,0.0283
2990.00,0.0284
2989.00,0.0285
2988.00,0.0286
2987.00,0.0288
2986.00,0.0290
2985.00,0.0292
2984.00,0.0294
2983.00,0.0296
2982.00,0.0299
2981.00,0.0301
2980.00,0.0304
2979.00,0.0307
2978.00,0.0311
2977.00,0.0314
2976.00,0.0318
2975.00,0.0322
2974.00,0.0326
2973.00,0.0331
2972.00,0.0336
2971.00,0.0341
2970.00,0.0346
2969.00,0.0351
2968.00,0.0357
2967.00,0.0363
2966.00,0.0369
2965.00,0.0375
2964.00,0.0381
2963.00,0.0387
2962.00,0.0392
2961.00,0.0397
2960.00,0.0401
2959.00,0.0405
2958.00,0.0409
2957.00,0.0412
2956.00,0.0414
2955.00,0.0415
2954.00,0.0415
2953.00,0.0415
2952.00,0.0414
2951.00,0.0413
2950.00,0.0413
2949.00,0.0413
2948.00,0.0415
2947.00,0.0417
2946.00,0.0421
2945.00,0.0426
2944.00,0.0432
2943.00,0.0439
2942.00,0.0447
2941.00,0.0456
2940.00,0.0465
2939.00,0.0476
2938.00,0.0487
2937.00,0.0499
2936.00,0.0511
2935.00,0.0523
2934.00,0.0535
2933.00,0.0548
2932.00,0.0560
2931.00,0.0572
2930.00,0.0584
2929.00,0.0596
2928.00,0.0607
2927.00,0.0617
2926.00,0.0626
2925.00,0.0633
2924.00,0.0640
2923.00,0.0644
2922.00,0.0647
2921.00,0.0648
2920.00,0.0647
2919.00,0.0645
2918.00,0.0641
2917.00,0.0634
2916.00,0.0622
2915.00,0.0607
2914.00,0.0588
2913.00,0.0568
2912.00,0.0548
2911.00,0.0530
2910.00,0.0514
2909.00,0.0500
2908.00,0.0488
2907.00,0.0478
2906.00,0.0469
2905.00,0.0461
2904.00,0.0454
2903.00,0.0447
2902.00,0.0440
2901.00,0.0434
2900.00,0.0428
2899.00,0.0423
2898.00,0.0417
2897.00,0.0412
2896.00,0.0408
2895.00,0.0403
2894.00,0.0399
2893.00,0.0394
2892.00,0.0390
2891.00,0.0385
2890.00,0.0380
2889.00,0.0376
2888.00,0.0372
2887.00,0.0369
2886.00,0.0365
2885.00,0.0362
2884.00,0.0360
2883.00,0.0357
2882.00,0.0355
2881.00,0.0354
2880.00,0.0354
2879.00,0.0354
2878.00,0.0355
2877.00,0.0357
2876.00,0.0359
2875.00,0.0361
2874.00,0.0363
2873.00,0.0366
2872.00,0.0367
2871.00,0.0369
2870.00,0.0369
2869.00,0.0370
2868.00,0.0370
2867.00,0.0372
2866.00,0.0374
2865.00,0.0377
2864.00,0.0382
2863.00,0.0388
2862.00,0.0397
2861.00,0.0406
2860.00,0.0418
2859.00,0.0430
2858.00,0.0442
2857.00,0.0455
2856.00,0.0468
2855.00,0.0480
2854.00,0.0491
2853.00,0.0499
2852.00,0.0503
2851.00,0.0502
2850.00,0.0494
2849.00,0.0479
2848.00,0.0459
2847.00,0.0436
2846.00,0.0412
2845.00,0.0390
2844.00,0.0369
2843.00,0.0351
2842.00,0.0336
2841.00,0.0323
2840.00,0.0312
2839.00,0.0303
2838.00,0.0295
2837.00,0.0289
2836.00,0.0283
2835.00,0.0278
2834.00,0.0274
2833.00,0.0270
2832.00,0.0266
2831.00,0.0263
2830.00,0.0260
2829.00,0.0258
2828.00,0.0255
2827.00,0.0253
2826.00,0.0251
2825.00,0.0248
2824.00,0.0246
2823.00,0.0244
2822.00,0.0242
2821.00,0.0240
2820.00,0.0238
2819.00,0.0237
2818.00,0.0235
2817.00,0.0234
2816.00,0.0232
2815.00,0.0231
2814.00,0.0229
2813.00,0.0228
2812.00,0.0226
2811.00,0.0225
2810.00,0.0224
2809.00,0.0223
2808.00,0.0222
2807.00,0.0221
2806.00,0.0220
2805.00,0.0219
2804.00,0.0218
2803.00,0.0217
2802.00,0.0216
2801.00,0.0215
2800.00,0.0214
2799.00,0.0213
2798.00,0.0212
2797.00,0.0211
2796.00,0.0210
2795.00,0.0210
2794.00,0.0209
2793.00,0.0208
2792.00,0.0207
2791.00,0.0207
2790.00,0.0206
2789.00,0.0205
2788.00,0.0205
2787.00,0.0204
2786.00,0.0204
2785.00,0.0203
2784.00,0.0203
2783.00,0.0202
2782.00,0.0202
2781.00,0.0201
2780.00,0.0200
2779.00,0.0200
2778.00,0.0199
2777.00,0.0198
2776.00,0.0198
2775.00,0.0197
2774.00,0.0197
2773.00,0.0196
2772.00,0.0196
2771.00,0.0196
2770.00,0.0195
2769.00,0.0195
2768.00,0.0195
2767.00,0.0194
2766.00,0.0194
2765.00,0.0193
2764.00,0.0193
2763.00,0.0192
2762.00,0.0192
2761.00,0.0192
2760.00,0.0191
2759.00,0.0191
2758.00,0.0190
2757.00,0.0190
2756.00,0.0190
2755.00,0.0189
2754.00,0.0189
2753.00,0.0188
2752.00,0.0188
2751.00,0.0188
2750.00,0.0188
2749.00,0.0187
2748.00,0.0187
2747.00,0.0187
2746.00,0.0187
2745.00,0.0186
2744.00,0.0186
2743.00,0.0186
2742.00,0.0186
2741.00,0.0185
2740.00,0.0185
2739.00,0.0184
2738.00,0.0184
2737.00,0.0183
2736.00,0.0183
2735.00,0.0183
2734.00,0.0182
2733.00,0.0182
2732.00,0.0182
2731.00,0.0182
2730.00,0.0181
2729.00,0.0181
2728.00,0.0180
2727.00,0.0180
2726.00,0.0179
2725.00,0.0179
2724.00,0.0179
2723.00,0.0178
2722.00,0.0178
2721.00,0.0178
2720.00,0.0178
2719.00,0.0177
2718.00,0.0177
2717.00,0.0177
2716.00,0.0177
2715.00,0.0177
2714.00,0.0176
2713.00,0.0176
2712.00,0.0176
2711.00,0.0175
2710.00,0.0175
2709.00,0.0175
2708.00,0.0175
2707.00,0.0174
2706.00,0.0174
2705.00,0.0174
2704.00,0.0173
2703.00,0.0173
2702.00,0.0173
2701.00,0.0172
2700.00,0.0172
2699.00,0.0172
2698.00,0.0172
2697.00,0.0171
2696.00,0.0172
2695.00,0.0172
2694.00,0.0172
2693.00,0.0171
2692.00,0.0171
2691.00,0.0171
2690.00,0.0171
2689.00,0.0170
2688.00,0.0170
2687.00,0.0170
2686.00,0.0170
2685.00,0.0170
2684.00,0.0169
2683.00,0.0169
2682.00,0.0169
2681.00,0.0169
2680.00,0.0169
2679.00,0.0169
2678.00,0.0168
2677.00,0.0168
2676.00,0.0168
2675.00,0.0168
2674.00,0.0168
2673.00,0.0168
2672.00,0.0168
2671.00,0.0167
2670.00,0.0167
2669.00,0.0167
2668.00,0.0167
2667.00,0.0167
2666.00,0.0167
2665.00,0.0167
2664.00,0.0167
2663.00,0.0167
2662.00,0.0167
2661.00,0.0167
2660.00,0.0167
2659.00,0.0167
2658.00,0.0167
2657.00,0.0166
2656.00,0.0166
2655.00,0.0166
2654.00,0.0166
2653.00,0.0166
2652.00,0.0166
2651.00,0.0165
2650.00,0.0165
2649.00,0.0165
2648.00,0.0164
2647.00,0.0164
2646.00,0.0164
2645.00,0.0164
2644.00,0.0164
2643.00,0.0163
2642.00,0.0163
2641.00,0.0163
2640.00,0.0163
2639.00,0.0162
2638.00,0.0162
2637.00,0.0162
2636.00,0.0161
2635.00,0.0161
2634.00,0.0161
2633.00,0.0161
2632.00,0.0160
2631.00,0.0160
2630.00,0.0159
2629.00,0.0159
2628.00,0.0159
2627.00,0.0159
2626.00,0.0159
2625.00,0.0158
2624.00,0.0158
2623.00,0.0158
2622.00,0.0158
2621.00,0.0157
2620.00,0.0157
2619.00,0.0157
2618.00,0.0157
2617.00,0.0157
2616.00,0.0157
2615.00,0.0157
2614.00,0.0156
2613.00,0.0156
2612.00,0.0156
2611.00,0.0155
2610.00,0.0155
2609.00,0.0154
2608.00,0.0154
2607.00,0.0154
2606.00,0.0153
2605.00,0.0153
2604.00,0.0153
2603.00,0.0153
2602.00,0.0153
2601.00,0.0153
2600.00,0.0152
2599.00,0.0152
2598.00,0.0152
2597.00,0.0152
2596.00,0.0151
2595.00,0.0151
2594.00,0.0151
2593.00,0.0150
2592.00,0.0150
2591.00,0.0150
2590.00,0.0150
2589.00,0.0150
2588.00,0.0150
2587.00,0.0149
2586.00,0.0149
2585.00,0.0148
2584.00,0.0148
2583.00,0.0148
2582.00,0.0147
2581.00,0.0147
2580.00,0.0147
2579.00,0.0146
2578.00,0.0146
2577.00,0.0146
2576.00,0.0146
2575.00,0.0146
2574.00,0.0146
2573.00,0.0146
2572.00,0.0146
2571.00,0.0146
2570.00,0.0146
2569.00,0.0146
2568.00,0.0146
2567.00,0.0146
2566.00,0.0146
2565.00,0.0146
2564.00,0.0146
2563.00,0.0145
2562.00,0.0144
2561.00,0.0144
2560.00,0.0143
2559.00,0.0143
2558.00,0.0143
2557.00,0.0143
2556.00,0.0142
2555.00,0.0142
2554.00,0.0142
2553.00,0.0142
2552.00,0.0142
2551.00,0.0142
2550.00,0.0142
2549.00,0.0141
2548.00,0.0141
2547.00,0.0141
2546.00,0.0141
2545.00,0.0141
2544.00,0.0141
2543.00,0.0141
2542.00,0.0140
2541.00,0.0139
2540.00,0.0139
2539.00,0.0139
2538.00,0.0139
2537.00,0.0139
2536.00,0.0139
2535.00,0.0139
2534.00,0.0139
2533.00,0.0139
2532.00,0.0139
2531.00,0.0139
2530.00,0.0139
2529.00,0.0138
2528.00,0.0138
2527.00,0.0137
2526.00,0.0137
2525.00,0.0137
2524.00,0.0136
2523.00,0.0136
2522.00,0.0136
2521.00,0.0136
2520.00,0.0136
2519.00,0.0136
2518.00,0.0136
2517.00,0.0135
2516.00,0.0135
2515.00,0.0134
2514.00,0.0134
2513.00,0.0134
2512.00,0.0134
2511.00,0.0133
2510.00,0.0133
2509.00,0.0133
2508.00,0.0133
2507.00,0.0133
2506.00,0.0133
2505.00,0.0133
2504.00,0.0133
2503.00,0.0132
2502.00,0.0132
2501.00,0.0132
2500.00,0.0132
2499.00,0.0131
2498.00,0.0131
2497.00,0.0131
2496.00,0.0131
2495.00,0.0130
2494.00,0.0130
2493.00,0.0130
2492.00,0.0130
2491.00,0.0130
2490.00,0.0130
2489.00,0.0129
2488.00,0.0129
2487.00,0.0129
2486.00,0.0129
2485.00,0.0129
2484.00,0.0129
2483.00,0.0129
2482.00,0.0129
2481.00,0.0128
2480.00,0.0128
2479.00,0.0127
2478.00,0.0128
2477.00,0.0128
2476.00,0.0128
2475.00,0.0127
2474.00,0.0126
2473.00,0.0126
2472.00,0.0126
2471.00,0.0125
2470.00,0.0125
2469.00,0.0125
2468.00,0.0125
2467.00,0.0125
2466.00,0.0125
2465.00,0.0125
2464.00,0.0126
2463.00,0.0126
2462.00,0.0126
2461.00,0.0126
2460.00,0.0125
2459.00,0.0125
2458.00,0.0125
2457.00,0.0125
2456.00,0.0124
2455.00,0.0124
2454.00,0.0124
2453.00,0.0124
2452.00,0.0124
2451.00,0.0124
2450.00,0.0123
2449.00,0.0123
2448.00,0.0123
2447.00,0.0122
2446.00,0.0122
2445.00,0.0122
2444.00,0.0122
2443.00,0.0121
2442.00,0.0121
2441.00,0.0121
2440.00,0.0121
2439.00,0.0121
2438.00,0.0120
2437.00,0.0120
2436.00,0.0119
2435.00,0.0119
2434.00,0.0119
2433.00,0.0118
2432.00,0.0118
2431.00,0.0118
2430.00,0.0118
2429.00,0.0118
2428.00,0.0119
2427.00,0.0119
2426.00,0.0118
2425.00,0.0118
2424.00,0.0118
2423.00,0.0117
2422.00,0.0117
2421.00,0.0116
2420.00,0.0116
2419.00,0.0115
2418.00,0.0115
2417.00,0.0116
2416.00,0.0116
2415.00,0.0115
2414.00,0.0115
2413.00,0.0115
2412.00,0.0115
2411.00,0.0115
2410.00,0.0115
2409.00,0.0115
2408.00,0.0114
2407.00,0.0114
2406.00,0.0113
2405.00,0.0113
2404.00,0.0112
2403.00,0.0112
2402.00,0.0112
2401.00,0.0112
2400.00,0.0111
2399.00,0.0111
2398.00,0.0111
2397.00,0.0111
2396.00,0.0111
2395.00,0.0111
2394.00,0.0110
2393.00,0.0110
2392.00,0.0110
2391.00,0.0110
2390.00,0.0109
2389.00,0.0108
2388.00,0.0108
2387.00,0.0107
2386.00,0.0106
2385.00,0.0105
2384.00,0.0104
2383.00,0.0103
2382.00,0.0103
2381.00,0.0103
2380.00,0.0103
2379.00,0.0103
2378.00,0.0103
2377.00,0.0104
2376.00,0.0104
2375.00,0.0104
2374.00,0.0103
2373.00,0.0103
2372.00,0.0103
2371.00,0.0103
2370.00,0.0102
2369.00,0.0102
2368.00,0.0102
2367.00,0.0103
2366.00,0.0103
2365.00,0.0103
2364.00,0.0103
2363.00,0.0103
2362.00,0.0102
2361.00,0.0101
2360.00,0.0101
2359.00,0.0100
2358.00,0.0100
2357.00,0.0099
2356.00,0.0100
2355.00,0.0100
2354.00,0.0101
2353.00,0.0101
2352.00,0.0101
2351.00,0.0101
2350.00,0.0101
2349.00,0.0101
2348.00,0.0101
2347.00,0.0101
2346.00,0.0101
2345.00,0.0101
2344.00,0.0101
2343.00,0.0101
2342.00,0.0101
2341.00,0.0101
2340.00,0.0101
2339.00,0.0101
2338.00,0.0101
2337.00,0.0101
2336.00,0.0101
2335.00,0.0100
2334.00,0.0100
2333.00,0.0100
2332.00,0.0099
2331.00,0.0100
2330.00,0.0100
2329.00,0.0102
2328.00,0.0104
2327.00,0.0106
2326.00,0.0108
2325.00,0.0108
2324.00,0.0108
2323.00,0.0106
2322.00,0.0105
2321.00,0.0105
2320.00,0.0104
2319.00,0.0104
2318.00,0.0105
2317.00,0.0105
2316.00,0.0104
2315.00,0.0104
2314.00,0.0103
2313.00,0.0102
2312.00,0.0101
2311.00,0.0101
2310.00,0.0101
2309.00,0.0101
2308.00,0.0101
2307.00,0.0102
2306.00,0.0102
2305.00,0.0102
2304.00,0.0102
2303.00,0.0102
2302.00,0.0103
2301.00,0.0103
2300.00,0.0103
2299.00,0.0104
2298.00,0.0104
2297.00,0.0105
2296.00,0.0106
2295.00,0.0107
2294.00,0.0107
2293.00,0.0107
2292.00,0.0107
2291.00,0.0107
2290.00,0.0107
2289.00,0.0107
2288.00,0.0108
2287.00,0.0108
2286.00,0.0108
2285.00,0.0107
2284.00,0.0106
2283.00,0.0106
2282.00,0.0105
2281.00,0.0105
2280.00,0.0106
2279.00,0.0106
2278.00,0.0105
2277.00,0.0105
2276.00,0.0105
2275.00,0.0105
2274.00,0.0105
2273.00,0.0106
2272.00,0.0106
2271.00,0.0106
2270.00,0.0105
2269.00,0.0105
2268.00,0.0105
2267.00,0.0104
2266.00,0.0104
2265.00,0.0104
2264.00,0.0104
2263.00,0.0104
2262.00,0.0104
2261.00,0.0104
2260.00,0.0103
2259.00,0.0103
2258.00,0.0102
2257.00,0.0101
2256.00,0.0101
2255.00,0.0100
2254.00,0.0100
2253.00,0.0101
2252.00,0.0101
2251.00,0.0101
2250.00,0.0100
2249.00,0.0100
2248.00,0.0100
2247.00,0.0101
2246.00,0.0101
2245.00,0.0101
2244.00,0.0101
2243.00,0.0100
2242.00,0.0100
2241.00,0.0100
2240.00,0.0100
2239.00,0.0100
2238.00,0.0100
2237.00,0.0100
2236.00,0.0101
2235.00,0.0101
2234.00,0.0102
2233.00,0.0102
2232.00,0.0101
2231.00,0.0101
2230.00,0.0101
2229.00,0.0101
2228.00,0.0101
2227.00,0.0101
2226.00,0.0101
2225.00,0.0101
2224.00,0.0101
2223.00,0.0101
2222.00,0.0101
2221.00,0.0101
2220.00,0.0100
2219.00,0.0099
2218.00,0.0098
2217.00,0.0097
2216.00,0.0097
2215.00,0.0097
2214.00,0.0097
2213.00,0.0097
2212.00,0.0097
2211.00,0.0098
2210.00,0.0098
2209.00,0.0098
2208.00,0.0099
2207.00,0.0099
2206.00,0.0098
2205.00,0.0098
2204.00,0.0098
2203.00,0.0097
2202.00,0.0096
2201.00,0.0096
2200.00,0.0095
2199.00,0.0095
2198.00,0.0095
2197.00,0.0096
2196.00,0.0097
2195.00,0.0097
2194.00,0.0098
2193.00,0.0098
2192.00,0.0099
2191.00,0.0099
2190.00,0.0099
2189.00,0.0099
2188.00,0.0100
2187.00,0.0101
2186.00,0.0100
2185.00,0.0098
2184.00,0.0096
2183.00,0.0094
2182.00,0.0094
2181.00,0.0094
2180.00,0.0095
2179.00,0.0096
2178.00,0.0096
2177.00,0.0095
2176.00,0.0095
2175.00,0.0096
2174.00,0.0096
2173.00,0.0096
2172.00,0.0096
2171.00,0.0097
2170.00,0.0098
2169.00,0.0099
2168.00,0.0101
2167.00,0.0102
2166.00,0.0102
2165.00,0.0103
2164.00,0.0103
2163.00,0.0103
2162.00,0.0100
2161.00,0.0093
2160.00,0.0085
2159.00,0.0078
2158.00,0.0075
2157.00,0.0076
2156.00,0.0078
2155.00,0.0080
2154.00,0.0081
2153.00,0.0082
2152.00,0.0082
2151.00,0.0083
2150.00,0.0082
2149.00,0.0082
2148.00,0.0081
2147.00,0.0081
2146.00,0.0081
2145.00,0.0082
2144.00,0.0084
2143.00,0.0084
2142.00,0.0084
2141.00,0.0083
2140.00,0.0082
2139.00,0.0080
2138.00,0.0079
2137.00,0.0077
2136.00,0.0077
2135.00,0.0077
2134.00,0.0077
2133.00,0.0079
2132.00,0.0080
2131.00,0.0082
2130.00,0.0083
2129.00,0.0083
2128.00,0.0083
2127.00,0.0084
2126.00,0.0084
2125.00,0.0084
2124.00,0.0085
2123.00,0.0085
2122.00,0.0086
2121.00,0.0086
2120.00,0.0086
2119.00,0.0087
2118.00,0.0088
2117.00,0.0089
2116.00,0.0090
2115.00,0.0090
2114.00,0.0090
2113.00,0.0090
2112.00,0.0090
2111.00,0.0089
2110.00,0.0089
2109.00,0.0088
2108.00,0.0086
2107.00,0.0086
2106.00,0.0085
2105.00,0.0086
2104.00,0.0087
2103.00,0.0087
2102.00,0.0087
2101.00,0.0087
2100.00,0.0086
2099.00,0.0085
2098.00,0.0085
2097.00,0.0084
2096.00,0.0083
2095.00,0.0084
2094.00,0.0084
2093.00,0.0084
2092.00,0.0084
2091.00,0.0084
2090.00,0.0084
2089.00,0.0085
2088.00,0.0085
2087.00,0.0086
2086.00,0.0086
2085.00,0.0086
2084.00,0.0086
2083.00,0.0087
2082.00,0.0087
2081.00,0.0086
2080.00,0.0086
2079.00,0.0086
2078.00,0.0085
2077.00,0.0085
2076.00,0.0085
2075.00,0.0085
2074.00,0.0085
2073.00,0.0086
2072.00,0.0087
2071.00,0.0087
2070.00,0.0087
2069.00,0.0086
2068.00,0.0084
2067.00,0.0083
2066.00,0.0081
2065.00,0.0081
2064.00,0.0081
2063.00,0.0082
2062.00,0.0082
2061.00,0.0082
2060.00,0.0081
2059.00,0.0080
2058.00,0.0081
2057.00,0.0082
2056.00,0.0083
2055.00,0.0083
2054.00,0.0085
2053.00,0.0087
2052.00,0.0088
2051.00,0.0089
2050.00,0.0088
2049.00,0.0086
2048.00,0.0084
2047.00,0.0083
2046.00,0.0082
2045.00,0.0081
2044.00,0.0080
2043.00,0.0079
2042.00,0.0079
2041.00,0.0079
2040.00,0.0081
2039.00,0.0081
2038.00,0.0081
2037.00,0.0081
2036.00,0.0082
2035.00,0.0081
2034.00,0.0080
2033.00,0.0077
2032.00,0.0075
2031.00,0.0072
2030.00,0.0072
2029.00,0.0073
2028.00,0.0074
2027.00,0.0075
2026.00,0.0074
2025.00,0.0074
2024.00,0.0074
2023.00,0.0074
2022.00,0.0074
2021.00,0.0074
2020.00,0.0074
2019.00,0.0073
2018.00,0.0074
2017.00,0.0075
2016.00,0.0077
2015.00,0.0078
2014.00,0.0077
2013.00,0.0075
2012.00,0.0075
2011.00,0.0076
2010.00,0.0077
2009.00,0.0076
2008.00,0.0074
2007.00,0.0071
2006.00,0.0071
2005.00,0.0071
2004.00,0.0072
2003.00,0.0072
2002.00,0.0072
2001.00,0.0072
2000.00,0.0072
1999.00,0.0072
1998.00,0.0073
1997.00,0.0075
1996.00,0.0075
1995.00,0.0075
1994.00,0.0074
1993.00,0.0075
1992.00,0.0076
1991.00,0.0077
1990.00,0.0077
1989.00,0.0077
1988.00,0.0077
1987.00,0.0077
1986.00,0.0077
1985.00,0.0077
1984.00,0.0079
1983.00,0.0081
1982.00,0.0083
1981.00,0.0083
1980.00,0.0081
1979.00,0.0079
1978.00,0.0076
1977.00,0.0075
1976.00,0.0074
1975.00,0.0074
1974.00,0.0073
1973.00,0.0072
1972.00,0.0072
1971.00,0.0071
1970.00,0.0070
1969.00,0.0068
1968.00,0.0068
1967.00,0.0068
1966.00,0.0069
1965.00,0.0070
1964.00,0.0071
1963.00,0.0071
1962.00,0.0070
1961.00,0.0069
1960.00,0.0068
1959.00,0.0067
1958.00,0.0068
1957.00,0.0069
1956.00,0.0069
1955.00,0.0070
1954.00,0.0070
1953.00,0.0070
1952.00,0.0070
1951.00,0.0069
1950.00,0.0069
1949.00,0.0068
1948.00,0.0068
1947.00,0.0069
1946.00,0.0068
1945.00,0.0067
1944.00,0.0067
1943.00,0.0067
1942.00,0.0066
1941.00,0.0065
1940.00,0.0066
1939.00,0.0067
1938.00,0.0068
1937.00,0.0069
1936.00,0.0069
1935.00,0.0069
1934.00,0.0069
1933.00,0.0068
1932.00,0.0067
1931.00,0.0067
1930.00,0.0067
1929.00,0.0067
1928.00,0.0067
1927.00,0.0068
1926.00,0.0067
1925.00,0.0067
1924.00,0.0066
1923.00,0.0066
1922.00,0.0066
1921.00,0.0066
1920.00,0.0067
1919.00,0.0067
1918.00,0.0067
1917.00,0.0067
1916.00,0.0067
1915.00,0.0068
1914.00,0.0068
1913.00,0.0068
1912.00,0.0068
1911.00,0.0067
1910.00,0.0067
1909.00,0.0066
1908.00,0.0066
1907.00,0.0066
1906.00,0.0066
1905.00,0.0067
1904.00,0.0067
1903.00,0.0067
1902.00,0.0067
1901.00,0.0067
1900.00,0.0067
1899.00,0.0067
1898.00,0.0067
1897.00,0.0066
1896.00,0.0066
1895.00,0.0067
1894.00,0.0067
1893.00,0.0067
1892.00,0.0066
1891.00,0.0066
1890.00,0.0066
1889.00,0.0066
1888.00,0.0067
1887.00,0.0067
1886.00,0.0067
1885.00,0.0067
1884.00,0.0067
1883.00,0.0067
1882.00,0.0067
1881.00,0.0067
1880.00,0.0066
1879.00,0.0066
1878.00,0.0066
1877.00,0.0066
1876.00,0.0066
1875.00,0.0066
1874.00,0.0066
1873.00,0.0065
1872.00,0.0064
1871.00,0.0063
1870.00,0.0063
1869.00,0.0063
1868.00,0.0063
1867.00,0.0064
1866.00,0.0064
1865.00,0.0064
1864.00,0.0064
1863.00,0.0065
1862.00,0.0064
1861.00,0.0064
1860.00,0.0064
1859.00,0.0064
1858.00,0.0064
1857.00,0.0065
1856.00,0.0065
1855.00,0.0065
1854.00,0.0065
1853.00,0.0065
1852.00,0.0065
1851.00,0.0065
1850.00,0.0065
1849.00,0.0064
1848.00,0.0062
1847.00,0.0061
1846.00,0.0060
1845.00,0.0061
1844.00,0.0063
1843.00,0.0065
1842.00,0.0065
1841.00,0.0065
1840.00,0.0064
1839.00,0.0064
1838.00,0.0064
1837.00,0.0064
1836.00,0.0064
1835.00,0.0064
1834.00,0.0063
1833.00,0.0062
1832.00,0.0061
1831.00,0.0061
1830.00,0.0061
1829.00,0.0062
1828.00,0.0062
1827.00,0.0062
1826.00,0.0062
1825.00,0.0063
1824.00,0.0064
1823.00,0.0065
1822.00,0.0066
1821.00,0.0066
1820.00,0.0065
1819.00,0.0065
1818.00,0.0064
1817.00,0.0065
1816.00,0.0065
1815.00,0.0065
1814.00,0.0065
1813.00,0.0065
1812.00,0.0065
1811.00,0.0065
1810.00,0.0066
1809.00,0.0067
1808.00,0.0067
1807.00,0.0067
1806.00,0.0068
1805.00,0.0068
1804.00,0.0067
1803.00,0.0067
1802.00,0.0066
1801.00,0.0067
1800.00,0.0069
1799.00,0.0070
1798.00,0.0071
1797.00,0.0071
1796.00,0.0071
1795.00,0.0070
1794.00,0.0071
1793.00,0.0072
1792.00,0.0075
1791.00,0.0076
1790.00,0.0077
1789.00,0.0078
1788.00,0.0078
1787.00,0.0078
1786.00,0.0078
1785.00,0.0079
1784.00,0.0080
1783.00,0.0080
1782.00,0.0080
1781.00,0.0081
1780.00,0.0082
1779.00,0.0083
1778.00,0.0084
1777.00,0.0084
1776.00,0.0083
1775.00,0.0083
1774.00,0.0084
1773.00,0.0086
1772.00,0.0090
1771.00,0.0092
1770.00,0.0093
1769.00,0.0094
1768.00,0.0097
1767.00,0.0100
1766.00,0.0102
1765.00,0.0102
1764.00,0.0104
1763.00,0.0106
1762.00,0.0111
1761.00,0.0116
1760.00,0.0122
1759.00,0.0127
1758.00,0.0133
1757.00,0.0142
1756.00,0.0152
1755.00,0.0161
1754.00,0.0169
1753.00,0.0178
1752.00,0.0190
1751.00,0.0203
1750.00,0.0215
1749.00,0.0226
1748.00,0.0236
1747.00,0.0246
1746.00,0.0255
1745.00,0.0263
1744.00,0.0271
1743.00,0.0277
1742.00,0.0282
1741.00,0.0287
1740.00,0.0293
1739.00,0.0298
1738.00,0.0299
1737.00,0.0296
1736.00,0.0295
1735.00,0.0295
1734.00,0.0296
1733.00,0.0294
1732.00,0.0290
1731.00,0.0284
1730.00,0.0279
1729.00,0.0274
1728.00,0.0270
1727.00,0.0266
1726.00,0.0261
1725.00,0.0257
1724.00,0.0254
1723.00,0.0251
1722.00,0.0248
1721.00,0.0244
1720.00,0.0242
1719.00,0.0242
1718.00,0.0244
1717.00,0.0246
1716.00,0.0248
1715.00,0.0248
1714.00,0.0248
1713.00,0.0249
1712.00,0.0249
1711.00,0.0249
1710.00,0.0249
1709.00,0.0248
1708.00,0.0246
1707.00,0.0244
1706.00,0.0243
1705.00,0.0241
1704.00,0.0239
1703.00,0.0237
1702.00,0.0238
1701.00,0.0242
1700.00,0.0246
1699.00,0.0250
1698.00,0.0252
1697.00,0.0255
1696.00,0.0261
1695.00,0.0266
1694.00,0.0269
1693.00,0.0271
1692.00,0.0273
1691.00,0.0276
1690.00,0.0279
1689.00,0.0282
1688.00,0.0285
1687.00,0.0290
1686.00,0.0298
1685.00,0.0305
1684.00,0.0309
1683.00,0.0313
1682.00,0.0318
1681.00,0.0325
1680.00,0.0334
1679.00,0.0343
1678.00,0.0352
1677.00,0.0361
1676.00,0.0371
1675.00,0.0379
1674.00,0.0387
1673.00,0.0397
1672.00,0.0407
1671.00,0.0417
1670.00,0.0426
1669.00,0.0433
1668.00,0.0443
1667.00,0.0455
1666.00,0.0467
1665.00,0.0480
1664.00,0.0492
1663.00,0.0503
1662.00,0.0513
1661.00,0.0524
1660.00,0.0537
1659.00,0.0551
1658.00,0.0565
1657.00,0.0578
1656.00,0.0594
1655.00,0.0610
1654.00,0.0619
1653.00,0.0616
1652.00,0.0615
1651.00,0.0622
1650.00,0.0633
1649.00,0.0646
1648.00,0.0657
1647.00,0.0660
1646.00,0.0660
1645.00,0.0662
1644.00,0.0669
1643.00,0.0677
1642.00,0.0685
1641.00,0.0690
1640.00,0.0695
1639.00,0.0699
1638.00,0.0703
1637.00,0.0703
1636.00,0.0695
1635.00,0.0683
1634.00,0.0675
1633.00,0.0672
1632.00,0.0673
1631.00,0.0673
1630.00,0.0669
1629.00,0.0661
1628.00,0.0650
1627.00,0.0639
1626.00,0.0630
1625.00,0.0621
1624.00,0.0610
1623.00,0.0595
1622.00,0.0580
1621.00,0.0569
1620.00,0.0562
1619.00,0.0557
1618.00,0.0549
1617.00,0.0535
1616.00,0.0517
1615.00,0.0502
1614.00,0.0490
1613.00,0.0481
1612.00,0.0473
1611.00,0.0464
1610.00,0.0453
1609.00,0.0442
1608.00,0.0432
1607.00,0.0422
1606.00,0.0414
1605.00,0.0406
1604.00,0.0399
1603.00,0.0392
1602.00,0.0385
1601.00,0.0379
1600.00,0.0374
1599.00,0.0370
1598.00,0.0367
1597.00,0.0364
1596.00,0.0361
1595.00,0.0359
1594.00,0.0357
1593.00,0.0355
1592.00,0.0354
1591.00,0.0353
1590.00,0.0353
1589.00,0.0352
1588.00,0.0353
1587.00,0.0354
1586.00,0.0355
1585.00,0.0356
1584.00,0.0358
1583.00,0.0360
1582.00,0.0362
1581.00,0.0365
1580.00,0.0367
1579.00,0.0370
1578.00,0.0375
1577.00,0.0380
1576.00,0.0384
1575.00,0.0387
1574.00,0.0389
1573.00,0.0392
1572.00,0.0397
1571.00,0.0403
1570.00,0.0407
1569.00,0.0410
1568.00,0.0415
1567.00,0.0422
1566.00,0.0428
1565.00,0.0435
1564.00,0.0441
1563.00,0.0447
1562.00,0.0456
1561.00,0.0466
1560.00,0.0474
1559.00,0.0473
1558.00,0.0470
1557.00,0.0475
1556.00,0.0485
1555.00,0.0494
1554.00,0.0503
1553.00,0.0511
1552.00,0.0517
1551.00,0.0523
1550.00,0.0527
1549.00,0.0531
1548.00,0.0536
1547.00,0.0541
1546.00,0.0544
1545.00,0.0545
1544.00,0.0544
1543.00,0.0544
1542.00,0.0545
1541.00,0.0543
1540.00,0.0537
1539.00,0.0530
1538.00,0.0527
1537.00,0.0527
1536.00,0.0528
1535.00,0.0529
1534.00,0.0524
1533.00,0.0515
1532.00,0.0509
1531.00,0.0506
1530.00,0.0506
1529.00,0.0504
1528.00,0.0499
1527.00,0.0493
1526.00,0.0487
1525.00,0.0482
1524.00,0.0479
1523.00,0.0476
1522.00,0.0471
1521.00,0.0464
1520.00,0.0457
1519.00,0.0454
1518.00,0.0452
1517.00,0.0448
1516.00,0.0442
1515.00,0.0437
1514.00,0.0433
1513.00,0.0428
1512.00,0.0421
1511.00,0.0412
1510.00,0.0404
1509.00,0.0397
1508.00,0.0389
1507.00,0.0376
1506.00,0.0364
1505.00,0.0356
1504.00,0.0352
1503.00,0.0347
1502.00,0.0342
1501.00,0.0337
1500.00,0.0331
1499.00,0.0324
1498.00,0.0318
1497.00,0.0312
1496.00,0.0307
1495.00,0.0303
1494.00,0.0298
1493.00,0.0295
1492.00,0.0291
1491.00,0.0286
1490.00,0.0279
1489.00,0.0273
1488.00,0.0270
1487.00,0.0268
1486.00,0.0268
1485.00,0.0268
1484.00,0.0268
1483.00,0.0269
1482.00,0.0270
1481.00,0.0272
1480.00,0.0274
1479.00,0.0277
1478.00,0.0282
1477.00,0.0287
1476.00,0.0294
1475.00,0.0304
1474.00,0.0317
1473.00,0.0331
1472.00,0.0345
1471.00,0.0358
1470.00,0.0369
1469.00,0.0379
1468.00,0.0387
1467.00,0.0392
1466.00,0.0394
1465.00,0.0395
1464.00,0.0395
1463.00,0.0395
1462.00,0.0395
1461.00,0.0395
1460.00,0.0396
1459.00,0.0397
1458.00,0.0400
1457.00,0.0404
1456.00,0.0407
1455.00,0.0408
1454.00,0.0407
1453.00,0.0405
1452.00,0.0403
1451.00,0.0400
1450.00,0.0397
1449.00,0.0394
1448.00,0.0391
1447.00,0.0388
1446.00,0.0386
1445.00,0.0385
1444.00,0.0384
1443.00,0.0382
1442.00,0.0380
1441.00,0.0378
1440.00,0.0376
1439.00,0.0375
1438.00,0.0372
1437.00,0.0369
1436.00,0.0366
1435.00,0.0363
1434.00,0.0362
1433.00,0.0361
1432.00,0.0360
1431.00,0.0358
1430.00,0.0356
1429.00,0.0354
1428.00,0.0354
1427.00,0.0354
1426.00,0.0355
1425.00,0.0356
1424.00,0.0358
1423.00,0.0361
1422.00,0.0364
1421.00,0.0370
1420.00,0.0376
1419.00,0.0381
1418.00,0.0385
1417.00,0.0391
1416.00,0.0396
1415.00,0.0400
1414.00,0.0403
1413.00,0.0404
1412.00,0.0405
1411.00,0.0405
1410.00,0.0405
1409.00,0.0406
1408.00,0.0408
1407.00,0.0409
1406.00,0.0410
1405.00,0.0411
1404.00,0.0412
1403.00,0.0414
1402.00,0.0415
1401.00,0.0417
1400.00,0.0418
1399.00,0.0418
1398.00,0.0418
1397.00,0.0418
1396.00,0.0418
1395.00,0.0418
1394.00,0.0418
1393.00,0.0419
1392.00,0.0421
1391.00,0.0423
1390.00,0.0424
1389.00,0.0425
1388.00,0.0425
1387.00,0.0426
1386.00,0.0427
1385.00,0.0430
1384.00,0.0433
1383.00,0.0437
1382.00,0.0442
1381.00,0.0445
1380.00,0.0449
1379.00,0.0451
1378.00,0.0452
1377.00,0.0451
1376.00,0.0448
1375.00,0.0443
1374.00,0.0437
1373.00,0.0430
1372.00,0.0426
1371.00,0.0421
1370.00,0.0417
1369.00,0.0412
1368.00,0.0407
1367.00,0.0403
1366.00,0.0398
1365.00,0.0393
1364.00,0.0386
1363.00,0.0380
1362.00,0.0374
1361.00,0.0371
1360.00,0.0368
1359.00,0.0367
1358.00,0.0365
1357.00,0.0363
1356.00,0.0361
1355.00,0.0359
1354.00,0.0358
1353.00,0.0357
1352.00,0.0357
1351.00,0.0358
1350.00,0.0358
1349.00,0.0358
1348.00,0.0358
1347.00,0.0359
1346.00,0.0359
1345.00,0.0360
1344.00,0.0361
1343.00,0.0361
1342.00,0.0361
1341.00,0.0361
1340.00,0.0360
1339.00,0.0359
1338.00,0.0359
1337.00,0.0360
1336.00,0.0362
1335.00,0.0364
1334.00,0.0366
1333.00,0.0367
1332.00,0.0368
1331.00,0.0369
1330.00,0.0369
1329.00,0.0370
1328.00,0.0370
1327.00,0.0370
1326.00,0.0370
1325.00,0.0371
1324.00,0.0372
1323.00,0.0373
1322.00,0.0373
1321.00,0.0374
1320.00,0.0375
1319.00,0.0377
1318.00,0.0378
1317.00,0.0380
1316.00,0.0382
1315.00,0.0384
1314.00,0.0385
1313.00,0.0387
1312.00,0.0387
1311.00,0.0388
1310.00,0.0387
1309.00,0.0386
1308.00,0.0385
1307.00,0.0383
1306.00,0.0382
1305.00,0.0380
1304.00,0.0378
1303.00,0.0376
1302.00,0.0374
1301.00,0.0372
1300.00,0.0370
1299.00,0.0367
1298.00,0.0365
1297.00,0.0362
1296.00,0.0359
1295.00,0.0357
1294.00,0.0355
1293.00,0.0353
1292.00,0.0353
1291.00,0.0353
1290.00,0.0353
1289.00,0.0355
1288.00,0.0357
1287.00,0.0360
1286.00,0.0363
1285.00,0.0366
1284.00,0.0369
1283.00,0.0372
1282.00,0.0376
1281.00,0.0379
1280.00,0.0382
1279.00,0.0384
1278.00,0.0386
1277.00,0.0388
1276.00,0.0390
1275.00,0.0393
1274.00,0.0396
1273.00,0.0399
1272.00,0.0404
1271.00,0.0408
1270.00,0.0412
1269.00,0.0417
1268.00,0.0422
1267.00,0.0427
1266.00,0.0430
1265.00,0.0433
1264.00,0.0436
1263.00,0.0438
1262.00,0.0440
1261.00,0.0442
1260.00,0.0445
1259.00,0.0447
1258.00,0.0450
1257.00,0.0452
1256.00,0.0455
1255.00,0.0458
1254.00,0.0460
1253.00,0.0463
1252.00,0.0467
1251.00,0.0470
1250.00,0.0473
1249.00,0.0476
1248.00,0.0478
1247.00,0.0481
1246.00,0.0483
1245.00,0.0486
1244.00,0.0488
1243.00,0.0489
1242.00,0.0490
1241.00,0.0491
1240.00,0.0492
1239.00,0.0493
1238.00,0.0493
1237.00,0.0494
1236.00,0.0494
1235.00,0.0495
1234.00,0.0495
1233.00,0.0495
1232.00,0.0496
1231.00,0.0497
1230.00,0.0497
1229.00,0.0498
1228.00,0.0499
1227.00,0.0499
1226.00,0.0499
1225.00,0.0500
1224.00,0.0502
1223.00,0.0503
1222.00,0.0504
1221.00,0.0504
1220.00,0.0504
1219.00,0.0503
1218.00,0.0502
1217.00,0.0501
1216.00,0.0502
1215.00,0.0502
1214.00,0.0503
1213.00,0.0505
1212.00,0.0506
1211.00,0.0508
1210.00,0.0509
1209.00,0.0512
1208.00,0.0514
1207.00,0.0517
1206.00,0.0519
1205.00,0.0522
1204.00,0.0524
1203.00,0.0527
1202.00,0.0530
1201.00,0.0532
1200.00,0.0533
1199.00,0.0533
1198.00,0.0533
1197.00,0.0531
1196.00,0.0530
1195.00,0.0528
1194.00,0.0526
1193.00,0.0524
1192.00,0.0523
1191.00,0.0522
1190.00,0.0522
1189.00,0.0521
1188.00,0.0522
1187.00,0.0523
1186.00,0.0525
1185.00,0.0527
1184.00,0.0529
1183.00,0.0530
1182.00,0.0530
1181.00,0.0530
1180.00,0.0531
1179.00,0.0531
1178.00,0.0532
1177.00,0.0533
1176.00,0.0534
1175.00,0.0535
1174.00,0.0537
1173.00,0.0538
1172.00,0.0540
1171.00,0.0541
1170.00,0.0543
1169.00,0.0544
1168.00,0.0545
1167.00,0.0546
1166.00,0.0547
1165.00,0.0548
1164.00,0.0549
1163.00,0.0550
1162.00,0.0551
1161.00,0.0551
1160.00,0.0551
1159.00,0.0551
1158.00,0.0550
1157.00,0.0549
1156.00,0.0548
1155.00,0.0546
1154.00,0.0544
1153.00,0.0542
1152.00,0.0541
1151.00,0.0539
1150.00,0.0536
1149.00,0.0534
1148.00,0.0532
1147.00,0.0529
1146.00,0.0527
1145.00,0.0525
1144.00,0.0522
1143.00,0.0520
1142.00,0.0518
1141.00,0.0516
1140.00,0.0514
1139.00,0.0512
1138.00,0.0509
1137.00,0.0508
1136.00,0.0506
1135.00,0.0505
1134.00,0.0505
1133.00,0.0505
1132.00,0.0506
1131.00,0.0508
1130.00,0.0510
1129.00,0.0512
1128.00,0.0515
1127.00,0.0518
1126.00,0.0521
1125.00,0.0524
1124.00,0.0528
1123.00,0.0532
1122.00,0.0536
1121.00,0.0541
1120.00,0.0546
1119.00,0.0551
1118.00,0.0555
1117.00,0.0560
1116.00,0.0565
1115.00,0.0569
1114.00,0.0572
1113.00,0.0575
1112.00,0.0578
1111.00,0.0581
1110.00,0.0583
1109.00,0.0585
1108.00,0.0587
1107.00,0.0590
1106.00,0.0592
1105.00,0.0595
1104.00,0.0598
1103.00,0.0601
1102.00,0.0604
1101.00,0.0607
1100.00,0.0611
1099.00,0.0615
1098.00,0.0619
1097.00,0.0623
1096.00,0.0629
1095.00,0.0635
1094.00,0.0641
1093.00,0.0648
1092.00,0.0655
1091.00,0.0663
1090.00,0.0671
1089.00,0.0680
1088.00,0.0690
1087.00,0.0700
1086.00,0.0710
1085.00,0.0720
1084.00,0.0730
1083.00,0.0739
1082.00,0.0748
1081.00,0.0757
1080.00,0.0765
1079.00,0.0771
1078.00,0.0777
1077.00,0.0782
1076.00,0.0787
1075.00,0.0791
1074.00,0.0794
1073.00,0.0796
1072.00,0.0799
1071.00,0.0801
1070.00,0.0802
1069.00,0.0805
1068.00,0.0807
1067.00,0.0809
1066.00,0.0811
1065.00,0.0814
1064.00,0.0817
1063.00,0.0820
1062.00,0.0823
1061.00,0.0826
1060.00,0.0829
1059.00,0.0833
1058.00,0.0835
1057.00,0.0838
1056.00,0.0841
1055.00,0.0843
1054.00,0.0846
1053.00,0.0849
1052.00,0.0853
1051.00,0.0857
1050.00,0.0861
1049.00,0.0865
1048.00,0.0869
1047.00,0.0873
1046.00,0.0876
1045.00,0.0880
1044.00,0.0882
1043.00,0.0884
1042.00,0.0885
1041.00,0.0886
1040.00,0.0887
1039.00,0.0886
1038.00,0.0885
1037.00,0.0883
1036.00,0.0881
1035.00,0.0879
1034.00,0.0877
1033.00,0.0875
1032.00,0.0872
1031.00,0.0870
1030.00,0.0867
1029.00,0.0864
1028.00,0.0860
1027.00,0.0856
1026.00,0.0852
1025.00,0.0847
1024.00,0.0843
1023.00,0.0837
1022.00,0.0831
1021.00,0.0824
1020.00,0.0816
1019.00,0.0808
1018.00,0.0800
1017.00,0.0791
1016.00,0.0782
1015.00,0.0773
1014.00,0.0764
1013.00,0.0755
1012.00,0.0747
1011.00,0.0739
1010.00,0.0730
1009.00,0.0722
1008.00,0.0713
1007.00,0.0705
1006.00,0.0697
1005.00,0.0690
1004.00,0.0683
1003.00,0.0675
1002.00,0.0668
1001.00,0.0660
1000.00,0.0653
999.00,0.0645
998.00,0.0637
997.00,0.0628
996.00,0.0620
995.00,0.0611
994.00,0.0601
993.00,0.0591
992.00,0.0581
991.00,0.0571
990.00,0.0561
989.00,0.0550
988.00,0.0541
987.00,0.0532
986.00,0.0524
985.00,0.0515
984.00,0.0508
983.00,0.0500
982.00,0.0493
981.00,0.0487
980.00,0.0482
979.00,0.0477
978.00,0.0473
977.00,0.0469
976.00,0.0467
975.00,0.0464
974.00,0.0463
973.00,0.0462
972.00,0.0462
971.00,0.0462
970.00,0.0463
969.00,0.0463
968.00,0.0464
967.00,0.0464
966.00,0.0463
965.00,0.0461
964.00,0.0458
963.00,0.0454
962.00,0.0448
961.00,0.0441
960.00,0.0435
959.00,0.0428
958.00,0.0421
957.00,0.0414
956.00,0.0408
955.00,0.0403
954.00,0.0398
953.00,0.0394
952.00,0.0390
951.00,0.0387
950.00,0.0383
949.00,0.0380
948.00,0.0378
947.00,0.0376
946.00,0.0373
945.00,0.0370
944.00,0.0368
943.00,0.0366
942.00,0.0364
941.00,0.0361
940.00,0.0359
939.00,0.0358
938.00,0.0356
937.00,0.0355
936.00,0.0353
935.00,0.0351
934.00,0.0349
933.00,0.0346
932.00,0.0344
931.00,0.0341
930.00,0.0338
929.00,0.0335
928.00,0.0333
927.00,0.0330
926.00,0.0328
925.00,0.0326
924.00,0.0325
923.00,0.0324
922.00,0.0322
921.00,0.0321
920.00,0.0321
919.00,0.0320
918.00,0.0319
917.00,0.0319
916.00,0.0318
915.00,0.0317
914.00,0.0316
913.00,0.0315
912.00,0.0315
911.00,0.0315
910.00,0.0315
909.00,0.0316
908.00,0.0317
907.00,0.0318
906.00,0.0320
905.00,0.0322
904.00,0.0323
903.00,0.0325
902.00,0.0326
901.00,0.0328
900.00,0.0330
899.00,0.0331
898.00,0.0332
897.00,0.0333
896.00,0.0332
895.00,0.0332
894.00,0.0330
893.00,0.0328
892.00,0.0327
891.00,0.0325
890.00,0.0322
889.00,0.0320
888.00,0.0317
887.00,0.0315
886.00,0.0312
885.00,0.0309
884.00,0.0307
883.00,0.0305
882.00,0.0304
881.00,0.0303
880.00,0.0302
879.00,0.0302
878.00,0.0302
877.00,0.0303
876.00,0.0304
875.00,0.0305
874.00,0.0306
873.00,0.0306
872.00,0.0308
871.00,0.0309
870.00,0.0311
869.00,0.0312
868.00,0.0314
867.00,0.0316
866.00,0.0317
865.00,0.0319
864.00,0.0321
863.00,0.0323
862.00,0.0325
861.00,0.0326
860.00,0.0328
859.00,0.0330
858.00,0.0332
857.00,0.0334
856.00,0.0336
855.00,0.0338
854.00,0.0340
853.00,0.0341
852.00,0.0343
851.00,0.0345
850.00,0.0346
849.00,0.0347
848.00,0.0348
847.00,0.0349
846.00,0.0350
845.00,0.0351
844.00,0.0352
843.00,0.0353
842.00,0.0355
841.00,0.0356
840.00,0.0358
839.00,0.0360
838.00,0.0360
837.00,0.0361
836.00,0.0362
835.00,0.0364
834.00,0.0365
833.00,0.0367
832.00,0.0370
831.00,0.0372
830.00,0.0373
829.00,0.0375
828.00,0.0377
827.00,0.0379
826.00,0.0381
825.00,0.0383
824.00,0.0385
823.00,0.0388
822.00,0.0390
821.00,0.0392
820.00,0.0393
819.00,0.0393
818.00,0.0393
817.00,0.0393
816.00,0.0393
815.00,0.0393
814.00,0.0393
813.00,0.0392
812.00,0.0391
811.00,0.0390
810.00,0.0389
809.00,0.0388
808.00,0.0387
807.00,0.0385
806.00,0.0383
805.00,0.0382
804.00,0.0381
803.00,0.0381
802.00,0.0380
801.00,0.0380
800.00,0.0380
799.00,0.0381
798.00,0.0381
797.00,0.0381
796.00,0.0381
795.00,0.0382
794.00,0.0382
793.00,0.0383
792.00,0.0385
791.00,0.0387
790.00,0.0388
789.00,0.0390
788.00,0.0392
787.00,0.0394
786.00,0.0396
785.00,0.0399
784.00,0.0402
783.00,0.0406
782.00,0.0410
781.00,0.0413
780.00,0.0416
779.00,0.0419
778.00,0.0421
777.00,0.0423
776.00,0.0426
775.00,0.0429
774.00,0.0431
773.00,0.0433
772.00,0.0436
771.00,0.0438
770.00,0.0440
769.00,0.0442
768.00,0.0444
767.00,0.0446
766.00,0.0447
765.00,0.0448
764.00,0.0449
763.00,0.0450
762.00,0.0450
761.00,0.0450
760.00,0.0451
759.00,0.0452
758.00,0.0453
757.00,0.0454
756.00,0.0456
755.00,0.0458
754.00,0.0459
753.00,0.0462
752.00,0.0464
751.00,0.0467
750.00,0.0470
749.00,0.0472
748.00,0.0475
747.00,0.0478
746.00,0.0481
745.00,0.0484
744.00,0.0487
743.00,0.0491
742.00,0.0494
741.00,0.0497
740.00,0.0501
739.00,0.0504
738.00,0.0507
737.00,0.0509
736.00,0.0513
735.00,0.0516
734.00,0.0520
733.00,0.0524
732.00,0.0529
731.00,0.0534
730.00,0.0539
729.00,0.0544
728.00,0.0550
727.00,0.0556
726.00,0.0563
725.00,0.0571
724.00,0.0579
723.00,0.0587
722.00,0.0595
721.00,0.0601
720.00,0.0606
719.00,0.0609
718.00,0.0610
717.00,0.0610
716.00,0.0609
715.00,0.0606
714.00,0.0603
713.00,0.0600
712.00,0.0598
711.00,0.0596
710.00,0.0594
709.00,0.0593
708.00,0.0593
707.00,0.0593
706.00,0.0593
705.00,0.0593
704.00,0.0594
703.00,0.0595
702.00,0.0596
701.00,0.0597
700.00,0.0598
699.00,0.0598
698.00,0.0598
697.00,0.0597
696.00,0.0597
695.00,0.0596
694.00,0.0594
693.00,0.0593
692.00,0.0593
691.00,0.0594
690.00,0.0595
689.00,0.0596
688.00,0.0598
687.00,0.0600
686.00,0.0601
685.00,0.0603
684.00,0.0604
683.00,0.0605
682.00,0.0606
681.00,0.0606
680.00,0.0607
679.00,0.0608
678.00,0.0609
677.00,0.0610
676.00,0.0611
675.00,0.0613
674.00,0.0613
673.00,0.0614
672.00,0.0615
671.00,0.0615
670.00,0.0615
669.00,0.0614
668.00,0.0613
667.00,0.0612
666.00,0.0614
665.00,0.0618
664.00,0.0621
663.00,0.0622
662.00,0.0622
661.00,0.0621
660.00,0.0622
659.00,0.0624
658.00,0.0624
657.00,0.0625
656.00,0.0626
655.00,0.0627
654.00,0.0628
653.00,0.0629
652.00,0.0630
651.00,0.0631
650.00,0.0632
649.00,0.0633
648.00,0.0635
647.00,0.0637
646.00,0.0639
645.00,0.0641
644.00,0.0644
643.00,0.0645
642.00,0.0647
641.00,0.0648
640.00,0.0650
639.00,0.0651
638.00,0.0653
637.00,0.0653
636.00,0.0655
635.00,0.0656
634.00,0.0658
633.00,0.0660
632.00,0.0663
631.00,0.0666
630.00,0.0668
629.00,0.0670
628.00,0.0673
627.00,0.0677
626.00,0.0680
625.00,0.0684
624.00,0.0687
623.00,0.0691
622.00,0.0693
621.00,0.0696
620.00,0.0699
619.00,0.0702
618.00,0.0704
617.00,0.0706
616.00,0.0708
615.00,0.0710
614.00,0.0710
613.00,0.0710
612.00,0.0711
611.00,0.0711
610.00,0.0711
609.00,0.0713
608.00,0.0716
607.00,0.0719
606.00,0.0719
605.00,0.0720
604.00,0.0721
603.00,0.0723
602.00,0.0724
601.00,0.0725
600.00,0.0725
599.00,0.0725
598.00,0.0724
597.00,0.0724
596.00,0.0726
595.00,0.0728
594.00,0.0729
593.00,0.0729
592.00,0.0730
591.00,0.0731
590.00,0.0731
589.00,0.0733
588.00,0.0736
587.00,0.0738
586.00,0.0738
585.00,0.0738
584.00,0.0740
583.00,0.0742
582.00,0.0743
581.00,0.0744
580.00,0.0746
579.00,0.0747
578.00,0.0747
577.00,0.0748
576.00,0.0749
575.00,0.0751
574.00,0.0752
573.00,0.0753
572.00,0.0754
571.00,0.0755
570.00,0.0756
569.00,0.0757
568.00,0.0761
567.00,0.0764
566.00,0.0766
565.00,0.0766
564.00,0.0767
563.00,0.0768
562.00,0.0766
561.00,0.0765
560.00,0.0765
559.00,0.0765
558.00,0.0765
557.00,0.0765
556.00,0.0766
555.00,0.0767
554.00,0.0768
553.00,0.0769
552.00,0.0772
551.00,0.0775
550.00,0.0776
549.00,0.0777
548.00,0.0779
547.00,0.0779
546.00,0.0778
545.00,0.0778
544.00,0.0781
543.00,0.0784
542.00,0.0785
541.00,0.0786
540.00,0.0787
539.00,0.0787
538.00,0.0787
537.00,0.0786
536.00,0.0787
535.00,0.0788
534.00,0.0788
533.00,0.0789
532.00,0.0792
531.00,0.0794
530.00,0.0793
529.00,0.0791
528.00,0.0789
527.00,0.0788
526.00,0.0787
525.00,0.0786
524.00,0.0786
523.00,0.0785
522.00,0.0781
521.00,0.0779
520.00,0.0779
519.00,0.0778
518.00,0.0776
517.00,0.0774
516.00,0.0772
515.00,0.0770
514.00,0.0767
513.00,0.0764
512.00,0.0764
511.00,0.0763
510.00,0.0762
509.00,0.0761
508.00,0.0760
507.00,0.0760
506.00,0.0759
505.00,0.0758
504.00,0.0758
503.00,0.0757
502.00,0.0754
501.00,0.0752
500.00,0.0752
499.00,0.0754
498.00,0.0755
497.00,0.0757
496.00,0.0759
495.00,0.0760
494.00,0.0758
493.00,0.0755
492.00,0.0756
491.00,0.0757
490.00,0.0757
489.00,0.0757
488.00,0.0758
487.00,0.0758
486.00,0.0757
485.00,0.0756
484.00,0.0758
483.00,0.0759
482.00,0.0759
481.00,0.0758
480.00,0.0761
479.00,0.0763
478.00,0.0762
477.00,0.0760
476.00,0.0761
475.00,0.0762
474.00,0.0761
473.00,0.0758
472.00,0.0757
471.00,0.0755
470.00,0.0752
469.00,0.0752
468.00,0.0757
467.00,0.0762
466.00,0.0763
465.00,0.0762
464.00,0.0761
463.00,0.0758
462.00,0.0752
461.00,0.0748
460.00,0.0749
459.00,0.0749
458.00,0.0745
457.00,0.0740
456.00,0.0738
455.00,0.0737
454.00,0.0733
453.00,0.0730
452.00,0.0730
451.00,0.0731
450.00,0.0728
449.00,0.0724
448.00,0.0722
447.00,0.0720
446.00,0.0715
445.00,0.0709
444.00,0.0705
443.00,0.0700
442.00,0.0696
441.00,0.0694
440.00,0.0695
439.00,0.0692
438.00,0.0685
437.00,0.0680
436.00,0.0682
435.00,0.0686
434.00,0.0687
433.00,0.0687
432.00,0.0687
431.00,0.0685
430.00,0.0678
429.00,0.0672
428.00,0.0671
427.00,0.0671
426.00,0.0668
425.00,0.0662
424.00,0.0657
423.00,0.0653
422.00,0.0649
421.00,0.0651
420.00,0.0660
419.00,0.0666
418.00,0.0664
417.00,0.0662
416.00,0.0665
415.00,0.0664
414.00,0.0654
413.00,0.0643
412.00,0.0639
411.00,0.0639
410.00,0.0638
409.00,0.0639
408.00,0.0647
407.00,0.0651
406.00,0.0644
405.00,0.0634
404.00,0.0631
403.00,0.0630
402.00,0.0624
401.00,0.0617
400.00,0.0614
