Created as New Dataset,Sample 462 By YargerLab Date Saturday, March 01 2025
cm-1,A
4000.00,-0.0093
3999.00,-0.0092
3998.00,-0.0092
3997.00,-0.0093
3996.00,-0.0093
3995.00,-0.0093
3994.00,-0.0093
3993.00,-0.0093
3992.00,-0.0093
3991.00,-0.0093
3990.00,-0.0093
3989.00,-0.0094
3988.00,-0.0094
3987.00,-0.0094
3986.00,-0.0094
3985.00,-0.0094
3984.00,-0.0094
3983.00,-0.0093
3982.00,-0.0093
3981.00,-0.0093
3980.00,-0.0093
3979.00,-0.0093
3978.00,-0.0093
3977.00,-0.0093
3976.00,-0.0093
3975.00,-0.0094
3974.00,-0.0094
3973.00,-0.0094
3972.00,-0.0095
3971.00,-0.0095
3970.00,-0.0095
3969.00,-0.0095
3968.00,-0.0095
3967.00,-0.0095
3966.00,-0.0095
3965.00,-0.0095
3964.00,-0.0095
3963.00,-0.0095
3962.00,-0.0095
3961.00,-0.0095
3960.00,-0.0095
3959.00,-0.0095
3958.00,-0.0095
3957.00,-0.0095
3956.00,-0.0095
3955.00,-0.0095
3954.00,-0.0095
3953.00,-0.0095
3952.00,-0.0095
3951.00,-0.0095
3950.00,-0.0095
3949.00,-0.0095
3948.00,-0.0095
3947.00,-0.0095
3946.00,-0.0094
3945.00,-0.0095
3944.00,-0.0095
3943.00,-0.0095
3942.00,-0.0095
3941.00,-0.0096
3940.00,-0.0096
3939.00,-0.0096
3938.00,-0.0096
3937.00,-0.0096
3936.00,-0.0096
3935.00,-0.0095
3934.00,-0.0096
3933.00,-0.0096
3932.00,-0.0096
3931.00,-0.0096
3930.00,-0.0096
3929.00,-0.0096
3928.00,-0.0096
3927.00,-0.0096
3926.00,-0.0096
3925.00,-0.0096
3924.00,-0.0096
3923.00,-0.0096
3922.00,-0.0096
3921.00,-0.0097
3920.00,-0.0097
3919.00,-0.0097
3918.00,-0.0097
3917.00,-0.0097
3916.00,-0.0097
3915.00,-0.0097
3914.00,-0.0097
3913.00,-0.0097
3912.00,-0.0097
3911.00,-0.0097
3910.00,-0.0097
3909.00,-0.0098
3908.00,-0.0098
3907.00,-0.0098
3906.00,-0.0098
3905.00,-0.0098
3904.00,-0.0099
3903.00,-0.0099
3902.00,-0.0099
3901.00,-0.0099
3900.00,-0.0099
3899.00,-0.0099
3898.00,-0.0099
3897.00,-0.0099
3896.00,-0.0099
3895.00,-0.0099
3894.00,-0.0099
3893.00,-0.0099
3892.00,-0.0099
3891.00,-0.0099
3890.00,-0.0099
3889.00,-0.0099
3888.00,-0.0099
3887.00,-0.0099
3886.00,-0.0099
3885.00,-0.0100
3884.00,-0.0100
3883.00,-0.0101
3882.00,-0.0101
3881.00,-0.0100
3880.00,-0.0100
3879.00,-0.0099
3878.00,-0.0099
3877.00,-0.0099
3876.00,-0.0099
3875.00,-0.0100
3874.00,-0.0100
3873.00,-0.0100
3872.00,-0.0101
3871.00,-0.0101
3870.00,-0.0101
3869.00,-0.0101
3868.00,-0.0101
3867.00,-0.0101
3866.00,-0.0101
3865.00,-0.0101
3864.00,-0.0101
3863.00,-0.0101
3862.00,-0.0100
3861.00,-0.0100
3860.00,-0.0100
3859.00,-0.0100
3858.00,-0.0100
3857.00,-0.0101
3856.00,-0.0101
3855.00,-0.0101
3854.00,-0.0101
3853.00,-0.0101
3852.00,-0.0102
3851.00,-0.0102
3850.00,-0.0102
3849.00,-0.0102
3848.00,-0.0102
3847.00,-0.0102
3846.00,-0.0102
3845.00,-0.0102
3844.00,-0.0101
3843.00,-0.0101
3842.00,-0.0102
3841.00,-0.0102
3840.00,-0.0102
3839.00,-0.0103
3838.00,-0.0103
3837.00,-0.0103
3836.00,-0.0103
3835.00,-0.0103
3834.00,-0.0103
3833.00,-0.0103
3832.00,-0.0103
3831.00,-0.0102
3830.00,-0.0102
3829.00,-0.0102
3828.00,-0.0102
3827.00,-0.0102
3826.00,-0.0102
3825.00,-0.0103
3824.00,-0.0103
3823.00,-0.0104
3822.00,-0.0104
3821.00,-0.0104
3820.00,-0.0104
3819.00,-0.0104
3818.00,-0.0104
3817.00,-0.0103
3816.00,-0.0103
3815.00,-0.0103
3814.00,-0.0103
3813.00,-0.0103
3812.00,-0.0103
3811.00,-0.0103
3810.00,-0.0103
3809.00,-0.0103
3808.00,-0.0104
3807.00,-0.0104
3806.00,-0.0104
3805.00,-0.0104
3804.00,-0.0105
3803.00,-0.0105
3802.00,-0.0105
3801.00,-0.0105
3800.00,-0.0104
3799.00,-0.0104
3798.00,-0.0104
3797.00,-0.0104
3796.00,-0.0103
3795.00,-0.0103
3794.00,-0.0103
3793.00,-0.0104
3792.00,-0.0104
3791.00,-0.0104
3790.00,-0.0104
3789.00,-0.0104
3788.00,-0.0104
3787.00,-0.0104
3786.00,-0.0104
3785.00,-0.0104
3784.00,-0.0104
3783.00,-0.0104
3782.00,-0.0104
3781.00,-0.0104
3780.00,-0.0104
3779.00,-0.0104
3778.00,-0.0104
3777.00,-0.0105
3776.00,-0.0105
3775.00,-0.0105
3774.00,-0.0105
3773.00,-0.0105
3772.00,-0.0105
3771.00,-0.0105
3770.00,-0.0105
3769.00,-0.0105
3768.00,-0.0105
3767.00,-0.0104
3766.00,-0.0104
3765.00,-0.0104
3764.00,-0.0105
3763.00,-0.0105
3762.00,-0.0105
3761.00,-0.0105
3760.00,-0.0105
3759.00,-0.0105
3758.00,-0.0106
3757.00,-0.0106
3756.00,-0.0106
3755.00,-0.0106
3754.00,-0.0106
3753.00,-0.0106
3752.00,-0.0107
3751.00,-0.0108
3750.00,-0.0108
3749.00,-0.0108
3748.00,-0.0108
3747.00,-0.0108
3746.00,-0.0108
3745.00,-0.0107
3744.00,-0.0107
3743.00,-0.0107
3742.00,-0.0107
3741.00,-0.0107
3740.00,-0.0107
3739.00,-0.0107
3738.00,-0.0108
3737.00,-0.0108
3736.00,-0.0108
3735.00,-0.0108
3734.00,-0.0108
3733.00,-0.0108
3732.00,-0.0108
3731.00,-0.0108
3730.00,-0.0107
3729.00,-0.0107
3728.00,-0.0107
3727.00,-0.0107
3726.00,-0.0106
3725.00,-0.0106
3724.00,-0.0107
3723.00,-0.0107
3722.00,-0.0107
3721.00,-0.0107
3720.00,-0.0107
3719.00,-0.0107
3718.00,-0.0107
3717.00,-0.0107
3716.00,-0.0108
3715.00,-0.0108
3714.00,-0.0108
3713.00,-0.0108
3712.00,-0.0108
3711.00,-0.0108
3710.00,-0.0107
3709.00,-0.0107
3708.00,-0.0107
3707.00,-0.0107
3706.00,-0.0107
3705.00,-0.0107
3704.00,-0.0107
3703.00,-0.0108
3702.00,-0.0108
3701.00,-0.0108
3700.00,-0.0108
3699.00,-0.0108
3698.00,-0.0108
3697.00,-0.0109
3696.00,-0.0109
3695.00,-0.0109
3694.00,-0.0109
3693.00,-0.0109
3692.00,-0.0109
3691.00,-0.0109
3690.00,-0.0110
3689.00,-0.0110
3688.00,-0.0110
3687.00,-0.0110
3686.00,-0.0110
3685.00,-0.0110
3684.00,-0.0109
3683.00,-0.0109
3682.00,-0.0110
3681.00,-0.0110
3680.00,-0.0111
3679.00,-0.0112
3678.00,-0.0113
3677.00,-0.0114
3676.00,-0.0114
3675.00,-0.0115
3674.00,-0.0115
3673.00,-0.0115
3672.00,-0.0115
3671.00,-0.0115
3670.00,-0.0114
3669.00,-0.0113
3668.00,-0.0113
3667.00,-0.0112
3666.00,-0.0112
3665.00,-0.0112
3664.00,-0.0112
3663.00,-0.0112
3662.00,-0.0112
3661.00,-0.0112
3660.00,-0.0112
3659.00,-0.0112
3658.00,-0.0113
3657.00,-0.0113
3656.00,-0.0113
3655.00,-0.0113
3654.00,-0.0113
3653.00,-0.0112
3652.00,-0.0112
3651.00,-0.0113
3650.00,-0.0113
3649.00,-0.0113
3648.00,-0.0113
3647.00,-0.0113
3646.00,-0.0113
3645.00,-0.0112
3644.00,-0.0111
3643.00,-0.0110
3642.00,-0.0109
3641.00,-0.0109
3640.00,-0.0108
3639.00,-0.0108
3638.00,-0.0108
3637.00,-0.0108
3636.00,-0.0108
3635.00,-0.0108
3634.00,-0.0108
3633.00,-0.0108
3632.00,-0.0107
3631.00,-0.0107
3630.00,-0.0107
3629.00,-0.0106
3628.00,-0.0106
3627.00,-0.0106
3626.00,-0.0106
3625.00,-0.0106
3624.00,-0.0105
3623.00,-0.0105
3622.00,-0.0105
3621.00,-0.0105
3620.00,-0.0105
3619.00,-0.0104
3618.00,-0.0104
3617.00,-0.0104
3616.00,-0.0104
3615.00,-0.0104
3614.00,-0.0104
3613.00,-0.0104
3612.00,-0.0104
3611.00,-0.0104
3610.00,-0.0104
3609.00,-0.0104
3608.00,-0.0104
3607.00,-0.0103
3606.00,-0.0103
3605.00,-0.0103
3604.00,-0.0103
3603.00,-0.0103
3602.00,-0.0103
3601.00,-0.0102
3600.00,-0.0102
3599.00,-0.0102
3598.00,-0.0101
3597.00,-0.0101
3596.00,-0.0101
3595.00,-0.0101
3594.00,-0.0101
3593.00,-0.0101
3592.00,-0.0101
3591.00,-0.0101
3590.00,-0.0101
3589.00,-0.0101
3588.00,-0.0101
3587.00,-0.0101
3586.00,-0.0100
3585.00,-0.0100
3584.00,-0.0100
3583.00,-0.0101
3582.00,-0.0101
3581.00,-0.0101
3580.00,-0.0101
3579.00,-0.0100
3578.00,-0.0100
3577.00,-0.0099
3576.00,-0.0099
3575.00,-0.0099
3574.00,-0.0099
3573.00,-0.0098
3572.00,-0.0098
3571.00,-0.0099
3570.00,-0.0099
3569.00,-0.0099
3568.00,-0.0099
3567.00,-0.0099
3566.00,-0.0099
3565.00,-0.0099
3564.00,-0.0098
3563.00,-0.0098
3562.00,-0.0097
3561.00,-0.0097
3560.00,-0.0097
3559.00,-0.0097
3558.00,-0.0097
3557.00,-0.0097
3556.00,-0.0097
3555.00,-0.0097
3554.00,-0.0097
3553.00,-0.0097
3552.00,-0.0097
3551.00,-0.0096
3550.00,-0.0096
3549.00,-0.0096
3548.00,-0.0096
3547.00,-0.0096
3546.00,-0.0095
3545.00,-0.0095
3544.00,-0.0095
3543.00,-0.0095
3542.00,-0.0095
3541.00,-0.0095
3540.00,-0.0095
3539.00,-0.0095
3538.00,-0.0095
3537.00,-0.0095
3536.00,-0.0095
3535.00,-0.0095
3534.00,-0.0095
3533.00,-0.0094
3532.00,-0.0094
3531.00,-0.0094
3530.00,-0.0094
3529.00,-0.0094
3528.00,-0.0094
3527.00,-0.0094
3526.00,-0.0094
3525.00,-0.0093
3524.00,-0.0093
3523.00,-0.0093
3522.00,-0.0093
3521.00,-0.0093
3520.00,-0.0092
3519.00,-0.0092
3518.00,-0.0092
3517.00,-0.0092
3516.00,-0.0092
3515.00,-0.0091
3514.00,-0.0091
3513.00,-0.0091
3512.00,-0.0091
3511.00,-0.0091
3510.00,-0.0091
3509.00,-0.0091
3508.00,-0.0091
3507.00,-0.0091
3506.00,-0.0090
3505.00,-0.0090
3504.00,-0.0090
3503.00,-0.0090
3502.00,-0.0090
3501.00,-0.0090
3500.00,-0.0089
3499.00,-0.0089
3498.00,-0.0089
3497.00,-0.0089
3496.00,-0.0089
3495.00,-0.0088
3494.00,-0.0088
3493.00,-0.0088
3492.00,-0.0087
3491.00,-0.0087
3490.00,-0.0087
3489.00,-0.0086
3488.00,-0.0086
3487.00,-0.0086
3486.00,-0.0086
3485.00,-0.0086
3484.00,-0.0086
3483.00,-0.0085
3482.00,-0.0085
3481.00,-0.0085
3480.00,-0.0085
3479.00,-0.0085
3478.00,-0.0084
3477.00,-0.0084
3476.00,-0.0084
3475.00,-0.0083
3474.00,-0.0083
3473.00,-0.0082
3472.00,-0.0082
3471.00,-0.0082
3470.00,-0.0081
3469.00,-0.0081
3468.00,-0.0081
3467.00,-0.0081
3466.00,-0.0081
3465.00,-0.0080
3464.00,-0.0080
3463.00,-0.0079
3462.00,-0.0079
3461.00,-0.0079
3460.00,-0.0079
3459.00,-0.0079
3458.00,-0.0078
3457.00,-0.0078
3456.00,-0.0078
3455.00,-0.0077
3454.00,-0.0077
3453.00,-0.0077
3452.00,-0.0077
3451.00,-0.0077
3450.00,-0.0076
3449.00,-0.0076
3448.00,-0.0076
3447.00,-0.0076
3446.00,-0.0075
3445.00,-0.0075
3444.00,-0.0075
3443.00,-0.0074
3442.00,-0.0074
3441.00,-0.0073
3440.00,-0.0073
3439.00,-0.0072
3438.00,-0.0071
3437.00,-0.0071
3436.00,-0.0070
3435.00,-0.0070
3434.00,-0.0070
3433.00,-0.0070
3432.00,-0.0069
3431.00,-0.0069
3430.00,-0.0069
3429.00,-0.0069
3428.00,-0.0069
3427.00,-0.0068
3426.00,-0.0067
3425.00,-0.0066
3424.00,-0.0066
3423.00,-0.0065
3422.00,-0.0065
3421.00,-0.0064
3420.00,-0.0064
3419.00,-0.0064
3418.00,-0.0064
3417.00,-0.0063
3416.00,-0.0063
3415.00,-0.0062
3414.00,-0.0062
3413.00,-0.0062
3412.00,-0.0061
3411.00,-0.0061
3410.00,-0.0061
3409.00,-0.0060
3408.00,-0.0060
3407.00,-0.0060
3406.00,-0.0059
3405.00,-0.0059
3404.00,-0.0058
3403.00,-0.0058
3402.00,-0.0057
3401.00,-0.0056
3400.00,-0.0056
3399.00,-0.0055
3398.00,-0.0054
3397.00,-0.0054
3396.00,-0.0054
3395.00,-0.0053
3394.00,-0.0053
3393.00,-0.0053
3392.00,-0.0052
3391.00,-0.0051
3390.00,-0.0051
3389.00,-0.0050
3388.00,-0.0050
3387.00,-0.0049
3386.00,-0.0049
3385.00,-0.0049
3384.00,-0.0049
3383.00,-0.0048
3382.00,-0.0048
3381.00,-0.0047
3380.00,-0.0047
3379.00,-0.0046
3378.00,-0.0045
3377.00,-0.0044
3376.00,-0.0043
3375.00,-0.0042
3374.00,-0.0041
3373.00,-0.0041
3372.00,-0.0040
3371.00,-0.0040
3370.00,-0.0039
3369.00,-0.0038
3368.00,-0.0038
3367.00,-0.0037
3366.00,-0.0036
3365.00,-0.0035
3364.00,-0.0033
3363.00,-0.0032
3362.00,-0.0031
3361.00,-0.0030
3360.00,-0.0029
3359.00,-0.0028
3358.00,-0.0027
3357.00,-0.0026
3356.00,-0.0025
3355.00,-0.0024
3354.00,-0.0023
3353.00,-0.0022
3352.00,-0.0021
3351.00,-0.0019
3350.00,-0.0018
3349.00,-0.0017
3348.00,-0.0016
3347.00,-0.0014
3346.00,-0.0013
3345.00,-0.0012
3344.00,-0.0010
3343.00,-0.0009
3342.00,-0.0008
3341.00,-0.0006
3340.00,-0.0005
3339.00,-0.0003
3338.00,-0.0001
3337.00,0.0001
3336.00,0.0002
3335.00,0.0004
3334.00,0.0005
3333.00,0.0007
3332.00,0.0009
3331.00,0.0011
3330.00,0.0013
3329.00,0.0015
3328.00,0.0017
3327.00,0.0019
3326.00,0.0021
3325.00,0.0023
3324.00,0.0025
3323.00,0.0027
3322.00,0.0029
3321.00,0.0031
3320.00,0.0033
3319.00,0.0035
3318.00,0.0037
3317.00,0.0040
3316.00,0.0042
3315.00,0.0045
3314.00,0.0047
3313.00,0.0050
3312.00,0.0052
3311.00,0.0054
3310.00,0.0057
3309.00,0.0059
3308.00,0.0062
3307.00,0.0064
3306.00,0.0067
3305.00,0.0070
3304.00,0.0073
3303.00,0.0076
3302.00,0.0079
3301.00,0.0082
3300.00,0.0085
3299.00,0.0087
3298.00,0.0090
3297.00,0.0093
3296.00,0.0096
3295.00,0.0098
3294.00,0.0101
3293.00,0.0104
3292.00,0.0106
3291.00,0.0108
3290.00,0.0111
3289.00,0.0113
3288.00,0.0115
3287.00,0.0117
3286.00,0.0120
3285.00,0.0122
3284.00,0.0124
3283.00,0.0126
3282.00,0.0129
3281.00,0.0130
3280.00,0.0132
3279.00,0.0133
3278.00,0.0134
3277.00,0.0135
3276.00,0.0136
3275.00,0.0136
3274.00,0.0136
3273.00,0.0136
3272.00,0.0136
3271.00,0.0136
3270.00,0.0136
3269.00,0.0136
3268.00,0.0135
3267.00,0.0134
3266.00,0.0133
3265.00,0.0132
3264.00,0.0130
3263.00,0.0129
3262.00,0.0127
3261.00,0.0125
3260.00,0.0124
3259.00,0.0122
3258.00,0.0120
3257.00,0.0118
3256.00,0.0116
3255.00,0.0114
3254.00,0.0112
3253.00,0.0110
3252.00,0.0107
3251.00,0.0105
3250.00,0.0103
3249.00,0.0101
3248.00,0.0099
3247.00,0.0097
3246.00,0.0095
3245.00,0.0093
3244.00,0.0092
3243.00,0.0090
3242.00,0.0088
3241.00,0.0087
3240.00,0.0085
3239.00,0.0083
3238.00,0.0082
3237.00,0.0080
3236.00,0.0078
3235.00,0.0077
3234.00,0.0075
3233.00,0.0074
3232.00,0.0072
3231.00,0.0071
3230.00,0.0069
3229.00,0.0068
3228.00,0.0066
3227.00,0.0065
3226.00,0.0063
3225.00,0.0062
3224.00,0.0061
3223.00,0.0060
3222.00,0.0059
3221.00,0.0058
3220.00,0.0056
3219.00,0.0055
3218.00,0.0054
3217.00,0.0053
3216.00,0.0051
3215.00,0.0050
3214.00,0.0050
3213.00,0.0049
3212.00,0.0048
3211.00,0.0048
3210.00,0.0047
3209.00,0.0045
3208.00,0.0044
3207.00,0.0043
3206.00,0.0042
3205.00,0.0041
3204.00,0.0040
3203.00,0.0039
3202.00,0.0038
3201.00,0.0037
3200.00,0.0036
3199.00,0.0034
3198.00,0.0033
3197.00,0.0033
3196.00,0.0033
3195.00,0.0032
3194.00,0.0031
3193.00,0.0030
3192.00,0.0029
3191.00,0.0028
3190.00,0.0027
3189.00,0.0026
3188.00,0.0025
3187.00,0.0025
3186.00,0.0023
3185.00,0.0022
3184.00,0.0021
3183.00,0.0019
3182.00,0.0018
3181.00,0.0016
3180.00,0.0015
3179.00,0.0014
3178.00,0.0013
3177.00,0.0012
3176.00,0.0010
3175.00,0.0009
3174.00,0.0008
3173.00,0.0007
3172.00,0.0007
3171.00,0.0006
3170.00,0.0005
3169.00,0.0004
3168.00,0.0002
3167.00,0.0001
3166.00,-0.0000
3165.00,-0.0001
3164.00,-0.0002
3163.00,-0.0003
3162.00,-0.0004
3161.00,-0.0005
3160.00,-0.0006
3159.00,-0.0008
3158.00,-0.0009
3157.00,-0.0010
3156.00,-0.0010
3155.00,-0.0011
3154.00,-0.0011
3153.00,-0.0012
3152.00,-0.0013
3151.00,-0.0014
3150.00,-0.0015
3149.00,-0.0016
3148.00,-0.0017
3147.00,-0.0018
3146.00,-0.0019
3145.00,-0.0020
3144.00,-0.0020
3143.00,-0.0021
3142.00,-0.0021
3141.00,-0.0022
3140.00,-0.0022
3139.00,-0.0023
3138.00,-0.0024
3137.00,-0.0025
3136.00,-0.0025
3135.00,-0.0026
3134.00,-0.0027
3133.00,-0.0027
3132.00,-0.0027
3131.00,-0.0028
3130.00,-0.0028
3129.00,-0.0028
3128.00,-0.0029
3127.00,-0.0030
3126.00,-0.0031
3125.00,-0.0031
3124.00,-0.0031
3123.00,-0.0032
3122.00,-0.0033
3121.00,-0.0033
3120.00,-0.0034
3119.00,-0.0035
3118.00,-0.0035
3117.00,-0.0035
3116.00,-0.0035
3115.00,-0.0035
3114.00,-0.0034
3113.00,-0.0035
3112.00,-0.0035
3111.00,-0.0035
3110.00,-0.0035
3109.00,-0.0035
3108.00,-0.0035
3107.00,-0.0035
3106.00,-0.0035
3105.00,-0.0035
3104.00,-0.0034
3103.00,-0.0034
3102.00,-0.0034
3101.00,-0.0035
3100.00,-0.0035
3099.00,-0.0035
3098.00,-0.0035
3097.00,-0.0034
3096.00,-0.0034
3095.00,-0.0033
3094.00,-0.0033
3093.00,-0.0033
3092.00,-0.0033
3091.00,-0.0033
3090.00,-0.0033
3089.00,-0.0032
3088.00,-0.0032
3087.00,-0.0032
3086.00,-0.0031
3085.00,-0.0031
3084.00,-0.0031
3083.00,-0.0030
3082.00,-0.0030
3081.00,-0.0030
3080.00,-0.0030
3079.00,-0.0030
3078.00,-0.0030
3077.00,-0.0030
3076.00,-0.0029
3075.00,-0.0029
3074.00,-0.0029
3073.00,-0.0029
3072.00,-0.0029
3071.00,-0.0029
3070.00,-0.0029
3069.00,-0.0029
3068.00,-0.0029
3067.00,-0.0029
3066.00,-0.0029
3065.00,-0.0029
3064.00,-0.0029
3063.00,-0.0029
3062.00,-0.0029
3061.00,-0.0030
3060.00,-0.0030
3059.00,-0.0030
3058.00,-0.0031
3057.00,-0.0031
3056.00,-0.0032
3055.00,-0.0033
3054.00,-0.0033
3053.00,-0.0034
3052.00,-0.0034
3051.00,-0.0035
3050.00,-0.0036
3049.00,-0.0036
3048.00,-0.0037
3047.00,-0.0038
3046.00,-0.0040
3045.00,-0.0041
3044.00,-0.0042
3043.00,-0.0043
3042.00,-0.0043
3041.00,-0.0044
3040.00,-0.0044
3039.00,-0.0045
3038.00,-0.0046
3037.00,-0.0047
3036.00,-0.0048
3035.00,-0.0049
3034.00,-0.0049
3033.00,-0.0050
3032.00,-0.0050
3031.00,-0.0051
3030.00,-0.0051
3029.00,-0.0052
3028.00,-0.0053
3027.00,-0.0054
3026.00,-0.0054
3025.00,-0.0055
3024.00,-0.0056
3023.00,-0.0057
3022.00,-0.0059
3021.00,-0.0060
3020.00,-0.0061
3019.00,-0.0063
3018.00,-0.0064
3017.00,-0.0065
3016.00,-0.0066
3015.00,-0.0067
3014.00,-0.0068
3013.00,-0.0069
3012.00,-0.0070
3011.00,-0.0071
3010.00,-0.0072
3009.00,-0.0073
3008.00,-0.0074
3007.00,-0.0075
3006.00,-0.0076
3005.00,-0.0078
3004.00,-0.0079
3003.00,-0.0081
3002.00,-0.0082
3001.00,-0.0084
3000.00,-0.0086
2999.00,-0.0087
2998.00,-0.0088
2997.00,-0.0089
2996.00,-0.0089
2995.00,-0.0090
2994.00,-0.0090
2993.00,-0.0091
2992.00,-0.0091
2991.00,-0.0091
2990.00,-0.0091
2989.00,-0.0091
2988.00,-0.0091
2987.00,-0.0091
2986.00,-0.0092
2985.00,-0.0094
2984.00,-0.0097
2983.00,-0.0100
2982.00,-0.0102
2981.00,-0.0102
2980.00,-0.0100
2979.00,-0.0097
2978.00,-0.0093
2977.00,-0.0090
2976.00,-0.0087
2975.00,-0.0085
2974.00,-0.0084
2973.00,-0.0083
2972.00,-0.0082
2971.00,-0.0080
2970.00,-0.0078
2969.00,-0.0075
2968.00,-0.0072
2967.00,-0.0069
2966.00,-0.0067
2965.00,-0.0065
2964.00,-0.0063
2963.00,-0.0061
2962.00,-0.0060
2961.00,-0.0059
2960.00,-0.0058
2959.00,-0.0057
2958.00,-0.0057
2957.00,-0.0057
2956.00,-0.0056
2955.00,-0.0056
2954.00,-0.0056
2953.00,-0.0056
2952.00,-0.0057
2951.00,-0.0057
2950.00,-0.0057
2949.00,-0.0057
2948.00,-0.0057
2947.00,-0.0057
2946.00,-0.0056
2945.00,-0.0055
2944.00,-0.0054
2943.00,-0.0052
2942.00,-0.0051
2941.00,-0.0049
2940.00,-0.0047
2939.00,-0.0045
2938.00,-0.0043
2937.00,-0.0041
2936.00,-0.0039
2935.00,-0.0037
2934.00,-0.0035
2933.00,-0.0033
2932.00,-0.0032
2931.00,-0.0031
2930.00,-0.0029
2929.00,-0.0028
2928.00,-0.0027
2927.00,-0.0026
2926.00,-0.0025
2925.00,-0.0025
2924.00,-0.0025
2923.00,-0.0025
2922.00,-0.0026
2921.00,-0.0027
2920.00,-0.0029
2919.00,-0.0031
2918.00,-0.0033
2917.00,-0.0036
2916.00,-0.0038
2915.00,-0.0041
2914.00,-0.0044
2913.00,-0.0046
2912.00,-0.0048
2911.00,-0.0050
2910.00,-0.0052
2909.00,-0.0054
2908.00,-0.0055
2907.00,-0.0057
2906.00,-0.0059
2905.00,-0.0060
2904.00,-0.0061
2903.00,-0.0062
2902.00,-0.0063
2901.00,-0.0064
2900.00,-0.0064
2899.00,-0.0065
2898.00,-0.0067
2897.00,-0.0068
2896.00,-0.0069
2895.00,-0.0070
2894.00,-0.0071
2893.00,-0.0072
2892.00,-0.0073
2891.00,-0.0073
2890.00,-0.0074
2889.00,-0.0074
2888.00,-0.0074
2887.00,-0.0074
2886.00,-0.0075
2885.00,-0.0075
2884.00,-0.0074
2883.00,-0.0074
2882.00,-0.0073
2881.00,-0.0072
2880.00,-0.0071
2879.00,-0.0070
2878.00,-0.0069
2877.00,-0.0068
2876.00,-0.0067
2875.00,-0.0067
2874.00,-0.0066
2873.00,-0.0066
2872.00,-0.0066
2871.00,-0.0067
2870.00,-0.0067
2869.00,-0.0067
2868.00,-0.0068
2867.00,-0.0068
2866.00,-0.0068
2865.00,-0.0069
2864.00,-0.0069
2863.00,-0.0069
2862.00,-0.0069
2861.00,-0.0068
2860.00,-0.0068
2859.00,-0.0067
2858.00,-0.0066
2857.00,-0.0065
2856.00,-0.0065
2855.00,-0.0064
2854.00,-0.0063
2853.00,-0.0063
2852.00,-0.0063
2851.00,-0.0064
2850.00,-0.0065
2849.00,-0.0067
2848.00,-0.0069
2847.00,-0.0071
2846.00,-0.0073
2845.00,-0.0075
2844.00,-0.0076
2843.00,-0.0078
2842.00,-0.0079
2841.00,-0.0080
2840.00,-0.0081
2839.00,-0.0083
2838.00,-0.0084
2837.00,-0.0085
2836.00,-0.0085
2835.00,-0.0086
2834.00,-0.0087
2833.00,-0.0087
2832.00,-0.0087
2831.00,-0.0088
2830.00,-0.0088
2829.00,-0.0089
2828.00,-0.0089
2827.00,-0.0089
2826.00,-0.0090
2825.00,-0.0090
2824.00,-0.0090
2823.00,-0.0090
2822.00,-0.0090
2821.00,-0.0091
2820.00,-0.0091
2819.00,-0.0091
2818.00,-0.0092
2817.00,-0.0092
2816.00,-0.0093
2815.00,-0.0093
2814.00,-0.0093
2813.00,-0.0093
2812.00,-0.0093
2811.00,-0.0093
2810.00,-0.0094
2809.00,-0.0094
2808.00,-0.0094
2807.00,-0.0094
2806.00,-0.0095
2805.00,-0.0094
2804.00,-0.0095
2803.00,-0.0095
2802.00,-0.0095
2801.00,-0.0096
2800.00,-0.0097
2799.00,-0.0097
2798.00,-0.0098
2797.00,-0.0098
2796.00,-0.0098
2795.00,-0.0098
2794.00,-0.0098
2793.00,-0.0098
2792.00,-0.0098
2791.00,-0.0098
2790.00,-0.0098
2789.00,-0.0098
2788.00,-0.0099
2787.00,-0.0099
2786.00,-0.0099
2785.00,-0.0099
2784.00,-0.0100
2783.00,-0.0100
2782.00,-0.0100
2781.00,-0.0100
2780.00,-0.0100
2779.00,-0.0100
2778.00,-0.0100
2777.00,-0.0101
2776.00,-0.0101
2775.00,-0.0101
2774.00,-0.0102
2773.00,-0.0102
2772.00,-0.0102
2771.00,-0.0102
2770.00,-0.0102
2769.00,-0.0103
2768.00,-0.0103
2767.00,-0.0103
2766.00,-0.0104
2765.00,-0.0104
2764.00,-0.0104
2763.00,-0.0105
2762.00,-0.0105
2761.00,-0.0104
2760.00,-0.0105
2759.00,-0.0105
2758.00,-0.0105
2757.00,-0.0106
2756.00,-0.0106
2755.00,-0.0106
2754.00,-0.0107
2753.00,-0.0107
2752.00,-0.0107
2751.00,-0.0107
2750.00,-0.0107
2749.00,-0.0107
2748.00,-0.0108
2747.00,-0.0108
2746.00,-0.0109
2745.00,-0.0109
2744.00,-0.0109
2743.00,-0.0109
2742.00,-0.0110
2741.00,-0.0110
2740.00,-0.0110
2739.00,-0.0110
2738.00,-0.0110
2737.00,-0.0110
2736.00,-0.0110
2735.00,-0.0110
2734.00,-0.0111
2733.00,-0.0111
2732.00,-0.0111
2731.00,-0.0112
2730.00,-0.0112
2729.00,-0.0112
2728.00,-0.0112
2727.00,-0.0112
2726.00,-0.0113
2725.00,-0.0113
2724.00,-0.0113
2723.00,-0.0114
2722.00,-0.0114
2721.00,-0.0114
2720.00,-0.0115
2719.00,-0.0115
2718.00,-0.0115
2717.00,-0.0115
2716.00,-0.0115
2715.00,-0.0115
2714.00,-0.0116
2713.00,-0.0116
2712.00,-0.0116
2711.00,-0.0116
2710.00,-0.0116
2709.00,-0.0116
2708.00,-0.0117
2707.00,-0.0117
2706.00,-0.0117
2705.00,-0.0118
2704.00,-0.0118
2703.00,-0.0118
2702.00,-0.0118
2701.00,-0.0119
2700.00,-0.0119
2699.00,-0.0119
2698.00,-0.0119
2697.00,-0.0119
2696.00,-0.0119
2695.00,-0.0120
2694.00,-0.0120
2693.00,-0.0120
2692.00,-0.0120
2691.00,-0.0121
2690.00,-0.0121
2689.00,-0.0121
2688.00,-0.0121
2687.00,-0.0122
2686.00,-0.0122
2685.00,-0.0122
2684.00,-0.0122
2683.00,-0.0123
2682.00,-0.0123
2681.00,-0.0123
2680.00,-0.0123
2679.00,-0.0123
2678.00,-0.0124
2677.00,-0.0124
2676.00,-0.0124
2675.00,-0.0124
2674.00,-0.0124
2673.00,-0.0124
2672.00,-0.0125
2671.00,-0.0125
2670.00,-0.0125
2669.00,-0.0125
2668.00,-0.0126
2667.00,-0.0126
2666.00,-0.0126
2665.00,-0.0126
2664.00,-0.0127
2663.00,-0.0127
2662.00,-0.0127
2661.00,-0.0128
2660.00,-0.0128
2659.00,-0.0128
2658.00,-0.0128
2657.00,-0.0128
2656.00,-0.0128
2655.00,-0.0128
2654.00,-0.0128
2653.00,-0.0128
2652.00,-0.0129
2651.00,-0.0129
2650.00,-0.0129
2649.00,-0.0129
2648.00,-0.0129
2647.00,-0.0129
2646.00,-0.0129
2645.00,-0.0129
2644.00,-0.0129
2643.00,-0.0129
2642.00,-0.0129
2641.00,-0.0129
2640.00,-0.0129
2639.00,-0.0129
2638.00,-0.0130
2637.00,-0.0130
2636.00,-0.0130
2635.00,-0.0130
2634.00,-0.0130
2633.00,-0.0130
2632.00,-0.0130
2631.00,-0.0130
2630.00,-0.0131
2629.00,-0.0131
2628.00,-0.0131
2627.00,-0.0131
2626.00,-0.0131
2625.00,-0.0131
2624.00,-0.0131
2623.00,-0.0131
2622.00,-0.0131
2621.00,-0.0131
2620.00,-0.0131
2619.00,-0.0131
2618.00,-0.0131
2617.00,-0.0131
2616.00,-0.0131
2615.00,-0.0131
2614.00,-0.0131
2613.00,-0.0131
2612.00,-0.0131
2611.00,-0.0131
2610.00,-0.0131
2609.00,-0.0131
2608.00,-0.0131
2607.00,-0.0131
2606.00,-0.0132
2605.00,-0.0132
2604.00,-0.0132
2603.00,-0.0133
2602.00,-0.0134
2601.00,-0.0134
2600.00,-0.0134
2599.00,-0.0133
2598.00,-0.0133
2597.00,-0.0133
2596.00,-0.0133
2595.00,-0.0133
2594.00,-0.0133
2593.00,-0.0133
2592.00,-0.0132
2591.00,-0.0132
2590.00,-0.0133
2589.00,-0.0133
2588.00,-0.0133
2587.00,-0.0133
2586.00,-0.0133
2585.00,-0.0133
2584.00,-0.0134
2583.00,-0.0134
2582.00,-0.0135
2581.00,-0.0135
2580.00,-0.0135
2579.00,-0.0136
2578.00,-0.0135
2577.00,-0.0135
2576.00,-0.0135
2575.00,-0.0135
2574.00,-0.0136
2573.00,-0.0136
2572.00,-0.0136
2571.00,-0.0136
2570.00,-0.0136
2569.00,-0.0136
2568.00,-0.0135
2567.00,-0.0135
2566.00,-0.0135
2565.00,-0.0135
2564.00,-0.0135
2563.00,-0.0136
2562.00,-0.0136
2561.00,-0.0136
2560.00,-0.0136
2559.00,-0.0137
2558.00,-0.0137
2557.00,-0.0138
2556.00,-0.0139
2555.00,-0.0139
2554.00,-0.0139
2553.00,-0.0140
2552.00,-0.0140
2551.00,-0.0140
2550.00,-0.0140
2549.00,-0.0140
2548.00,-0.0140
2547.00,-0.0140
2546.00,-0.0140
2545.00,-0.0140
2544.00,-0.0140
2543.00,-0.0140
2542.00,-0.0141
2541.00,-0.0141
2540.00,-0.0141
2539.00,-0.0141
2538.00,-0.0141
2537.00,-0.0141
2536.00,-0.0141
2535.00,-0.0142
2534.00,-0.0143
2533.00,-0.0143
2532.00,-0.0143
2531.00,-0.0142
2530.00,-0.0142
2529.00,-0.0142
2528.00,-0.0143
2527.00,-0.0143
2526.00,-0.0144
2525.00,-0.0144
2524.00,-0.0143
2523.00,-0.0143
2522.00,-0.0142
2521.00,-0.0142
2520.00,-0.0142
2519.00,-0.0142
2518.00,-0.0143
2517.00,-0.0143
2516.00,-0.0143
2515.00,-0.0143
2514.00,-0.0143
2513.00,-0.0143
2512.00,-0.0144
2511.00,-0.0144
2510.00,-0.0145
2509.00,-0.0145
2508.00,-0.0145
2507.00,-0.0145
2506.00,-0.0144
2505.00,-0.0144
2504.00,-0.0144
2503.00,-0.0145
2502.00,-0.0145
2501.00,-0.0145
2500.00,-0.0145
2499.00,-0.0145
2498.00,-0.0144
2497.00,-0.0144
2496.00,-0.0144
2495.00,-0.0145
2494.00,-0.0145
2493.00,-0.0145
2492.00,-0.0145
2491.00,-0.0146
2490.00,-0.0146
2489.00,-0.0146
2488.00,-0.0146
2487.00,-0.0146
2486.00,-0.0146
2485.00,-0.0146
2484.00,-0.0146
2483.00,-0.0146
2482.00,-0.0146
2481.00,-0.0146
2480.00,-0.0147
2479.00,-0.0147
2478.00,-0.0147
2477.00,-0.0148
2476.00,-0.0148
2475.00,-0.0148
2474.00,-0.0148
2473.00,-0.0148
2472.00,-0.0148
2471.00,-0.0148
2470.00,-0.0148
2469.00,-0.0148
2468.00,-0.0148
2467.00,-0.0148
2466.00,-0.0148
2465.00,-0.0149
2464.00,-0.0149
2463.00,-0.0149
2462.00,-0.0149
2461.00,-0.0149
2460.00,-0.0149
2459.00,-0.0150
2458.00,-0.0150
2457.00,-0.0150
2456.00,-0.0150
2455.00,-0.0150
2454.00,-0.0150
2453.00,-0.0150
2452.00,-0.0150
2451.00,-0.0150
2450.00,-0.0150
2449.00,-0.0151
2448.00,-0.0151
2447.00,-0.0151
2446.00,-0.0151
2445.00,-0.0152
2444.00,-0.0152
2443.00,-0.0152
2442.00,-0.0152
2441.00,-0.0152
2440.00,-0.0152
2439.00,-0.0152
2438.00,-0.0152
2437.00,-0.0152
2436.00,-0.0153
2435.00,-0.0153
2434.00,-0.0153
2433.00,-0.0153
2432.00,-0.0153
2431.00,-0.0153
2430.00,-0.0153
2429.00,-0.0153
2428.00,-0.0154
2427.00,-0.0154
2426.00,-0.0154
2425.00,-0.0154
2424.00,-0.0154
2423.00,-0.0154
2422.00,-0.0154
2421.00,-0.0153
2420.00,-0.0153
2419.00,-0.0154
2418.00,-0.0154
2417.00,-0.0154
2416.00,-0.0155
2415.00,-0.0155
2414.00,-0.0155
2413.00,-0.0155
2412.00,-0.0155
2411.00,-0.0155
2410.00,-0.0155
2409.00,-0.0155
2408.00,-0.0155
2407.00,-0.0156
2406.00,-0.0156
2405.00,-0.0156
2404.00,-0.0156
2403.00,-0.0157
2402.00,-0.0157
2401.00,-0.0157
2400.00,-0.0158
2399.00,-0.0158
2398.00,-0.0158
2397.00,-0.0158
2396.00,-0.0158
2395.00,-0.0159
2394.00,-0.0159
2393.00,-0.0159
2392.00,-0.0159
2391.00,-0.0160
2390.00,-0.0160
2389.00,-0.0160
2388.00,-0.0160
2387.00,-0.0160
2386.00,-0.0160
2385.00,-0.0160
2384.00,-0.0161
2383.00,-0.0161
2382.00,-0.0162
2381.00,-0.0162
2380.00,-0.0162
2379.00,-0.0161
2378.00,-0.0161
2377.00,-0.0161
2376.00,-0.0161
2375.00,-0.0161
2374.00,-0.0161
2373.00,-0.0162
2372.00,-0.0162
2371.00,-0.0163
2370.00,-0.0163
2369.00,-0.0163
2368.00,-0.0163
2367.00,-0.0162
2366.00,-0.0162
2365.00,-0.0163
2364.00,-0.0164
2363.00,-0.0164
2362.00,-0.0164
2361.00,-0.0164
2360.00,-0.0164
2359.00,-0.0164
2358.00,-0.0164
2357.00,-0.0164
2356.00,-0.0164
2355.00,-0.0165
2354.00,-0.0165
2353.00,-0.0165
2352.00,-0.0165
2351.00,-0.0165
2350.00,-0.0165
2349.00,-0.0166
2348.00,-0.0166
2347.00,-0.0166
2346.00,-0.0166
2345.00,-0.0166
2344.00,-0.0166
2343.00,-0.0165
2342.00,-0.0165
2341.00,-0.0165
2340.00,-0.0166
2339.00,-0.0166
2338.00,-0.0167
2337.00,-0.0168
2336.00,-0.0168
2335.00,-0.0169
2334.00,-0.0169
2333.00,-0.0169
2332.00,-0.0169
2331.00,-0.0169
2330.00,-0.0170
2329.00,-0.0171
2328.00,-0.0172
2327.00,-0.0173
2326.00,-0.0173
2325.00,-0.0173
2324.00,-0.0172
2323.00,-0.0171
2322.00,-0.0170
2321.00,-0.0170
2320.00,-0.0170
2319.00,-0.0170
2318.00,-0.0170
2317.00,-0.0170
2316.00,-0.0171
2315.00,-0.0171
2314.00,-0.0170
2313.00,-0.0170
2312.00,-0.0170
2311.00,-0.0170
2310.00,-0.0171
2309.00,-0.0171
2308.00,-0.0171
2307.00,-0.0171
2306.00,-0.0171
2305.00,-0.0171
2304.00,-0.0171
2303.00,-0.0171
2302.00,-0.0171
2301.00,-0.0172
2300.00,-0.0172
2299.00,-0.0172
2298.00,-0.0172
2297.00,-0.0172
2296.00,-0.0172
2295.00,-0.0172
2294.00,-0.0173
2293.00,-0.0173
2292.00,-0.0174
2291.00,-0.0174
2290.00,-0.0175
2289.00,-0.0175
2288.00,-0.0175
2287.00,-0.0174
2286.00,-0.0174
2285.00,-0.0174
2284.00,-0.0174
2283.00,-0.0174
2282.00,-0.0175
2281.00,-0.0175
2280.00,-0.0176
2279.00,-0.0176
2278.00,-0.0176
2277.00,-0.0175
2276.00,-0.0174
2275.00,-0.0174
2274.00,-0.0174
2273.00,-0.0174
2272.00,-0.0175
2271.00,-0.0175
2270.00,-0.0176
2269.00,-0.0176
2268.00,-0.0176
2267.00,-0.0175
2266.00,-0.0175
2265.00,-0.0176
2264.00,-0.0176
2263.00,-0.0176
2262.00,-0.0176
2261.00,-0.0176
2260.00,-0.0176
2259.00,-0.0176
2258.00,-0.0176
2257.00,-0.0175
2256.00,-0.0175
2255.00,-0.0175
2254.00,-0.0175
2253.00,-0.0175
2252.00,-0.0175
2251.00,-0.0175
2250.00,-0.0176
2249.00,-0.0176
2248.00,-0.0176
2247.00,-0.0177
2246.00,-0.0177
2245.00,-0.0178
2244.00,-0.0179
2243.00,-0.0179
2242.00,-0.0179
2241.00,-0.0179
2240.00,-0.0179
2239.00,-0.0180
2238.00,-0.0180
2237.00,-0.0180
2236.00,-0.0181
2235.00,-0.0181
2234.00,-0.0181
2233.00,-0.0181
2232.00,-0.0181
2231.00,-0.0181
2230.00,-0.0180
2229.00,-0.0179
2228.00,-0.0179
2227.00,-0.0179
2226.00,-0.0178
2225.00,-0.0178
2224.00,-0.0178
2223.00,-0.0179
2222.00,-0.0179
2221.00,-0.0180
2220.00,-0.0180
2219.00,-0.0181
2218.00,-0.0181
2217.00,-0.0182
2216.00,-0.0183
2215.00,-0.0183
2214.00,-0.0183
2213.00,-0.0183
2212.00,-0.0181
2211.00,-0.0180
2210.00,-0.0179
2209.00,-0.0178
2208.00,-0.0178
2207.00,-0.0180
2206.00,-0.0182
2205.00,-0.0185
2204.00,-0.0186
2203.00,-0.0186
2202.00,-0.0185
2201.00,-0.0184
2200.00,-0.0183
2199.00,-0.0182
2198.00,-0.0182
2197.00,-0.0182
2196.00,-0.0183
2195.00,-0.0183
2194.00,-0.0183
2193.00,-0.0183
2192.00,-0.0182
2191.00,-0.0182
2190.00,-0.0183
2189.00,-0.0185
2188.00,-0.0187
2187.00,-0.0188
2186.00,-0.0188
2185.00,-0.0187
2184.00,-0.0185
2183.00,-0.0184
2182.00,-0.0185
2181.00,-0.0188
2180.00,-0.0190
2179.00,-0.0190
2178.00,-0.0189
2177.00,-0.0188
2176.00,-0.0187
2175.00,-0.0188
2174.00,-0.0190
2173.00,-0.0190
2172.00,-0.0191
2171.00,-0.0191
2170.00,-0.0190
2169.00,-0.0189
2168.00,-0.0188
2167.00,-0.0189
2166.00,-0.0190
2165.00,-0.0191
2164.00,-0.0191
2163.00,-0.0189
2162.00,-0.0187
2161.00,-0.0184
2160.00,-0.0183
2159.00,-0.0183
2158.00,-0.0183
2157.00,-0.0184
2156.00,-0.0184
2155.00,-0.0186
2154.00,-0.0187
2153.00,-0.0188
2152.00,-0.0188
2151.00,-0.0187
2150.00,-0.0187
2149.00,-0.0186
2148.00,-0.0185
2147.00,-0.0185
2146.00,-0.0186
2145.00,-0.0188
2144.00,-0.0190
2143.00,-0.0192
2142.00,-0.0192
2141.00,-0.0192
2140.00,-0.0191
2139.00,-0.0190
2138.00,-0.0189
2137.00,-0.0188
2136.00,-0.0187
2135.00,-0.0187
2134.00,-0.0188
2133.00,-0.0189
2132.00,-0.0191
2131.00,-0.0192
2130.00,-0.0193
2129.00,-0.0193
2128.00,-0.0193
2127.00,-0.0193
2126.00,-0.0193
2125.00,-0.0194
2124.00,-0.0194
2123.00,-0.0194
2122.00,-0.0193
2121.00,-0.0193
2120.00,-0.0194
2119.00,-0.0196
2118.00,-0.0197
2117.00,-0.0198
2116.00,-0.0198
2115.00,-0.0198
2114.00,-0.0198
2113.00,-0.0198
2112.00,-0.0198
2111.00,-0.0198
2110.00,-0.0198
2109.00,-0.0198
2108.00,-0.0199
2107.00,-0.0200
2106.00,-0.0201
2105.00,-0.0201
2104.00,-0.0200
2103.00,-0.0199
2102.00,-0.0198
2101.00,-0.0199
2100.00,-0.0200
2099.00,-0.0200
2098.00,-0.0201
2097.00,-0.0202
2096.00,-0.0202
2095.00,-0.0202
2094.00,-0.0202
2093.00,-0.0202
2092.00,-0.0202
2091.00,-0.0201
2090.00,-0.0201
2089.00,-0.0202
2088.00,-0.0202
2087.00,-0.0202
2086.00,-0.0202
2085.00,-0.0202
2084.00,-0.0202
2083.00,-0.0202
2082.00,-0.0203
2081.00,-0.0204
2080.00,-0.0204
2079.00,-0.0203
2078.00,-0.0203
2077.00,-0.0203
2076.00,-0.0203
2075.00,-0.0204
2074.00,-0.0206
2073.00,-0.0206
2072.00,-0.0206
2071.00,-0.0206
2070.00,-0.0206
2069.00,-0.0206
2068.00,-0.0206
2067.00,-0.0206
2066.00,-0.0205
2065.00,-0.0204
2064.00,-0.0204
2063.00,-0.0204
2062.00,-0.0205
2061.00,-0.0206
2060.00,-0.0207
2059.00,-0.0208
2058.00,-0.0208
2057.00,-0.0207
2056.00,-0.0206
2055.00,-0.0206
2054.00,-0.0207
2053.00,-0.0209
2052.00,-0.0210
2051.00,-0.0209
2050.00,-0.0208
2049.00,-0.0207
2048.00,-0.0207
2047.00,-0.0208
2046.00,-0.0209
2045.00,-0.0209
2044.00,-0.0209
2043.00,-0.0209
2042.00,-0.0209
2041.00,-0.0209
2040.00,-0.0209
2039.00,-0.0210
2038.00,-0.0210
2037.00,-0.0210
2036.00,-0.0211
2035.00,-0.0212
2034.00,-0.0213
2033.00,-0.0213
2032.00,-0.0213
2031.00,-0.0214
2030.00,-0.0215
2029.00,-0.0215
2028.00,-0.0215
2027.00,-0.0214
2026.00,-0.0212
2025.00,-0.0212
2024.00,-0.0212
2023.00,-0.0211
2022.00,-0.0210
2021.00,-0.0210
2020.00,-0.0211
2019.00,-0.0212
2018.00,-0.0213
2017.00,-0.0214
2016.00,-0.0214
2015.00,-0.0215
2014.00,-0.0216
2013.00,-0.0217
2012.00,-0.0217
2011.00,-0.0216
2010.00,-0.0215
2009.00,-0.0214
2008.00,-0.0211
2007.00,-0.0209
2006.00,-0.0208
2005.00,-0.0210
2004.00,-0.0212
2003.00,-0.0214
2002.00,-0.0215
2001.00,-0.0216
2000.00,-0.0217
1999.00,-0.0218
1998.00,-0.0219
1997.00,-0.0218
1996.00,-0.0216
1995.00,-0.0215
1994.00,-0.0215
1993.00,-0.0216
1992.00,-0.0218
1991.00,-0.0220
1990.00,-0.0220
1989.00,-0.0219
1988.00,-0.0220
1987.00,-0.0222
1986.00,-0.0223
1985.00,-0.0224
1984.00,-0.0225
1983.00,-0.0225
1982.00,-0.0225
1981.00,-0.0223
1980.00,-0.0219
1979.00,-0.0217
1978.00,-0.0215
1977.00,-0.0215
1976.00,-0.0216
1975.00,-0.0217
1974.00,-0.0219
1973.00,-0.0221
1972.00,-0.0224
1971.00,-0.0227
1970.00,-0.0228
1969.00,-0.0229
1968.00,-0.0228
1967.00,-0.0229
1966.00,-0.0229
1965.00,-0.0228
1964.00,-0.0226
1963.00,-0.0223
1962.00,-0.0222
1961.00,-0.0222
1960.00,-0.0223
1959.00,-0.0225
1958.00,-0.0225
1957.00,-0.0224
1956.00,-0.0223
1955.00,-0.0222
1954.00,-0.0222
1953.00,-0.0223
1952.00,-0.0224
1951.00,-0.0225
1950.00,-0.0226
1949.00,-0.0227
1948.00,-0.0228
1947.00,-0.0228
1946.00,-0.0229
1945.00,-0.0230
1944.00,-0.0231
1943.00,-0.0231
1942.00,-0.0232
1941.00,-0.0233
1940.00,-0.0233
1939.00,-0.0233
1938.00,-0.0232
1937.00,-0.0232
1936.00,-0.0232
1935.00,-0.0232
1934.00,-0.0233
1933.00,-0.0234
1932.00,-0.0234
1931.00,-0.0235
1930.00,-0.0235
1929.00,-0.0235
1928.00,-0.0235
1927.00,-0.0235
1926.00,-0.0234
1925.00,-0.0234
1924.00,-0.0235
1923.00,-0.0236
1922.00,-0.0237
1921.00,-0.0237
1920.00,-0.0237
1919.00,-0.0238
1918.00,-0.0238
1917.00,-0.0239
1916.00,-0.0239
1915.00,-0.0240
1914.00,-0.0240
1913.00,-0.0240
1912.00,-0.0241
1911.00,-0.0241
1910.00,-0.0242
1909.00,-0.0242
1908.00,-0.0243
1907.00,-0.0242
1906.00,-0.0242
1905.00,-0.0242
1904.00,-0.0242
1903.00,-0.0242
1902.00,-0.0242
1901.00,-0.0243
1900.00,-0.0244
1899.00,-0.0244
1898.00,-0.0245
1897.00,-0.0245
1896.00,-0.0245
1895.00,-0.0246
1894.00,-0.0246
1893.00,-0.0246
1892.00,-0.0246
1891.00,-0.0246
1890.00,-0.0247
1889.00,-0.0248
1888.00,-0.0248
1887.00,-0.0249
1886.00,-0.0249
1885.00,-0.0249
1884.00,-0.0249
1883.00,-0.0249
1882.00,-0.0249
1881.00,-0.0249
1880.00,-0.0250
1879.00,-0.0251
1878.00,-0.0251
1877.00,-0.0252
1876.00,-0.0252
1875.00,-0.0252
1874.00,-0.0253
1873.00,-0.0253
1872.00,-0.0254
1871.00,-0.0255
1870.00,-0.0256
1869.00,-0.0256
1868.00,-0.0257
1867.00,-0.0257
1866.00,-0.0257
1865.00,-0.0257
1864.00,-0.0257
1863.00,-0.0257
1862.00,-0.0257
1861.00,-0.0258
1860.00,-0.0258
1859.00,-0.0258
1858.00,-0.0259
1857.00,-0.0260
1856.00,-0.0261
1855.00,-0.0261
1854.00,-0.0262
1853.00,-0.0262
1852.00,-0.0262
1851.00,-0.0262
1850.00,-0.0262
1849.00,-0.0263
1848.00,-0.0263
1847.00,-0.0264
1846.00,-0.0265
1845.00,-0.0266
1844.00,-0.0266
1843.00,-0.0267
1842.00,-0.0268
1841.00,-0.0267
1840.00,-0.0267
1839.00,-0.0267
1838.00,-0.0267
1837.00,-0.0268
1836.00,-0.0268
1835.00,-0.0269
1834.00,-0.0269
1833.00,-0.0269
1832.00,-0.0269
1831.00,-0.0270
1830.00,-0.0271
1829.00,-0.0273
1828.00,-0.0273
1827.00,-0.0274
1826.00,-0.0274
1825.00,-0.0274
1824.00,-0.0275
1823.00,-0.0275
1822.00,-0.0275
1821.00,-0.0275
1820.00,-0.0275
1819.00,-0.0275
1818.00,-0.0276
1817.00,-0.0276
1816.00,-0.0276
1815.00,-0.0277
1814.00,-0.0277
1813.00,-0.0278
1812.00,-0.0278
1811.00,-0.0279
1810.00,-0.0280
1809.00,-0.0280
1808.00,-0.0280
1807.00,-0.0280
1806.00,-0.0281
1805.00,-0.0281
1804.00,-0.0282
1803.00,-0.0284
1802.00,-0.0284
1801.00,-0.0285
1800.00,-0.0285
1799.00,-0.0286
1798.00,-0.0286
1797.00,-0.0286
1796.00,-0.0287
1795.00,-0.0288
1794.00,-0.0289
1793.00,-0.0290
1792.00,-0.0290
1791.00,-0.0291
1790.00,-0.0291
1789.00,-0.0291
1788.00,-0.0291
1787.00,-0.0291
1786.00,-0.0291
1785.00,-0.0291
1784.00,-0.0292
1783.00,-0.0293
1782.00,-0.0293
1781.00,-0.0294
1780.00,-0.0294
1779.00,-0.0295
1778.00,-0.0295
1777.00,-0.0296
1776.00,-0.0296
1775.00,-0.0296
1774.00,-0.0297
1773.00,-0.0299
1772.00,-0.0301
1771.00,-0.0303
1770.00,-0.0303
1769.00,-0.0303
1768.00,-0.0302
1767.00,-0.0302
1766.00,-0.0303
1765.00,-0.0304
1764.00,-0.0304
1763.00,-0.0305
1762.00,-0.0307
1761.00,-0.0308
1760.00,-0.0308
1759.00,-0.0309
1758.00,-0.0309
1757.00,-0.0309
1756.00,-0.0309
1755.00,-0.0309
1754.00,-0.0309
1753.00,-0.0309
1752.00,-0.0310
1751.00,-0.0311
1750.00,-0.0312
1749.00,-0.0313
1748.00,-0.0313
1747.00,-0.0314
1746.00,-0.0314
1745.00,-0.0314
1744.00,-0.0314
1743.00,-0.0315
1742.00,-0.0315
1741.00,-0.0316
1740.00,-0.0316
1739.00,-0.0317
1738.00,-0.0318
1737.00,-0.0319
1736.00,-0.0319
1735.00,-0.0321
1734.00,-0.0324
1733.00,-0.0327
1732.00,-0.0329
1731.00,-0.0330
1730.00,-0.0331
1729.00,-0.0332
1728.00,-0.0333
1727.00,-0.0333
1726.00,-0.0334
1725.00,-0.0335
1724.00,-0.0335
1723.00,-0.0336
1722.00,-0.0337
1721.00,-0.0337
1720.00,-0.0336
1719.00,-0.0335
1718.00,-0.0336
1717.00,-0.0338
1716.00,-0.0338
1715.00,-0.0336
1714.00,-0.0334
1713.00,-0.0331
1712.00,-0.0327
1711.00,-0.0323
1710.00,-0.0318
1709.00,-0.0312
1708.00,-0.0305
1707.00,-0.0297
1706.00,-0.0287
1705.00,-0.0275
1704.00,-0.0263
1703.00,-0.0250
1702.00,-0.0233
1701.00,-0.0213
1700.00,-0.0191
1699.00,-0.0173
1698.00,-0.0161
1697.00,-0.0153
1696.00,-0.0146
1695.00,-0.0141
1694.00,-0.0136
1693.00,-0.0132
1692.00,-0.0127
1691.00,-0.0122
1690.00,-0.0116
1689.00,-0.0109
1688.00,-0.0102
1687.00,-0.0095
1686.00,-0.0089
1685.00,-0.0081
1684.00,-0.0072
1683.00,-0.0062
1682.00,-0.0053
1681.00,-0.0044
1680.00,-0.0035
1679.00,-0.0026
1678.00,-0.0018
1677.00,-0.0009
1676.00,0.0000
1675.00,0.0011
1674.00,0.0020
1673.00,0.0028
1672.00,0.0035
1671.00,0.0042
1670.00,0.0051
1669.00,0.0060
1668.00,0.0068
1667.00,0.0076
1666.00,0.0082
1665.00,0.0088
1664.00,0.0095
1663.00,0.0102
1662.00,0.0109
1661.00,0.0116
1660.00,0.0121
1659.00,0.0126
1658.00,0.0130
1657.00,0.0133
1656.00,0.0135
1655.00,0.0136
1654.00,0.0138
1653.00,0.0141
1652.00,0.0144
1651.00,0.0143
1650.00,0.0142
1649.00,0.0140
1648.00,0.0138
1647.00,0.0138
1646.00,0.0138
1645.00,0.0138
1644.00,0.0137
1643.00,0.0136
1642.00,0.0135
1641.00,0.0135
1640.00,0.0135
1639.00,0.0135
1638.00,0.0134
1637.00,0.0135
1636.00,0.0138
1635.00,0.0143
1634.00,0.0148
1633.00,0.0152
1632.00,0.0156
1631.00,0.0160
1630.00,0.0166
1629.00,0.0174
1628.00,0.0183
1627.00,0.0193
1626.00,0.0203
1625.00,0.0213
1624.00,0.0225
1623.00,0.0239
1622.00,0.0251
1621.00,0.0261
1620.00,0.0268
1619.00,0.0273
1618.00,0.0276
1617.00,0.0279
1616.00,0.0279
1615.00,0.0277
1614.00,0.0270
1613.00,0.0261
1612.00,0.0249
1611.00,0.0237
1610.00,0.0223
1609.00,0.0208
1608.00,0.0193
1607.00,0.0179
1606.00,0.0164
1605.00,0.0150
1604.00,0.0135
1603.00,0.0122
1602.00,0.0109
1601.00,0.0096
1600.00,0.0085
1599.00,0.0074
1598.00,0.0064
1597.00,0.0054
1596.00,0.0043
1595.00,0.0033
1594.00,0.0023
1593.00,0.0014
1592.00,0.0005
1591.00,-0.0004
1590.00,-0.0012
1589.00,-0.0020
1588.00,-0.0028
1587.00,-0.0034
1586.00,-0.0040
1585.00,-0.0045
1584.00,-0.0050
1583.00,-0.0054
1582.00,-0.0057
1581.00,-0.0059
1580.00,-0.0061
1579.00,-0.0062
1578.00,-0.0063
1577.00,-0.0063
1576.00,-0.0063
1575.00,-0.0063
1574.00,-0.0061
1573.00,-0.0059
1572.00,-0.0057
1571.00,-0.0054
1570.00,-0.0049
1569.00,-0.0043
1568.00,-0.0037
1567.00,-0.0031
1566.00,-0.0024
1565.00,-0.0015
1564.00,-0.0007
1563.00,0.0001
1562.00,0.0008
1561.00,0.0016
1560.00,0.0027
1559.00,0.0040
1558.00,0.0055
1557.00,0.0067
1556.00,0.0077
1555.00,0.0087
1554.00,0.0099
1553.00,0.0110
1552.00,0.0120
1551.00,0.0130
1550.00,0.0141
1549.00,0.0152
1548.00,0.0161
1547.00,0.0169
1546.00,0.0178
1545.00,0.0187
1544.00,0.0196
1543.00,0.0205
1542.00,0.0214
1541.00,0.0223
1540.00,0.0233
1539.00,0.0244
1538.00,0.0253
1537.00,0.0259
1536.00,0.0264
1535.00,0.0270
1534.00,0.0278
1533.00,0.0287
1532.00,0.0296
1531.00,0.0303
1530.00,0.0309
1529.00,0.0315
1528.00,0.0321
1527.00,0.0328
1526.00,0.0336
1525.00,0.0343
1524.00,0.0350
1523.00,0.0357
1522.00,0.0367
1521.00,0.0379
1520.00,0.0389
1519.00,0.0398
1518.00,0.0406
1517.00,0.0414
1516.00,0.0421
1515.00,0.0426
1514.00,0.0428
1513.00,0.0428
1512.00,0.0427
1511.00,0.0424
1510.00,0.0420
1509.00,0.0414
1508.00,0.0407
1507.00,0.0400
1506.00,0.0395
1505.00,0.0388
1504.00,0.0379
1503.00,0.0368
1502.00,0.0356
1501.00,0.0344
1500.00,0.0331
1499.00,0.0319
1498.00,0.0306
1497.00,0.0293
1496.00,0.0280
1495.00,0.0265
1494.00,0.0250
1493.00,0.0234
1492.00,0.0217
1491.00,0.0201
1490.00,0.0184
1489.00,0.0169
1488.00,0.0153
1487.00,0.0139
1486.00,0.0125
1485.00,0.0111
1484.00,0.0098
1483.00,0.0086
1482.00,0.0074
1481.00,0.0063
1480.00,0.0053
1479.00,0.0043
1478.00,0.0035
1477.00,0.0028
1476.00,0.0021
1475.00,0.0015
1474.00,0.0011
1473.00,0.0007
1472.00,0.0006
1471.00,0.0006
1470.00,0.0005
1469.00,0.0003
1468.00,0.0001
1467.00,-0.0002
1466.00,-0.0005
1465.00,-0.0008
1464.00,-0.0009
1463.00,-0.0010
1462.00,-0.0010
1461.00,-0.0010
1460.00,-0.0009
1459.00,-0.0007
1458.00,-0.0004
1457.00,0.0002
1456.00,0.0010
1455.00,0.0016
1454.00,0.0019
1453.00,0.0022
1452.00,0.0023
1451.00,0.0024
1450.00,0.0024
1449.00,0.0024
1448.00,0.0023
1447.00,0.0023
1446.00,0.0021
1445.00,0.0018
1444.00,0.0014
1443.00,0.0010
1442.00,0.0005
1441.00,-0.0001
1440.00,-0.0008
1439.00,-0.0016
1438.00,-0.0023
1437.00,-0.0029
1436.00,-0.0034
1435.00,-0.0039
1434.00,-0.0044
1433.00,-0.0050
1432.00,-0.0055
1431.00,-0.0060
1430.00,-0.0064
1429.00,-0.0067
1428.00,-0.0069
1427.00,-0.0071
1426.00,-0.0073
1425.00,-0.0073
1424.00,-0.0073
1423.00,-0.0073
1422.00,-0.0073
1421.00,-0.0073
1420.00,-0.0072
1419.00,-0.0069
1418.00,-0.0065
1417.00,-0.0061
1416.00,-0.0058
1415.00,-0.0054
1414.00,-0.0050
1413.00,-0.0047
1412.00,-0.0044
1411.00,-0.0041
1410.00,-0.0038
1409.00,-0.0035
1408.00,-0.0033
1407.00,-0.0031
1406.00,-0.0029
1405.00,-0.0027
1404.00,-0.0026
1403.00,-0.0025
1402.00,-0.0025
1401.00,-0.0026
1400.00,-0.0026
1399.00,-0.0027
1398.00,-0.0027
1397.00,-0.0028
1396.00,-0.0028
1395.00,-0.0029
1394.00,-0.0028
1393.00,-0.0028
1392.00,-0.0028
1391.00,-0.0029
1390.00,-0.0030
1389.00,-0.0031
1388.00,-0.0032
1387.00,-0.0033
1386.00,-0.0035
1385.00,-0.0038
1384.00,-0.0040
1383.00,-0.0043
1382.00,-0.0045
1381.00,-0.0048
1380.00,-0.0050
1379.00,-0.0052
1378.00,-0.0054
1377.00,-0.0056
1376.00,-0.0058
1375.00,-0.0060
1374.00,-0.0062
1373.00,-0.0063
1372.00,-0.0064
1371.00,-0.0066
1370.00,-0.0067
1369.00,-0.0069
1368.00,-0.0071
1367.00,-0.0073
1366.00,-0.0076
1365.00,-0.0080
1364.00,-0.0084
1363.00,-0.0087
1362.00,-0.0090
1361.00,-0.0092
1360.00,-0.0094
1359.00,-0.0095
1358.00,-0.0095
1357.00,-0.0096
1356.00,-0.0095
1355.00,-0.0095
1354.00,-0.0093
1353.00,-0.0092
1352.00,-0.0091
1351.00,-0.0090
1350.00,-0.0088
1349.00,-0.0087
1348.00,-0.0085
1347.00,-0.0084
1346.00,-0.0083
1345.00,-0.0083
1344.00,-0.0082
1343.00,-0.0082
1342.00,-0.0082
1341.00,-0.0081
1340.00,-0.0082
1339.00,-0.0082
1338.00,-0.0082
1337.00,-0.0082
1336.00,-0.0083
1335.00,-0.0083
1334.00,-0.0083
1333.00,-0.0084
1332.00,-0.0084
1331.00,-0.0085
1330.00,-0.0086
1329.00,-0.0086
1328.00,-0.0087
1327.00,-0.0088
1326.00,-0.0088
1325.00,-0.0089
1324.00,-0.0090
1323.00,-0.0090
1322.00,-0.0090
1321.00,-0.0091
1320.00,-0.0092
1319.00,-0.0092
1318.00,-0.0093
1317.00,-0.0093
1316.00,-0.0093
1315.00,-0.0094
1314.00,-0.0094
1313.00,-0.0094
1312.00,-0.0094
1311.00,-0.0094
1310.00,-0.0094
1309.00,-0.0095
1308.00,-0.0095
1307.00,-0.0096
1306.00,-0.0097
1305.00,-0.0098
1304.00,-0.0098
1303.00,-0.0099
1302.00,-0.0100
1301.00,-0.0101
1300.00,-0.0103
1299.00,-0.0104
1298.00,-0.0105
1297.00,-0.0107
1296.00,-0.0108
1295.00,-0.0109
1294.00,-0.0110
1293.00,-0.0111
1292.00,-0.0112
1291.00,-0.0113
1290.00,-0.0113
1289.00,-0.0113
1288.00,-0.0114
1287.00,-0.0115
1286.00,-0.0116
1285.00,-0.0117
1284.00,-0.0118
1283.00,-0.0119
1282.00,-0.0120
1281.00,-0.0121
1280.00,-0.0123
1279.00,-0.0124
1278.00,-0.0125
1277.00,-0.0127
1276.00,-0.0129
1275.00,-0.0130
1274.00,-0.0131
1273.00,-0.0132
1272.00,-0.0134
1271.00,-0.0134
1270.00,-0.0135
1269.00,-0.0137
1268.00,-0.0138
1267.00,-0.0139
1266.00,-0.0140
1265.00,-0.0141
1264.00,-0.0142
1263.00,-0.0142
1262.00,-0.0143
1261.00,-0.0143
1260.00,-0.0144
1259.00,-0.0144
1258.00,-0.0143
1257.00,-0.0143
1256.00,-0.0142
1255.00,-0.0140
1254.00,-0.0138
1253.00,-0.0135
1252.00,-0.0132
1251.00,-0.0129
1250.00,-0.0125
1249.00,-0.0121
1248.00,-0.0118
1247.00,-0.0114
1246.00,-0.0110
1245.00,-0.0107
1244.00,-0.0104
1243.00,-0.0100
1242.00,-0.0096
1241.00,-0.0093
1240.00,-0.0089
1239.00,-0.0086
1238.00,-0.0082
1237.00,-0.0079
1236.00,-0.0075
1235.00,-0.0072
1234.00,-0.0068
1233.00,-0.0065
1232.00,-0.0062
1231.00,-0.0059
1230.00,-0.0057
1229.00,-0.0054
1228.00,-0.0052
1227.00,-0.0051
1226.00,-0.0050
1225.00,-0.0049
1224.00,-0.0049
1223.00,-0.0049
1222.00,-0.0049
1221.00,-0.0050
1220.00,-0.0051
1219.00,-0.0052
1218.00,-0.0054
1217.00,-0.0056
1216.00,-0.0059
1215.00,-0.0061
1214.00,-0.0064
1213.00,-0.0068
1212.00,-0.0071
1211.00,-0.0074
1210.00,-0.0078
1209.00,-0.0082
1208.00,-0.0086
1207.00,-0.0090
1206.00,-0.0094
1205.00,-0.0098
1204.00,-0.0102
1203.00,-0.0107
1202.00,-0.0111
1201.00,-0.0116
1200.00,-0.0121
1199.00,-0.0126
1198.00,-0.0130
1197.00,-0.0134
1196.00,-0.0138
1195.00,-0.0142
1194.00,-0.0145
1193.00,-0.0148
1192.00,-0.0151
1191.00,-0.0155
1190.00,-0.0158
1189.00,-0.0161
1188.00,-0.0164
1187.00,-0.0166
1186.00,-0.0169
1185.00,-0.0171
1184.00,-0.0174
1183.00,-0.0176
1182.00,-0.0179
1181.00,-0.0181
1180.00,-0.0183
1179.00,-0.0184
1178.00,-0.0185
1177.00,-0.0185
1176.00,-0.0185
1175.00,-0.0184
1174.00,-0.0183
1173.00,-0.0182
1172.00,-0.0182
1171.00,-0.0182
1170.00,-0.0182
1169.00,-0.0182
1168.00,-0.0182
1167.00,-0.0182
1166.00,-0.0181
1165.00,-0.0181
1164.00,-0.0182
1163.00,-0.0182
1162.00,-0.0182
1161.00,-0.0182
1160.00,-0.0182
1159.00,-0.0182
1158.00,-0.0183
1157.00,-0.0184
1156.00,-0.0186
1155.00,-0.0188
1154.00,-0.0190
1153.00,-0.0193
1152.00,-0.0196
1151.00,-0.0199
1150.00,-0.0202
1149.00,-0.0205
1148.00,-0.0208
1147.00,-0.0212
1146.00,-0.0215
1145.00,-0.0217
1144.00,-0.0220
1143.00,-0.0222
1142.00,-0.0224
1141.00,-0.0226
1140.00,-0.0228
1139.00,-0.0231
1138.00,-0.0233
1137.00,-0.0235
1136.00,-0.0238
1135.00,-0.0241
1134.00,-0.0244
1133.00,-0.0247
1132.00,-0.0249
1131.00,-0.0251
1130.00,-0.0252
1129.00,-0.0252
1128.00,-0.0254
1127.00,-0.0255
1126.00,-0.0256
1125.00,-0.0257
1124.00,-0.0258
1123.00,-0.0260
1122.00,-0.0261
1121.00,-0.0263
1120.00,-0.0264
1119.00,-0.0265
1118.00,-0.0266
1117.00,-0.0266
1116.00,-0.0267
1115.00,-0.0267
1114.00,-0.0268
1113.00,-0.0269
1112.00,-0.0270
1111.00,-0.0271
1110.00,-0.0272
1109.00,-0.0273
1108.00,-0.0274
1107.00,-0.0275
1106.00,-0.0275
1105.00,-0.0275
1104.00,-0.0276
1103.00,-0.0277
1102.00,-0.0277
1101.00,-0.0278
1100.00,-0.0278
1099.00,-0.0279
1098.00,-0.0278
1097.00,-0.0278
1096.00,-0.0279
1095.00,-0.0278
1094.00,-0.0278
1093.00,-0.0276
1092.00,-0.0275
1091.00,-0.0272
1090.00,-0.0270
1089.00,-0.0267
1088.00,-0.0265
1087.00,-0.0262
1086.00,-0.0258
1085.00,-0.0254
1084.00,-0.0251
1083.00,-0.0247
1082.00,-0.0244
1081.00,-0.0240
1080.00,-0.0236
1079.00,-0.0231
1078.00,-0.0227
1077.00,-0.0223
1076.00,-0.0220
1075.00,-0.0217
1074.00,-0.0215
1073.00,-0.0212
1072.00,-0.0210
1071.00,-0.0207
1070.00,-0.0205
1069.00,-0.0202
1068.00,-0.0201
1067.00,-0.0200
1066.00,-0.0199
1065.00,-0.0198
1064.00,-0.0198
1063.00,-0.0199
1062.00,-0.0200
1061.00,-0.0202
1060.00,-0.0205
1059.00,-0.0208
1058.00,-0.0211
1057.00,-0.0214
1056.00,-0.0217
1055.00,-0.0220
1054.00,-0.0223
1053.00,-0.0226
1052.00,-0.0229
1051.00,-0.0231
1050.00,-0.0233
1049.00,-0.0235
1048.00,-0.0236
1047.00,-0.0238
1046.00,-0.0240
1045.00,-0.0243
1044.00,-0.0246
1043.00,-0.0248
1042.00,-0.0251
1041.00,-0.0254
1040.00,-0.0257
1039.00,-0.0260
1038.00,-0.0263
1037.00,-0.0266
1036.00,-0.0268
1035.00,-0.0270
1034.00,-0.0272
1033.00,-0.0275
1032.00,-0.0278
1031.00,-0.0280
1030.00,-0.0282
1029.00,-0.0285
1028.00,-0.0288
1027.00,-0.0291
1026.00,-0.0294
1025.00,-0.0298
1024.00,-0.0303
1023.00,-0.0307
1022.00,-0.0311
1021.00,-0.0314
1020.00,-0.0318
1019.00,-0.0321
1018.00,-0.0324
1017.00,-0.0327
1016.00,-0.0330
1015.00,-0.0333
1014.00,-0.0335
1013.00,-0.0338
1012.00,-0.0339
1011.00,-0.0341
1010.00,-0.0342
1009.00,-0.0344
1008.00,-0.0346
1007.00,-0.0349
1006.00,-0.0351
1005.00,-0.0352
1004.00,-0.0354
1003.00,-0.0355
1002.00,-0.0356
1001.00,-0.0358
1000.00,-0.0360
999.00,-0.0362
998.00,-0.0363
997.00,-0.0364
996.00,-0.0365
995.00,-0.0366
994.00,-0.0366
993.00,-0.0367
992.00,-0.0368
991.00,-0.0368
990.00,-0.0368
989.00,-0.0368
988.00,-0.0368
987.00,-0.0368
986.00,-0.0368
985.00,-0.0369
984.00,-0.0369
983.00,-0.0369
982.00,-0.0369
981.00,-0.0369
980.00,-0.0369
979.00,-0.0368
978.00,-0.0368
977.00,-0.0368
976.00,-0.0368
975.00,-0.0369
974.00,-0.0369
973.00,-0.0370
972.00,-0.0370
971.00,-0.0371
970.00,-0.0371
969.00,-0.0371
968.00,-0.0371
967.00,-0.0371
966.00,-0.0371
965.00,-0.0370
964.00,-0.0370
963.00,-0.0370
962.00,-0.0371
961.00,-0.0371
960.00,-0.0372
959.00,-0.0373
958.00,-0.0375
957.00,-0.0376
956.00,-0.0378
955.00,-0.0380
954.00,-0.0381
953.00,-0.0383
952.00,-0.0385
951.00,-0.0386
950.00,-0.0387
949.00,-0.0387
948.00,-0.0388
947.00,-0.0388
946.00,-0.0388
945.00,-0.0388
944.00,-0.0388
943.00,-0.0388
942.00,-0.0387
941.00,-0.0386
940.00,-0.0386
939.00,-0.0386
938.00,-0.0386
937.00,-0.0386
936.00,-0.0385
935.00,-0.0383
934.00,-0.0382
933.00,-0.0381
932.00,-0.0380
931.00,-0.0380
930.00,-0.0379
929.00,-0.0378
928.00,-0.0379
927.00,-0.0379
926.00,-0.0381
925.00,-0.0383
924.00,-0.0385
923.00,-0.0387
922.00,-0.0390
921.00,-0.0392
920.00,-0.0395
919.00,-0.0397
918.00,-0.0398
917.00,-0.0400
916.00,-0.0402
915.00,-0.0404
914.00,-0.0405
913.00,-0.0406
912.00,-0.0407
911.00,-0.0408
910.00,-0.0409
909.00,-0.0409
908.00,-0.0409
907.00,-0.0409
906.00,-0.0408
905.00,-0.0408
904.00,-0.0407
903.00,-0.0407
902.00,-0.0406
901.00,-0.0405
900.00,-0.0405
899.00,-0.0405
898.00,-0.0405
897.00,-0.0406
896.00,-0.0406
895.00,-0.0407
894.00,-0.0407
893.00,-0.0408
892.00,-0.0409
891.00,-0.0409
890.00,-0.0410
889.00,-0.0410
888.00,-0.0411
887.00,-0.0412
886.00,-0.0412
885.00,-0.0411
884.00,-0.0412
883.00,-0.0412
882.00,-0.0412
881.00,-0.0413
880.00,-0.0413
879.00,-0.0413
878.00,-0.0413
877.00,-0.0412
876.00,-0.0413
875.00,-0.0413
874.00,-0.0413
873.00,-0.0414
872.00,-0.0415
871.00,-0.0416
870.00,-0.0416
869.00,-0.0417
868.00,-0.0419
867.00,-0.0421
866.00,-0.0422
865.00,-0.0424
864.00,-0.0425
863.00,-0.0426
862.00,-0.0427
861.00,-0.0428
860.00,-0.0430
859.00,-0.0431
858.00,-0.0431
857.00,-0.0431
856.00,-0.0432
855.00,-0.0432
854.00,-0.0432
853.00,-0.0432
852.00,-0.0433
851.00,-0.0433
850.00,-0.0434
849.00,-0.0434
848.00,-0.0435
847.00,-0.0435
846.00,-0.0435
845.00,-0.0435
844.00,-0.0436
843.00,-0.0437
842.00,-0.0437
841.00,-0.0437
840.00,-0.0437
839.00,-0.0436
838.00,-0.0435
837.00,-0.0433
836.00,-0.0432
835.00,-0.0432
834.00,-0.0431
833.00,-0.0430
832.00,-0.0429
831.00,-0.0428
830.00,-0.0426
829.00,-0.0425
828.00,-0.0425
827.00,-0.0425
826.00,-0.0424
825.00,-0.0425
824.00,-0.0426
823.00,-0.0426
822.00,-0.0426
821.00,-0.0426
820.00,-0.0426
819.00,-0.0425
818.00,-0.0424
817.00,-0.0423
816.00,-0.0422
815.00,-0.0422
814.00,-0.0421
813.00,-0.0421
812.00,-0.0422
811.00,-0.0421
810.00,-0.0420
809.00,-0.0419
808.00,-0.0418
807.00,-0.0417
806.00,-0.0416
805.00,-0.0415
804.00,-0.0415
803.00,-0.0415
802.00,-0.0414
801.00,-0.0414
800.00,-0.0413
799.00,-0.0413
798.00,-0.0413
797.00,-0.0413
796.00,-0.0413
795.00,-0.0412
794.00,-0.0411
793.00,-0.0410
792.00,-0.0410
791.00,-0.0409
790.00,-0.0407
789.00,-0.0406
788.00,-0.0405
787.00,-0.0404
786.00,-0.0404
785.00,-0.0403
784.00,-0.0403
783.00,-0.0402
782.00,-0.0401
781.00,-0.0401
780.00,-0.0401
779.00,-0.0401
778.00,-0.0400
777.00,-0.0398
776.00,-0.0396
775.00,-0.0395
774.00,-0.0393
773.00,-0.0393
772.00,-0.0394
771.00,-0.0396
770.00,-0.0399
769.00,-0.0400
768.00,-0.0400
767.00,-0.0397
766.00,-0.0391
765.00,-0.0386
764.00,-0.0381
763.00,-0.0378
762.00,-0.0375
761.00,-0.0374
760.00,-0.0372
759.00,-0.0371
758.00,-0.0369
757.00,-0.0367
756.00,-0.0365
755.00,-0.0364
754.00,-0.0362
753.00,-0.0359
752.00,-0.0357
751.00,-0.0354
750.00,-0.0352
749.00,-0.0349
748.00,-0.0347
747.00,-0.0346
746.00,-0.0345
745.00,-0.0345
744.00,-0.0344
743.00,-0.0343
742.00,-0.0341
741.00,-0.0340
740.00,-0.0340
739.00,-0.0340
738.00,-0.0340
737.00,-0.0339
736.00,-0.0339
735.00,-0.0338
734.00,-0.0337
733.00,-0.0336
732.00,-0.0334
731.00,-0.0331
730.00,-0.0327
729.00,-0.0324
728.00,-0.0321
727.00,-0.0317
726.00,-0.0314
725.00,-0.0310
724.00,-0.0306
723.00,-0.0301
722.00,-0.0297
721.00,-0.0292
720.00,-0.0288
719.00,-0.0283
718.00,-0.0278
717.00,-0.0273
716.00,-0.0269
715.00,-0.0264
714.00,-0.0259
713.00,-0.0253
712.00,-0.0248
711.00,-0.0242
710.00,-0.0235
709.00,-0.0228
708.00,-0.0221
707.00,-0.0213
706.00,-0.0205
705.00,-0.0197
704.00,-0.0189
703.00,-0.0182
702.00,-0.0174
701.00,-0.0168
700.00,-0.0165
699.00,-0.0163
698.00,-0.0161
697.00,-0.0160
696.00,-0.0159
695.00,-0.0159
694.00,-0.0158
693.00,-0.0159
692.00,-0.0160
691.00,-0.0161
690.00,-0.0162
689.00,-0.0163
688.00,-0.0163
687.00,-0.0163
686.00,-0.0163
685.00,-0.0162
684.00,-0.0162
683.00,-0.0161
682.00,-0.0161
681.00,-0.0162
680.00,-0.0163
679.00,-0.0163
678.00,-0.0162
677.00,-0.0161
676.00,-0.0161
675.00,-0.0162
674.00,-0.0162
673.00,-0.0162
672.00,-0.0162
671.00,-0.0163
670.00,-0.0165
669.00,-0.0167
668.00,-0.0168
667.00,-0.0167
666.00,-0.0165
665.00,-0.0163
664.00,-0.0162
663.00,-0.0162
662.00,-0.0161
661.00,-0.0160
660.00,-0.0160
659.00,-0.0160
658.00,-0.0159
657.00,-0.0159
656.00,-0.0159
655.00,-0.0159
654.00,-0.0158
653.00,-0.0157
652.00,-0.0156
651.00,-0.0155
650.00,-0.0153
649.00,-0.0151
648.00,-0.0151
647.00,-0.0150
646.00,-0.0149
645.00,-0.0147
644.00,-0.0146
643.00,-0.0144
642.00,-0.0142
641.00,-0.0140
640.00,-0.0138
639.00,-0.0136
638.00,-0.0133
637.00,-0.0132
636.00,-0.0131
635.00,-0.0130
634.00,-0.0128
633.00,-0.0127
632.00,-0.0126
631.00,-0.0127
630.00,-0.0126
629.00,-0.0126
628.00,-0.0125
627.00,-0.0125
626.00,-0.0124
625.00,-0.0124
624.00,-0.0125
623.00,-0.0126
622.00,-0.0126
621.00,-0.0127
620.00,-0.0127
619.00,-0.0127
618.00,-0.0126
617.00,-0.0126
616.00,-0.0127
615.00,-0.0128
614.00,-0.0130
613.00,-0.0132
612.00,-0.0135
611.00,-0.0137
610.00,-0.0139
609.00,-0.0139
608.00,-0.0140
607.00,-0.0140
606.00,-0.0140
605.00,-0.0141
604.00,-0.0143
603.00,-0.0145
602.00,-0.0144
601.00,-0.0145
600.00,-0.0147
599.00,-0.0148
598.00,-0.0149
597.00,-0.0149
596.00,-0.0150
595.00,-0.0152
594.00,-0.0152
593.00,-0.0152
592.00,-0.0152
591.00,-0.0152
590.00,-0.0150
589.00,-0.0148
588.00,-0.0148
587.00,-0.0148
586.00,-0.0148
585.00,-0.0148
584.00,-0.0147
583.00,-0.0146
582.00,-0.0145
581.00,-0.0145
580.00,-0.0146
579.00,-0.0146
578.00,-0.0144
577.00,-0.0143
576.00,-0.0142
575.00,-0.0141
574.00,-0.0139
573.00,-0.0139
572.00,-0.0140
571.00,-0.0142
570.00,-0.0142
569.00,-0.0142
568.00,-0.0143
567.00,-0.0143
566.00,-0.0141
565.00,-0.0139
564.00,-0.0139
563.00,-0.0140
562.00,-0.0141
561.00,-0.0141
560.00,-0.0141
559.00,-0.0139
558.00,-0.0135
557.00,-0.0133
556.00,-0.0133
555.00,-0.0133
554.00,-0.0134
553.00,-0.0135
552.00,-0.0138
551.00,-0.0140
550.00,-0.0140
549.00,-0.0140
548.00,-0.0140
547.00,-0.0139
546.00,-0.0138
545.00,-0.0137
544.00,-0.0139
543.00,-0.0141
542.00,-0.0141
541.00,-0.0141
540.00,-0.0141
539.00,-0.0141
538.00,-0.0140
537.00,-0.0139
536.00,-0.0141
535.00,-0.0142
534.00,-0.0142
533.00,-0.0142
532.00,-0.0142
531.00,-0.0141
530.00,-0.0141
529.00,-0.0143
528.00,-0.0145
527.00,-0.0145
526.00,-0.0142
525.00,-0.0139
524.00,-0.0138
523.00,-0.0140
522.00,-0.0141
521.00,-0.0143
520.00,-0.0145
519.00,-0.0145
518.00,-0.0144
517.00,-0.0145
516.00,-0.0148
515.00,-0.0151
514.00,-0.0151
513.00,-0.0152
512.00,-0.0156
511.00,-0.0160
510.00,-0.0161
509.00,-0.0161
508.00,-0.0161
507.00,-0.0161
506.00,-0.0159
505.00,-0.0159
504.00,-0.0160
503.00,-0.0160
502.00,-0.0158
501.00,-0.0158
500.00,-0.0160
499.00,-0.0161
498.00,-0.0160
497.00,-0.0160
496.00,-0.0162
495.00,-0.0164
494.00,-0.0164
493.00,-0.0164
492.00,-0.0166
491.00,-0.0169
490.00,-0.0172
489.00,-0.0175
488.00,-0.0178
487.00,-0.0178
486.00,-0.0175
485.00,-0.0172
484.00,-0.0173
483.00,-0.0177
482.00,-0.0180
481.00,-0.0184
480.00,-0.0187
479.00,-0.0187
478.00,-0.0183
477.00,-0.0181
476.00,-0.0184
475.00,-0.0188
474.00,-0.0190
473.00,-0.0191
472.00,-0.0194
471.00,-0.0193
470.00,-0.0186
469.00,-0.0180
468.00,-0.0179
467.00,-0.0181
466.00,-0.0182
465.00,-0.0184
464.00,-0.0188
463.00,-0.0188
462.00,-0.0185
461.00,-0.0183
460.00,-0.0186
459.00,-0.0188
458.00,-0.0188
457.00,-0.0187
456.00,-0.0189
455.00,-0.0188
454.00,-0.0184
453.00,-0.0182
452.00,-0.0187
451.00,-0.0190
450.00,-0.0189
449.00,-0.0187
448.00,-0.0189
447.00,-0.0191
446.00,-0.0190
445.00,-0.0191
444.00,-0.0197
443.00,-0.0204
442.00,-0.0209
441.00,-0.0213
440.00,-0.0218
439.00,-0.0221
438.00,-0.0220
437.00,-0.0221
436.00,-0.0228
435.00,-0.0232
434.00,-0.0230
433.00,-0.0230
432.00,-0.0235
431.00,-0.0240
430.00,-0.0238
429.00,-0.0237
428.00,-0.0242
427.00,-0.0250
426.00,-0.0254
425.00,-0.0259
424.00,-0.0265
423.00,-0.0266
422.00,-0.0261
421.00,-0.0260
420.00,-0.0269
419.00,-0.0275
418.00,-0.0267
417.00,-0.0257
416.00,-0.0255
415.00,-0.0256
414.00,-0.0255
413.00,-0.0259
412.00,-0.0276
411.00,-0.0296
410.00,-0.0308
409.00,-0.0314
408.00,-0.0320
407.00,-0.0321
406.00,-0.0312
405.00,-0.0308
404.00,-0.0316
403.00,-0.0321
402.00,-0.0308
401.00,-0.0291
400.00,-0.0287
