Created as New Dataset,Sample 391 By YargerLab Date Tuesday, December 02 2025
cm-1,A
4000.00,0.0005
3999.00,0.0005
3998.00,0.0005
3997.00,0.0005
3996.00,0.0005
3995.00,0.0005
3994.00,0.0004
3993.00,0.0004
3992.00,0.0004
3991.00,0.0004
3990.00,0.0005
3989.00,0.0005
3988.00,0.0005
3987.00,0.0005
3986.00,0.0005
3985.00,0.0004
3984.00,0.0004
3983.00,0.0004
3982.00,0.0004
3981.00,0.0004
3980.00,0.0004
3979.00,0.0005
3978.00,0.0005
3977.00,0.0005
3976.00,0.0005
3975.00,0.0005
3974.00,0.0005
3973.00,0.0005
3972.00,0.0005
3971.00,0.0004
3970.00,0.0004
3969.00,0.0004
3968.00,0.0004
3967.00,0.0004
3966.00,0.0004
3965.00,0.0004
3964.00,0.0004
3963.00,0.0004
3962.00,0.0005
3961.00,0.0005
3960.00,0.0005
3959.00,0.0005
3958.00,0.0004
3957.00,0.0004
3956.00,0.0005
3955.00,0.0005
3954.00,0.0005
3953.00,0.0005
3952.00,0.0005
3951.00,0.0005
3950.00,0.0005
3949.00,0.0005
3948.00,0.0005
3947.00,0.0005
3946.00,0.0005
3945.00,0.0005
3944.00,0.0005
3943.00,0.0005
3942.00,0.0005
3941.00,0.0005
3940.00,0.0005
3939.00,0.0005
3938.00,0.0005
3937.00,0.0005
3936.00,0.0005
3935.00,0.0005
3934.00,0.0005
3933.00,0.0005
3932.00,0.0005
3931.00,0.0004
3930.00,0.0004
3929.00,0.0004
3928.00,0.0004
3927.00,0.0005
3926.00,0.0005
3925.00,0.0005
3924.00,0.0004
3923.00,0.0004
3922.00,0.0005
3921.00,0.0005
3920.00,0.0005
3919.00,0.0005
3918.00,0.0005
3917.00,0.0005
3916.00,0.0005
3915.00,0.0005
3914.00,0.0005
3913.00,0.0005
3912.00,0.0005
3911.00,0.0004
3910.00,0.0004
3909.00,0.0004
3908.00,0.0005
3907.00,0.0005
3906.00,0.0005
3905.00,0.0005
3904.00,0.0005
3903.00,0.0006
3902.00,0.0006
3901.00,0.0006
3900.00,0.0006
3899.00,0.0006
3898.00,0.0006
3897.00,0.0006
3896.00,0.0005
3895.00,0.0005
3894.00,0.0005
3893.00,0.0005
3892.00,0.0005
3891.00,0.0005
3890.00,0.0005
3889.00,0.0005
3888.00,0.0005
3887.00,0.0005
3886.00,0.0005
3885.00,0.0005
3884.00,0.0005
3883.00,0.0005
3882.00,0.0005
3881.00,0.0005
3880.00,0.0005
3879.00,0.0005
3878.00,0.0005
3877.00,0.0005
3876.00,0.0005
3875.00,0.0005
3874.00,0.0004
3873.00,0.0004
3872.00,0.0005
3871.00,0.0005
3870.00,0.0005
3869.00,0.0005
3868.00,0.0005
3867.00,0.0005
3866.00,0.0005
3865.00,0.0006
3864.00,0.0006
3863.00,0.0005
3862.00,0.0005
3861.00,0.0005
3860.00,0.0005
3859.00,0.0005
3858.00,0.0005
3857.00,0.0006
3856.00,0.0006
3855.00,0.0007
3854.00,0.0007
3853.00,0.0007
3852.00,0.0008
3851.00,0.0008
3850.00,0.0007
3849.00,0.0006
3848.00,0.0006
3847.00,0.0005
3846.00,0.0005
3845.00,0.0005
3844.00,0.0005
3843.00,0.0005
3842.00,0.0005
3841.00,0.0005
3840.00,0.0005
3839.00,0.0005
3838.00,0.0005
3837.00,0.0006
3836.00,0.0006
3835.00,0.0006
3834.00,0.0005
3833.00,0.0005
3832.00,0.0005
3831.00,0.0005
3830.00,0.0005
3829.00,0.0005
3828.00,0.0005
3827.00,0.0005
3826.00,0.0005
3825.00,0.0005
3824.00,0.0005
3823.00,0.0005
3822.00,0.0006
3821.00,0.0006
3820.00,0.0006
3819.00,0.0007
3818.00,0.0007
3817.00,0.0006
3816.00,0.0006
3815.00,0.0006
3814.00,0.0006
3813.00,0.0006
3812.00,0.0005
3811.00,0.0005
3810.00,0.0005
3809.00,0.0005
3808.00,0.0005
3807.00,0.0005
3806.00,0.0006
3805.00,0.0006
3804.00,0.0006
3803.00,0.0006
3802.00,0.0006
3801.00,0.0006
3800.00,0.0006
3799.00,0.0006
3798.00,0.0007
3797.00,0.0006
3796.00,0.0006
3795.00,0.0005
3794.00,0.0005
3793.00,0.0005
3792.00,0.0005
3791.00,0.0005
3790.00,0.0005
3789.00,0.0005
3788.00,0.0005
3787.00,0.0005
3786.00,0.0005
3785.00,0.0005
3784.00,0.0005
3783.00,0.0005
3782.00,0.0005
3781.00,0.0005
3780.00,0.0005
3779.00,0.0005
3778.00,0.0005
3777.00,0.0005
3776.00,0.0005
3775.00,0.0005
3774.00,0.0005
3773.00,0.0005
3772.00,0.0005
3771.00,0.0005
3770.00,0.0005
3769.00,0.0005
3768.00,0.0005
3767.00,0.0005
3766.00,0.0005
3765.00,0.0005
3764.00,0.0005
3763.00,0.0005
3762.00,0.0005
3761.00,0.0005
3760.00,0.0005
3759.00,0.0005
3758.00,0.0005
3757.00,0.0005
3756.00,0.0006
3755.00,0.0006
3754.00,0.0006
3753.00,0.0006
3752.00,0.0007
3751.00,0.0007
3750.00,0.0007
3749.00,0.0007
3748.00,0.0007
3747.00,0.0007
3746.00,0.0007
3745.00,0.0007
3744.00,0.0007
3743.00,0.0007
3742.00,0.0007
3741.00,0.0007
3740.00,0.0006
3739.00,0.0006
3738.00,0.0005
3737.00,0.0005
3736.00,0.0005
3735.00,0.0005
3734.00,0.0005
3733.00,0.0005
3732.00,0.0005
3731.00,0.0005
3730.00,0.0005
3729.00,0.0005
3728.00,0.0005
3727.00,0.0005
3726.00,0.0005
3725.00,0.0005
3724.00,0.0005
3723.00,0.0005
3722.00,0.0005
3721.00,0.0005
3720.00,0.0005
3719.00,0.0005
3718.00,0.0005
3717.00,0.0005
3716.00,0.0005
3715.00,0.0005
3714.00,0.0005
3713.00,0.0006
3712.00,0.0006
3711.00,0.0006
3710.00,0.0005
3709.00,0.0005
3708.00,0.0005
3707.00,0.0005
3706.00,0.0005
3705.00,0.0005
3704.00,0.0005
3703.00,0.0005
3702.00,0.0005
3701.00,0.0005
3700.00,0.0005
3699.00,0.0005
3698.00,0.0005
3697.00,0.0005
3696.00,0.0005
3695.00,0.0005
3694.00,0.0005
3693.00,0.0006
3692.00,0.0006
3691.00,0.0006
3690.00,0.0005
3689.00,0.0005
3688.00,0.0005
3687.00,0.0005
3686.00,0.0005
3685.00,0.0005
3684.00,0.0005
3683.00,0.0005
3682.00,0.0004
3681.00,0.0004
3680.00,0.0005
3679.00,0.0005
3678.00,0.0006
3677.00,0.0006
3676.00,0.0006
3675.00,0.0005
3674.00,0.0006
3673.00,0.0006
3672.00,0.0006
3671.00,0.0006
3670.00,0.0005
3669.00,0.0005
3668.00,0.0005
3667.00,0.0005
3666.00,0.0005
3665.00,0.0005
3664.00,0.0005
3663.00,0.0005
3662.00,0.0005
3661.00,0.0005
3660.00,0.0005
3659.00,0.0005
3658.00,0.0005
3657.00,0.0005
3656.00,0.0005
3655.00,0.0006
3654.00,0.0006
3653.00,0.0007
3652.00,0.0007
3651.00,0.0007
3650.00,0.0007
3649.00,0.0007
3648.00,0.0007
3647.00,0.0007
3646.00,0.0007
3645.00,0.0007
3644.00,0.0006
3643.00,0.0006
3642.00,0.0006
3641.00,0.0006
3640.00,0.0006
3639.00,0.0005
3638.00,0.0005
3637.00,0.0005
3636.00,0.0005
3635.00,0.0005
3634.00,0.0005
3633.00,0.0006
3632.00,0.0006
3631.00,0.0006
3630.00,0.0006
3629.00,0.0006
3628.00,0.0006
3627.00,0.0007
3626.00,0.0007
3625.00,0.0007
3624.00,0.0006
3623.00,0.0007
3622.00,0.0007
3621.00,0.0007
3620.00,0.0007
3619.00,0.0006
3618.00,0.0006
3617.00,0.0006
3616.00,0.0007
3615.00,0.0007
3614.00,0.0007
3613.00,0.0007
3612.00,0.0007
3611.00,0.0007
3610.00,0.0007
3609.00,0.0007
3608.00,0.0008
3607.00,0.0008
3606.00,0.0008
3605.00,0.0008
3604.00,0.0008
3603.00,0.0008
3602.00,0.0008
3601.00,0.0008
3600.00,0.0008
3599.00,0.0008
3598.00,0.0008
3597.00,0.0008
3596.00,0.0007
3595.00,0.0007
3594.00,0.0007
3593.00,0.0007
3592.00,0.0007
3591.00,0.0008
3590.00,0.0008
3589.00,0.0008
3588.00,0.0008
3587.00,0.0008
3586.00,0.0008
3585.00,0.0008
3584.00,0.0008
3583.00,0.0008
3582.00,0.0008
3581.00,0.0008
3580.00,0.0008
3579.00,0.0008
3578.00,0.0008
3577.00,0.0008
3576.00,0.0008
3575.00,0.0008
3574.00,0.0009
3573.00,0.0009
3572.00,0.0009
3571.00,0.0009
3570.00,0.0009
3569.00,0.0009
3568.00,0.0009
3567.00,0.0009
3566.00,0.0009
3565.00,0.0010
3564.00,0.0010
3563.00,0.0010
3562.00,0.0010
3561.00,0.0010
3560.00,0.0010
3559.00,0.0010
3558.00,0.0011
3557.00,0.0011
3556.00,0.0010
3555.00,0.0010
3554.00,0.0010
3553.00,0.0010
3552.00,0.0011
3551.00,0.0011
3550.00,0.0011
3549.00,0.0011
3548.00,0.0011
3547.00,0.0012
3546.00,0.0012
3545.00,0.0012
3544.00,0.0012
3543.00,0.0013
3542.00,0.0013
3541.00,0.0013
3540.00,0.0012
3539.00,0.0012
3538.00,0.0012
3537.00,0.0012
3536.00,0.0012
3535.00,0.0012
3534.00,0.0012
3533.00,0.0012
3532.00,0.0013
3531.00,0.0013
3530.00,0.0013
3529.00,0.0013
3528.00,0.0013
3527.00,0.0013
3526.00,0.0013
3525.00,0.0013
3524.00,0.0013
3523.00,0.0013
3522.00,0.0013
3521.00,0.0013
3520.00,0.0013
3519.00,0.0014
3518.00,0.0014
3517.00,0.0014
3516.00,0.0014
3515.00,0.0014
3514.00,0.0014
3513.00,0.0014
3512.00,0.0014
3511.00,0.0014
3510.00,0.0015
3509.00,0.0015
3508.00,0.0015
3507.00,0.0015
3506.00,0.0015
3505.00,0.0015
3504.00,0.0015
3503.00,0.0015
3502.00,0.0015
3501.00,0.0016
3500.00,0.0016
3499.00,0.0016
3498.00,0.0016
3497.00,0.0016
3496.00,0.0016
3495.00,0.0016
3494.00,0.0016
3493.00,0.0016
3492.00,0.0017
3491.00,0.0017
3490.00,0.0017
3489.00,0.0017
3488.00,0.0017
3487.00,0.0017
3486.00,0.0017
3485.00,0.0017
3484.00,0.0017
3483.00,0.0017
3482.00,0.0017
3481.00,0.0017
3480.00,0.0017
3479.00,0.0017
3478.00,0.0017
3477.00,0.0017
3476.00,0.0017
3475.00,0.0017
3474.00,0.0017
3473.00,0.0017
3472.00,0.0018
3471.00,0.0018
3470.00,0.0018
3469.00,0.0018
3468.00,0.0018
3467.00,0.0018
3466.00,0.0018
3465.00,0.0019
3464.00,0.0019
3463.00,0.0019
3462.00,0.0019
3461.00,0.0019
3460.00,0.0019
3459.00,0.0019
3458.00,0.0019
3457.00,0.0019
3456.00,0.0020
3455.00,0.0020
3454.00,0.0020
3453.00,0.0020
3452.00,0.0019
3451.00,0.0019
3450.00,0.0019
3449.00,0.0019
3448.00,0.0019
3447.00,0.0019
3446.00,0.0019
3445.00,0.0020
3444.00,0.0020
3443.00,0.0020
3442.00,0.0020
3441.00,0.0020
3440.00,0.0020
3439.00,0.0020
3438.00,0.0020
3437.00,0.0020
3436.00,0.0020
3435.00,0.0020
3434.00,0.0020
3433.00,0.0020
3432.00,0.0020
3431.00,0.0021
3430.00,0.0021
3429.00,0.0021
3428.00,0.0021
3427.00,0.0021
3426.00,0.0021
3425.00,0.0021
3424.00,0.0021
3423.00,0.0021
3422.00,0.0021
3421.00,0.0021
3420.00,0.0021
3419.00,0.0021
3418.00,0.0022
3417.00,0.0022
3416.00,0.0022
3415.00,0.0022
3414.00,0.0022
3413.00,0.0022
3412.00,0.0022
3411.00,0.0022
3410.00,0.0022
3409.00,0.0022
3408.00,0.0022
3407.00,0.0022
3406.00,0.0022
3405.00,0.0022
3404.00,0.0022
3403.00,0.0022
3402.00,0.0022
3401.00,0.0022
3400.00,0.0022
3399.00,0.0022
3398.00,0.0022
3397.00,0.0023
3396.00,0.0023
3395.00,0.0023
3394.00,0.0023
3393.00,0.0023
3392.00,0.0023
3391.00,0.0023
3390.00,0.0023
3389.00,0.0023
3388.00,0.0023
3387.00,0.0023
3386.00,0.0023
3385.00,0.0023
3384.00,0.0023
3383.00,0.0023
3382.00,0.0023
3381.00,0.0023
3380.00,0.0024
3379.00,0.0024
3378.00,0.0024
3377.00,0.0024
3376.00,0.0024
3375.00,0.0024
3374.00,0.0024
3373.00,0.0025
3372.00,0.0025
3371.00,0.0025
3370.00,0.0025
3369.00,0.0025
3368.00,0.0025
3367.00,0.0025
3366.00,0.0025
3365.00,0.0025
3364.00,0.0025
3363.00,0.0025
3362.00,0.0025
3361.00,0.0025
3360.00,0.0025
3359.00,0.0025
3358.00,0.0025
3357.00,0.0025
3356.00,0.0025
3355.00,0.0026
3354.00,0.0026
3353.00,0.0026
3352.00,0.0026
3351.00,0.0026
3350.00,0.0026
3349.00,0.0026
3348.00,0.0026
3347.00,0.0026
3346.00,0.0026
3345.00,0.0026
3344.00,0.0027
3343.00,0.0027
3342.00,0.0026
3341.00,0.0026
3340.00,0.0026
3339.00,0.0026
3338.00,0.0026
3337.00,0.0027
3336.00,0.0027
3335.00,0.0027
3334.00,0.0027
3333.00,0.0027
3332.00,0.0027
3331.00,0.0027
3330.00,0.0027
3329.00,0.0027
3328.00,0.0027
3327.00,0.0027
3326.00,0.0027
3325.00,0.0027
3324.00,0.0027
3323.00,0.0027
3322.00,0.0027
3321.00,0.0028
3320.00,0.0028
3319.00,0.0028
3318.00,0.0028
3317.00,0.0028
3316.00,0.0028
3315.00,0.0028
3314.00,0.0028
3313.00,0.0028
3312.00,0.0028
3311.00,0.0029
3310.00,0.0029
3309.00,0.0029
3308.00,0.0028
3307.00,0.0028
3306.00,0.0028
3305.00,0.0029
3304.00,0.0029
3303.00,0.0029
3302.00,0.0029
3301.00,0.0029
3300.00,0.0029
3299.00,0.0029
3298.00,0.0029
3297.00,0.0029
3296.00,0.0029
3295.00,0.0029
3294.00,0.0029
3293.00,0.0029
3292.00,0.0030
3291.00,0.0030
3290.00,0.0030
3289.00,0.0030
3288.00,0.0029
3287.00,0.0029
3286.00,0.0029
3285.00,0.0029
3284.00,0.0029
3283.00,0.0029
3282.00,0.0029
3281.00,0.0029
3280.00,0.0029
3279.00,0.0029
3278.00,0.0029
3277.00,0.0028
3276.00,0.0028
3275.00,0.0028
3274.00,0.0028
3273.00,0.0028
3272.00,0.0029
3271.00,0.0029
3270.00,0.0029
3269.00,0.0029
3268.00,0.0029
3267.00,0.0029
3266.00,0.0029
3265.00,0.0028
3264.00,0.0028
3263.00,0.0028
3262.00,0.0028
3261.00,0.0028
3260.00,0.0027
3259.00,0.0027
3258.00,0.0027
3257.00,0.0027
3256.00,0.0027
3255.00,0.0027
3254.00,0.0026
3253.00,0.0026
3252.00,0.0025
3251.00,0.0026
3250.00,0.0026
3249.00,0.0026
3248.00,0.0027
3247.00,0.0027
3246.00,0.0026
3245.00,0.0026
3244.00,0.0026
3243.00,0.0026
3242.00,0.0026
3241.00,0.0026
3240.00,0.0026
3239.00,0.0026
3238.00,0.0026
3237.00,0.0025
3236.00,0.0025
3235.00,0.0025
3234.00,0.0025
3233.00,0.0025
3232.00,0.0025
3231.00,0.0025
3230.00,0.0025
3229.00,0.0025
3228.00,0.0025
3227.00,0.0025
3226.00,0.0025
3225.00,0.0025
3224.00,0.0025
3223.00,0.0025
3222.00,0.0024
3221.00,0.0024
3220.00,0.0024
3219.00,0.0024
3218.00,0.0024
3217.00,0.0024
3216.00,0.0024
3215.00,0.0024
3214.00,0.0024
3213.00,0.0024
3212.00,0.0024
3211.00,0.0024
3210.00,0.0024
3209.00,0.0024
3208.00,0.0024
3207.00,0.0024
3206.00,0.0024
3205.00,0.0024
3204.00,0.0024
3203.00,0.0024
3202.00,0.0024
3201.00,0.0024
3200.00,0.0025
3199.00,0.0025
3198.00,0.0024
3197.00,0.0024
3196.00,0.0024
3195.00,0.0023
3194.00,0.0023
3193.00,0.0023
3192.00,0.0023
3191.00,0.0023
3190.00,0.0023
3189.00,0.0023
3188.00,0.0023
3187.00,0.0023
3186.00,0.0023
3185.00,0.0022
3184.00,0.0022
3183.00,0.0022
3182.00,0.0022
3181.00,0.0022
3180.00,0.0022
3179.00,0.0022
3178.00,0.0022
3177.00,0.0022
3176.00,0.0022
3175.00,0.0022
3174.00,0.0022
3173.00,0.0022
3172.00,0.0022
3171.00,0.0022
3170.00,0.0022
3169.00,0.0022
3168.00,0.0022
3167.00,0.0022
3166.00,0.0022
3165.00,0.0022
3164.00,0.0022
3163.00,0.0022
3162.00,0.0022
3161.00,0.0022
3160.00,0.0022
3159.00,0.0022
3158.00,0.0022
3157.00,0.0022
3156.00,0.0022
3155.00,0.0021
3154.00,0.0021
3153.00,0.0021
3152.00,0.0021
3151.00,0.0021
3150.00,0.0021
3149.00,0.0021
3148.00,0.0021
3147.00,0.0020
3146.00,0.0020
3145.00,0.0020
3144.00,0.0020
3143.00,0.0020
3142.00,0.0020
3141.00,0.0020
3140.00,0.0020
3139.00,0.0020
3138.00,0.0021
3137.00,0.0021
3136.00,0.0021
3135.00,0.0020
3134.00,0.0020
3133.00,0.0020
3132.00,0.0020
3131.00,0.0020
3130.00,0.0020
3129.00,0.0020
3128.00,0.0020
3127.00,0.0020
3126.00,0.0020
3125.00,0.0020
3124.00,0.0020
3123.00,0.0020
3122.00,0.0020
3121.00,0.0020
3120.00,0.0020
3119.00,0.0021
3118.00,0.0021
3117.00,0.0021
3116.00,0.0021
3115.00,0.0022
3114.00,0.0022
3113.00,0.0022
3112.00,0.0023
3111.00,0.0024
3110.00,0.0024
3109.00,0.0025
3108.00,0.0026
3107.00,0.0027
3106.00,0.0028
3105.00,0.0029
3104.00,0.0030
3103.00,0.0030
3102.00,0.0030
3101.00,0.0030
3100.00,0.0029
3099.00,0.0029
3098.00,0.0029
3097.00,0.0029
3096.00,0.0029
3095.00,0.0029
3094.00,0.0029
3093.00,0.0030
3092.00,0.0031
3091.00,0.0033
3090.00,0.0034
3089.00,0.0037
3088.00,0.0039
3087.00,0.0042
3086.00,0.0046
3085.00,0.0049
3084.00,0.0051
3083.00,0.0053
3082.00,0.0054
3081.00,0.0054
3080.00,0.0052
3079.00,0.0051
3078.00,0.0049
3077.00,0.0047
3076.00,0.0045
3075.00,0.0044
3074.00,0.0043
3073.00,0.0043
3072.00,0.0044
3071.00,0.0044
3070.00,0.0045
3069.00,0.0046
3068.00,0.0048
3067.00,0.0050
3066.00,0.0053
3065.00,0.0056
3064.00,0.0059
3063.00,0.0062
3062.00,0.0065
3061.00,0.0067
3060.00,0.0068
3059.00,0.0069
3058.00,0.0068
3057.00,0.0066
3056.00,0.0064
3055.00,0.0061
3054.00,0.0057
3053.00,0.0054
3052.00,0.0051
3051.00,0.0049
3050.00,0.0046
3049.00,0.0044
3048.00,0.0043
3047.00,0.0042
3046.00,0.0041
3045.00,0.0041
3044.00,0.0041
3043.00,0.0042
3042.00,0.0043
3041.00,0.0044
3040.00,0.0046
3039.00,0.0048
3038.00,0.0050
3037.00,0.0053
3036.00,0.0056
3035.00,0.0061
3034.00,0.0066
3033.00,0.0071
3032.00,0.0078
3031.00,0.0085
3030.00,0.0093
3029.00,0.0101
3028.00,0.0108
3027.00,0.0113
3026.00,0.0117
3025.00,0.0119
3024.00,0.0118
3023.00,0.0113
3022.00,0.0107
3021.00,0.0098
3020.00,0.0089
3019.00,0.0080
3018.00,0.0071
3017.00,0.0064
3016.00,0.0058
3015.00,0.0052
3014.00,0.0048
3013.00,0.0045
3012.00,0.0042
3011.00,0.0040
3010.00,0.0039
3009.00,0.0038
3008.00,0.0038
3007.00,0.0039
3006.00,0.0039
3005.00,0.0040
3004.00,0.0041
3003.00,0.0042
3002.00,0.0042
3001.00,0.0042
3000.00,0.0042
2999.00,0.0041
2998.00,0.0040
2997.00,0.0038
2996.00,0.0036
2995.00,0.0034
2994.00,0.0033
2993.00,0.0032
2992.00,0.0031
2991.00,0.0030
2990.00,0.0030
2989.00,0.0029
2988.00,0.0029
2987.00,0.0029
2986.00,0.0029
2985.00,0.0030
2984.00,0.0030
2983.00,0.0030
2982.00,0.0031
2981.00,0.0031
2980.00,0.0032
2979.00,0.0032
2978.00,0.0033
2977.00,0.0033
2976.00,0.0034
2975.00,0.0035
2974.00,0.0036
2973.00,0.0036
2972.00,0.0037
2971.00,0.0038
2970.00,0.0039
2969.00,0.0040
2968.00,0.0041
2967.00,0.0043
2966.00,0.0044
2965.00,0.0045
2964.00,0.0047
2963.00,0.0048
2962.00,0.0049
2961.00,0.0051
2960.00,0.0052
2959.00,0.0053
2958.00,0.0055
2957.00,0.0057
2956.00,0.0058
2955.00,0.0060
2954.00,0.0061
2953.00,0.0062
2952.00,0.0064
2951.00,0.0066
2950.00,0.0067
2949.00,0.0070
2948.00,0.0072
2947.00,0.0074
2946.00,0.0077
2945.00,0.0080
2944.00,0.0084
2943.00,0.0088
2942.00,0.0092
2941.00,0.0096
2940.00,0.0100
2939.00,0.0105
2938.00,0.0110
2937.00,0.0115
2936.00,0.0121
2935.00,0.0126
2934.00,0.0132
2933.00,0.0138
2932.00,0.0144
2931.00,0.0150
2930.00,0.0156
2929.00,0.0161
2928.00,0.0166
2927.00,0.0170
2926.00,0.0174
2925.00,0.0177
2924.00,0.0180
2923.00,0.0182
2922.00,0.0183
2921.00,0.0183
2920.00,0.0183
2919.00,0.0181
2918.00,0.0179
2917.00,0.0176
2916.00,0.0172
2915.00,0.0168
2914.00,0.0163
2913.00,0.0158
2912.00,0.0153
2911.00,0.0148
2910.00,0.0143
2909.00,0.0138
2908.00,0.0134
2907.00,0.0129
2906.00,0.0125
2905.00,0.0121
2904.00,0.0117
2903.00,0.0113
2902.00,0.0109
2901.00,0.0105
2900.00,0.0101
2899.00,0.0097
2898.00,0.0093
2897.00,0.0090
2896.00,0.0087
2895.00,0.0084
2894.00,0.0081
2893.00,0.0079
2892.00,0.0076
2891.00,0.0074
2890.00,0.0072
2889.00,0.0070
2888.00,0.0069
2887.00,0.0067
2886.00,0.0066
2885.00,0.0065
2884.00,0.0063
2883.00,0.0062
2882.00,0.0061
2881.00,0.0060
2880.00,0.0059
2879.00,0.0058
2878.00,0.0057
2877.00,0.0057
2876.00,0.0056
2875.00,0.0055
2874.00,0.0055
2873.00,0.0055
2872.00,0.0055
2871.00,0.0055
2870.00,0.0054
2869.00,0.0054
2868.00,0.0055
2867.00,0.0055
2866.00,0.0056
2865.00,0.0057
2864.00,0.0059
2863.00,0.0061
2862.00,0.0063
2861.00,0.0065
2860.00,0.0068
2859.00,0.0071
2858.00,0.0075
2857.00,0.0078
2856.00,0.0081
2855.00,0.0085
2854.00,0.0088
2853.00,0.0090
2852.00,0.0092
2851.00,0.0093
2850.00,0.0093
2849.00,0.0092
2848.00,0.0089
2847.00,0.0086
2846.00,0.0082
2845.00,0.0077
2844.00,0.0072
2843.00,0.0067
2842.00,0.0062
2841.00,0.0058
2840.00,0.0053
2839.00,0.0049
2838.00,0.0045
2837.00,0.0041
2836.00,0.0038
2835.00,0.0035
2834.00,0.0033
2833.00,0.0031
2832.00,0.0030
2831.00,0.0028
2830.00,0.0027
2829.00,0.0026
2828.00,0.0025
2827.00,0.0025
2826.00,0.0024
2825.00,0.0023
2824.00,0.0023
2823.00,0.0023
2822.00,0.0022
2821.00,0.0022
2820.00,0.0022
2819.00,0.0022
2818.00,0.0022
2817.00,0.0021
2816.00,0.0021
2815.00,0.0021
2814.00,0.0021
2813.00,0.0021
2812.00,0.0020
2811.00,0.0020
2810.00,0.0020
2809.00,0.0020
2808.00,0.0020
2807.00,0.0020
2806.00,0.0020
2805.00,0.0020
2804.00,0.0019
2803.00,0.0019
2802.00,0.0019
2801.00,0.0019
2800.00,0.0019
2799.00,0.0018
2798.00,0.0018
2797.00,0.0018
2796.00,0.0018
2795.00,0.0018
2794.00,0.0018
2793.00,0.0018
2792.00,0.0017
2791.00,0.0017
2790.00,0.0017
2789.00,0.0017
2788.00,0.0017
2787.00,0.0017
2786.00,0.0016
2785.00,0.0016
2784.00,0.0016
2783.00,0.0016
2782.00,0.0016
2781.00,0.0016
2780.00,0.0017
2779.00,0.0017
2778.00,0.0016
2777.00,0.0016
2776.00,0.0016
2775.00,0.0016
2774.00,0.0016
2773.00,0.0016
2772.00,0.0015
2771.00,0.0015
2770.00,0.0015
2769.00,0.0015
2768.00,0.0015
2767.00,0.0015
2766.00,0.0015
2765.00,0.0015
2764.00,0.0015
2763.00,0.0015
2762.00,0.0015
2761.00,0.0015
2760.00,0.0015
2759.00,0.0015
2758.00,0.0014
2757.00,0.0014
2756.00,0.0015
2755.00,0.0015
2754.00,0.0014
2753.00,0.0014
2752.00,0.0014
2751.00,0.0014
2750.00,0.0014
2749.00,0.0014
2748.00,0.0014
2747.00,0.0014
2746.00,0.0014
2745.00,0.0014
2744.00,0.0014
2743.00,0.0014
2742.00,0.0014
2741.00,0.0014
2740.00,0.0014
2739.00,0.0014
2738.00,0.0014
2737.00,0.0014
2736.00,0.0014
2735.00,0.0014
2734.00,0.0014
2733.00,0.0014
2732.00,0.0014
2731.00,0.0014
2730.00,0.0014
2729.00,0.0014
2728.00,0.0014
2727.00,0.0014
2726.00,0.0014
2725.00,0.0014
2724.00,0.0014
2723.00,0.0014
2722.00,0.0014
2721.00,0.0014
2720.00,0.0014
2719.00,0.0014
2718.00,0.0014
2717.00,0.0014
2716.00,0.0014
2715.00,0.0014
2714.00,0.0014
2713.00,0.0014
2712.00,0.0014
2711.00,0.0014
2710.00,0.0014
2709.00,0.0014
2708.00,0.0014
2707.00,0.0014
2706.00,0.0014
2705.00,0.0014
2704.00,0.0014
2703.00,0.0014
2702.00,0.0014
2701.00,0.0014
2700.00,0.0014
2699.00,0.0014
2698.00,0.0014
2697.00,0.0014
2696.00,0.0014
2695.00,0.0014
2694.00,0.0014
2693.00,0.0014
2692.00,0.0014
2691.00,0.0014
2690.00,0.0014
2689.00,0.0014
2688.00,0.0014
2687.00,0.0014
2686.00,0.0014
2685.00,0.0014
2684.00,0.0014
2683.00,0.0014
2682.00,0.0014
2681.00,0.0014
2680.00,0.0014
2679.00,0.0014
2678.00,0.0014
2677.00,0.0014
2676.00,0.0014
2675.00,0.0014
2674.00,0.0014
2673.00,0.0014
2672.00,0.0014
2671.00,0.0014
2670.00,0.0014
2669.00,0.0014
2668.00,0.0014
2667.00,0.0014
2666.00,0.0014
2665.00,0.0014
2664.00,0.0015
2663.00,0.0015
2662.00,0.0015
2661.00,0.0016
2660.00,0.0016
2659.00,0.0016
2658.00,0.0016
2657.00,0.0017
2656.00,0.0017
2655.00,0.0017
2654.00,0.0017
2653.00,0.0017
2652.00,0.0017
2651.00,0.0017
2650.00,0.0017
2649.00,0.0017
2648.00,0.0017
2647.00,0.0017
2646.00,0.0017
2645.00,0.0017
2644.00,0.0017
2643.00,0.0017
2642.00,0.0017
2641.00,0.0017
2640.00,0.0017
2639.00,0.0017
2638.00,0.0017
2637.00,0.0017
2636.00,0.0017
2635.00,0.0017
2634.00,0.0017
2633.00,0.0017
2632.00,0.0017
2631.00,0.0017
2630.00,0.0017
2629.00,0.0017
2628.00,0.0017
2627.00,0.0016
2626.00,0.0016
2625.00,0.0016
2624.00,0.0016
2623.00,0.0016
2622.00,0.0016
2621.00,0.0016
2620.00,0.0015
2619.00,0.0015
2618.00,0.0015
2617.00,0.0015
2616.00,0.0015
2615.00,0.0015
2614.00,0.0015
2613.00,0.0015
2612.00,0.0015
2611.00,0.0014
2610.00,0.0014
2609.00,0.0015
2608.00,0.0015
2607.00,0.0015
2606.00,0.0015
2605.00,0.0015
2604.00,0.0015
2603.00,0.0015
2602.00,0.0015
2601.00,0.0015
2600.00,0.0015
2599.00,0.0015
2598.00,0.0015
2597.00,0.0014
2596.00,0.0014
2595.00,0.0014
2594.00,0.0014
2593.00,0.0013
2592.00,0.0014
2591.00,0.0014
2590.00,0.0014
2589.00,0.0014
2588.00,0.0014
2587.00,0.0014
2586.00,0.0013
2585.00,0.0013
2584.00,0.0013
2583.00,0.0013
2582.00,0.0013
2581.00,0.0013
2580.00,0.0013
2579.00,0.0012
2578.00,0.0012
2577.00,0.0012
2576.00,0.0012
2575.00,0.0012
2574.00,0.0013
2573.00,0.0013
2572.00,0.0013
2571.00,0.0013
2570.00,0.0012
2569.00,0.0012
2568.00,0.0012
2567.00,0.0012
2566.00,0.0012
2565.00,0.0012
2564.00,0.0011
2563.00,0.0011
2562.00,0.0011
2561.00,0.0011
2560.00,0.0011
2559.00,0.0011
2558.00,0.0011
2557.00,0.0011
2556.00,0.0011
2555.00,0.0011
2554.00,0.0010
2553.00,0.0010
2552.00,0.0011
2551.00,0.0011
2550.00,0.0011
2549.00,0.0011
2548.00,0.0011
2547.00,0.0011
2546.00,0.0011
2545.00,0.0010
2544.00,0.0010
2543.00,0.0010
2542.00,0.0011
2541.00,0.0011
2540.00,0.0011
2539.00,0.0010
2538.00,0.0010
2537.00,0.0010
2536.00,0.0010
2535.00,0.0010
2534.00,0.0010
2533.00,0.0010
2532.00,0.0010
2531.00,0.0010
2530.00,0.0010
2529.00,0.0010
2528.00,0.0010
2527.00,0.0010
2526.00,0.0011
2525.00,0.0011
2524.00,0.0010
2523.00,0.0010
2522.00,0.0010
2521.00,0.0010
2520.00,0.0010
2519.00,0.0010
2518.00,0.0010
2517.00,0.0010
2516.00,0.0010
2515.00,0.0010
2514.00,0.0010
2513.00,0.0009
2512.00,0.0009
2511.00,0.0009
2510.00,0.0010
2509.00,0.0010
2508.00,0.0010
2507.00,0.0010
2506.00,0.0010
2505.00,0.0010
2504.00,0.0010
2503.00,0.0010
2502.00,0.0010
2501.00,0.0009
2500.00,0.0009
2499.00,0.0009
2498.00,0.0009
2497.00,0.0009
2496.00,0.0010
2495.00,0.0010
2494.00,0.0010
2493.00,0.0010
2492.00,0.0009
2491.00,0.0009
2490.00,0.0009
2489.00,0.0009
2488.00,0.0009
2487.00,0.0009
2486.00,0.0009
2485.00,0.0009
2484.00,0.0008
2483.00,0.0008
2482.00,0.0008
2481.00,0.0008
2480.00,0.0008
2479.00,0.0008
2478.00,0.0008
2477.00,0.0008
2476.00,0.0007
2475.00,0.0008
2474.00,0.0008
2473.00,0.0008
2472.00,0.0008
2471.00,0.0008
2470.00,0.0008
2469.00,0.0009
2468.00,0.0009
2467.00,0.0009
2466.00,0.0009
2465.00,0.0009
2464.00,0.0009
2463.00,0.0008
2462.00,0.0009
2461.00,0.0009
2460.00,0.0010
2459.00,0.0010
2458.00,0.0010
2457.00,0.0010
2456.00,0.0010
2455.00,0.0010
2454.00,0.0009
2453.00,0.0009
2452.00,0.0009
2451.00,0.0009
2450.00,0.0009
2449.00,0.0009
2448.00,0.0008
2447.00,0.0008
2446.00,0.0008
2445.00,0.0008
2444.00,0.0008
2443.00,0.0008
2442.00,0.0008
2441.00,0.0008
2440.00,0.0008
2439.00,0.0008
2438.00,0.0008
2437.00,0.0008
2436.00,0.0007
2435.00,0.0007
2434.00,0.0007
2433.00,0.0007
2432.00,0.0007
2431.00,0.0007
2430.00,0.0007
2429.00,0.0007
2428.00,0.0007
2427.00,0.0006
2426.00,0.0006
2425.00,0.0006
2424.00,0.0006
2423.00,0.0006
2422.00,0.0007
2421.00,0.0007
2420.00,0.0006
2419.00,0.0006
2418.00,0.0006
2417.00,0.0006
2416.00,0.0006
2415.00,0.0007
2414.00,0.0007
2413.00,0.0007
2412.00,0.0007
2411.00,0.0007
2410.00,0.0007
2409.00,0.0006
2408.00,0.0006
2407.00,0.0005
2406.00,0.0005
2405.00,0.0005
2404.00,0.0004
2403.00,0.0005
2402.00,0.0005
2401.00,0.0005
2400.00,0.0005
2399.00,0.0004
2398.00,0.0004
2397.00,0.0004
2396.00,0.0005
2395.00,0.0005
2394.00,0.0005
2393.00,0.0005
2392.00,0.0004
2391.00,0.0004
2390.00,0.0004
2389.00,0.0004
2388.00,0.0004
2387.00,0.0004
2386.00,0.0004
2385.00,0.0004
2384.00,0.0004
2383.00,0.0004
2382.00,0.0004
2381.00,0.0004
2380.00,0.0004
2379.00,0.0004
2378.00,0.0004
2377.00,0.0005
2376.00,0.0005
2375.00,0.0005
2374.00,0.0005
2373.00,0.0004
2372.00,0.0004
2371.00,0.0003
2370.00,0.0003
2369.00,0.0003
2368.00,0.0003
2367.00,0.0003
2366.00,0.0003
2365.00,0.0004
2364.00,0.0005
2363.00,0.0005
2362.00,0.0006
2361.00,0.0006
2360.00,0.0006
2359.00,0.0006
2358.00,0.0006
2357.00,0.0006
2356.00,0.0006
2355.00,0.0006
2354.00,0.0006
2353.00,0.0006
2352.00,0.0006
2351.00,0.0006
2350.00,0.0006
2349.00,0.0007
2348.00,0.0007
2347.00,0.0008
2346.00,0.0009
2345.00,0.0010
2344.00,0.0010
2343.00,0.0010
2342.00,0.0010
2341.00,0.0010
2340.00,0.0010
2339.00,0.0010
2338.00,0.0010
2337.00,0.0009
2336.00,0.0009
2335.00,0.0009
2334.00,0.0009
2333.00,0.0009
2332.00,0.0009
2331.00,0.0010
2330.00,0.0010
2329.00,0.0010
2328.00,0.0012
2327.00,0.0014
2326.00,0.0016
2325.00,0.0017
2324.00,0.0017
2323.00,0.0016
2322.00,0.0015
2321.00,0.0014
2320.00,0.0014
2319.00,0.0013
2318.00,0.0013
2317.00,0.0012
2316.00,0.0012
2315.00,0.0011
2314.00,0.0011
2313.00,0.0011
2312.00,0.0011
2311.00,0.0011
2310.00,0.0011
2309.00,0.0011
2308.00,0.0010
2307.00,0.0010
2306.00,0.0010
2305.00,0.0010
2304.00,0.0010
2303.00,0.0009
2302.00,0.0009
2301.00,0.0009
2300.00,0.0009
2299.00,0.0009
2298.00,0.0010
2297.00,0.0010
2296.00,0.0011
2295.00,0.0011
2294.00,0.0012
2293.00,0.0013
2292.00,0.0013
2291.00,0.0014
2290.00,0.0014
2289.00,0.0015
2288.00,0.0015
2287.00,0.0015
2286.00,0.0015
2285.00,0.0015
2284.00,0.0014
2283.00,0.0013
2282.00,0.0012
2281.00,0.0011
2280.00,0.0011
2279.00,0.0011
2278.00,0.0011
2277.00,0.0012
2276.00,0.0012
2275.00,0.0011
2274.00,0.0011
2273.00,0.0010
2272.00,0.0010
2271.00,0.0010
2270.00,0.0010
2269.00,0.0010
2268.00,0.0010
2267.00,0.0010
2266.00,0.0009
2265.00,0.0008
2264.00,0.0008
2263.00,0.0008
2262.00,0.0009
2261.00,0.0010
2260.00,0.0010
2259.00,0.0010
2258.00,0.0010
2257.00,0.0010
2256.00,0.0009
2255.00,0.0008
2254.00,0.0007
2253.00,0.0007
2252.00,0.0007
2251.00,0.0007
2250.00,0.0007
2249.00,0.0006
2248.00,0.0006
2247.00,0.0007
2246.00,0.0007
2245.00,0.0008
2244.00,0.0009
2243.00,0.0009
2242.00,0.0009
2241.00,0.0008
2240.00,0.0008
2239.00,0.0007
2238.00,0.0007
2237.00,0.0007
2236.00,0.0007
2235.00,0.0008
2234.00,0.0008
2233.00,0.0008
2232.00,0.0008
2231.00,0.0008
2230.00,0.0007
2229.00,0.0007
2228.00,0.0007
2227.00,0.0007
2226.00,0.0008
2225.00,0.0008
2224.00,0.0008
2223.00,0.0009
2222.00,0.0009
2221.00,0.0009
2220.00,0.0009
2219.00,0.0009
2218.00,0.0008
2217.00,0.0007
2216.00,0.0007
2215.00,0.0007
2214.00,0.0007
2213.00,0.0007
2212.00,0.0007
2211.00,0.0008
2210.00,0.0008
2209.00,0.0008
2208.00,0.0008
2207.00,0.0008
2206.00,0.0007
2205.00,0.0006
2204.00,0.0006
2203.00,0.0007
2202.00,0.0008
2201.00,0.0008
2200.00,0.0008
2199.00,0.0008
2198.00,0.0008
2197.00,0.0007
2196.00,0.0007
2195.00,0.0008
2194.00,0.0008
2193.00,0.0009
2192.00,0.0010
2191.00,0.0010
2190.00,0.0010
2189.00,0.0009
2188.00,0.0009
2187.00,0.0009
2186.00,0.0010
2185.00,0.0009
2184.00,0.0007
2183.00,0.0006
2182.00,0.0005
2181.00,0.0004
2180.00,0.0003
2179.00,0.0003
2178.00,0.0003
2177.00,0.0002
2176.00,0.0002
2175.00,0.0003
2174.00,0.0004
2173.00,0.0006
2172.00,0.0007
2171.00,0.0009
2170.00,0.0011
2169.00,0.0012
2168.00,0.0013
2167.00,0.0014
2166.00,0.0014
2165.00,0.0015
2164.00,0.0015
2163.00,0.0015
2162.00,0.0012
2161.00,0.0004
2160.00,-0.0005
2159.00,-0.0013
2158.00,-0.0016
2157.00,-0.0016
2156.00,-0.0014
2155.00,-0.0011
2154.00,-0.0010
2153.00,-0.0008
2152.00,-0.0007
2151.00,-0.0006
2150.00,-0.0006
2149.00,-0.0006
2148.00,-0.0007
2147.00,-0.0007
2146.00,-0.0006
2145.00,-0.0006
2144.00,-0.0005
2143.00,-0.0004
2142.00,-0.0003
2141.00,-0.0003
2140.00,-0.0004
2139.00,-0.0004
2138.00,-0.0004
2137.00,-0.0006
2136.00,-0.0007
2135.00,-0.0009
2134.00,-0.0010
2133.00,-0.0010
2132.00,-0.0010
2131.00,-0.0009
2130.00,-0.0008
2129.00,-0.0006
2128.00,-0.0005
2127.00,-0.0004
2126.00,-0.0002
2125.00,-0.0002
2124.00,-0.0001
2123.00,-0.0001
2122.00,-0.0001
2121.00,-0.0000
2120.00,0.0001
2119.00,0.0002
2118.00,0.0004
2117.00,0.0005
2116.00,0.0006
2115.00,0.0007
2114.00,0.0007
2113.00,0.0006
2112.00,0.0005
2111.00,0.0004
2110.00,0.0004
2109.00,0.0003
2108.00,0.0004
2107.00,0.0004
2106.00,0.0004
2105.00,0.0004
2104.00,0.0004
2103.00,0.0005
2102.00,0.0005
2101.00,0.0006
2100.00,0.0005
2099.00,0.0005
2098.00,0.0004
2097.00,0.0003
2096.00,0.0002
2095.00,0.0002
2094.00,0.0001
2093.00,0.0001
2092.00,0.0001
2091.00,0.0001
2090.00,0.0002
2089.00,0.0003
2088.00,0.0004
2087.00,0.0005
2086.00,0.0005
2085.00,0.0006
2084.00,0.0006
2083.00,0.0007
2082.00,0.0007
2081.00,0.0006
2080.00,0.0006
2079.00,0.0006
2078.00,0.0006
2077.00,0.0007
2076.00,0.0007
2075.00,0.0007
2074.00,0.0007
2073.00,0.0007
2072.00,0.0007
2071.00,0.0007
2070.00,0.0006
2069.00,0.0005
2068.00,0.0004
2067.00,0.0003
2066.00,0.0003
2065.00,0.0003
2064.00,0.0003
2063.00,0.0004
2062.00,0.0004
2061.00,0.0003
2060.00,0.0003
2059.00,0.0003
2058.00,0.0004
2057.00,0.0005
2056.00,0.0005
2055.00,0.0006
2054.00,0.0007
2053.00,0.0009
2052.00,0.0012
2051.00,0.0012
2050.00,0.0010
2049.00,0.0008
2048.00,0.0007
2047.00,0.0007
2046.00,0.0009
2045.00,0.0009
2044.00,0.0010
2043.00,0.0010
2042.00,0.0009
2041.00,0.0008
2040.00,0.0007
2039.00,0.0006
2038.00,0.0006
2037.00,0.0005
2036.00,0.0004
2035.00,0.0002
2034.00,-0.0000
2033.00,-0.0002
2032.00,-0.0002
2031.00,-0.0001
2030.00,0.0001
2029.00,0.0003
2028.00,0.0002
2027.00,0.0001
2026.00,-0.0001
2025.00,-0.0002
2024.00,-0.0002
2023.00,0.0001
2022.00,0.0003
2021.00,0.0003
2020.00,0.0003
2019.00,0.0002
2018.00,0.0002
2017.00,0.0003
2016.00,0.0004
2015.00,0.0005
2014.00,0.0005
2013.00,0.0004
2012.00,0.0003
2011.00,0.0003
2010.00,0.0003
2009.00,0.0002
2008.00,0.0000
2007.00,-0.0001
2006.00,-0.0003
2005.00,-0.0004
2004.00,-0.0003
2003.00,-0.0002
2002.00,-0.0001
2001.00,-0.0000
2000.00,0.0000
1999.00,0.0001
1998.00,0.0001
1997.00,0.0002
1996.00,0.0002
1995.00,0.0002
1994.00,0.0003
1993.00,0.0004
1992.00,0.0005
1991.00,0.0006
1990.00,0.0006
1989.00,0.0006
1988.00,0.0006
1987.00,0.0007
1986.00,0.0007
1985.00,0.0008
1984.00,0.0010
1983.00,0.0013
1982.00,0.0016
1981.00,0.0018
1980.00,0.0017
1979.00,0.0013
1978.00,0.0007
1977.00,0.0002
1976.00,-0.0001
1975.00,-0.0002
1974.00,-0.0002
1973.00,-0.0002
1972.00,-0.0001
1971.00,0.0000
1970.00,0.0001
1969.00,0.0001
1968.00,0.0000
1967.00,0.0000
1966.00,0.0000
1965.00,0.0001
1964.00,0.0002
1963.00,0.0003
1962.00,0.0003
1961.00,0.0002
1960.00,0.0001
1959.00,0.0000
1958.00,0.0000
1957.00,0.0001
1956.00,0.0003
1955.00,0.0004
1954.00,0.0005
1953.00,0.0006
1952.00,0.0007
1951.00,0.0009
1950.00,0.0010
1949.00,0.0011
1948.00,0.0012
1947.00,0.0013
1946.00,0.0013
1945.00,0.0013
1944.00,0.0013
1943.00,0.0013
1942.00,0.0012
1941.00,0.0012
1940.00,0.0012
1939.00,0.0011
1938.00,0.0011
1937.00,0.0011
1936.00,0.0010
1935.00,0.0009
1934.00,0.0008
1933.00,0.0006
1932.00,0.0005
1931.00,0.0004
1930.00,0.0003
1929.00,0.0003
1928.00,0.0002
1927.00,0.0002
1926.00,0.0002
1925.00,0.0002
1924.00,0.0002
1923.00,0.0003
1922.00,0.0004
1921.00,0.0004
1920.00,0.0003
1919.00,0.0003
1918.00,0.0003
1917.00,0.0003
1916.00,0.0002
1915.00,0.0002
1914.00,0.0003
1913.00,0.0003
1912.00,0.0003
1911.00,0.0003
1910.00,0.0003
1909.00,0.0003
1908.00,0.0003
1907.00,0.0003
1906.00,0.0004
1905.00,0.0004
1904.00,0.0003
1903.00,0.0003
1902.00,0.0003
1901.00,0.0003
1900.00,0.0003
1899.00,0.0004
1898.00,0.0005
1897.00,0.0005
1896.00,0.0006
1895.00,0.0007
1894.00,0.0007
1893.00,0.0007
1892.00,0.0007
1891.00,0.0007
1890.00,0.0008
1889.00,0.0008
1888.00,0.0009
1887.00,0.0010
1886.00,0.0010
1885.00,0.0010
1884.00,0.0011
1883.00,0.0012
1882.00,0.0012
1881.00,0.0013
1880.00,0.0013
1879.00,0.0013
1878.00,0.0013
1877.00,0.0013
1876.00,0.0013
1875.00,0.0014
1874.00,0.0014
1873.00,0.0015
1872.00,0.0015
1871.00,0.0014
1870.00,0.0014
1869.00,0.0013
1868.00,0.0013
1867.00,0.0013
1866.00,0.0013
1865.00,0.0013
1864.00,0.0012
1863.00,0.0012
1862.00,0.0011
1861.00,0.0011
1860.00,0.0010
1859.00,0.0009
1858.00,0.0009
1857.00,0.0008
1856.00,0.0008
1855.00,0.0007
1854.00,0.0007
1853.00,0.0006
1852.00,0.0006
1851.00,0.0005
1850.00,0.0004
1849.00,0.0004
1848.00,0.0004
1847.00,0.0003
1846.00,0.0003
1845.00,0.0003
1844.00,0.0004
1843.00,0.0004
1842.00,0.0004
1841.00,0.0004
1840.00,0.0004
1839.00,0.0004
1838.00,0.0004
1837.00,0.0004
1836.00,0.0005
1835.00,0.0005
1834.00,0.0005
1833.00,0.0005
1832.00,0.0005
1831.00,0.0005
1830.00,0.0006
1829.00,0.0007
1828.00,0.0007
1827.00,0.0007
1826.00,0.0008
1825.00,0.0008
1824.00,0.0009
1823.00,0.0010
1822.00,0.0010
1821.00,0.0010
1820.00,0.0010
1819.00,0.0010
1818.00,0.0010
1817.00,0.0010
1816.00,0.0011
1815.00,0.0012
1814.00,0.0012
1813.00,0.0013
1812.00,0.0014
1811.00,0.0014
1810.00,0.0016
1809.00,0.0016
1808.00,0.0017
1807.00,0.0017
1806.00,0.0018
1805.00,0.0018
1804.00,0.0019
1803.00,0.0019
1802.00,0.0020
1801.00,0.0020
1800.00,0.0020
1799.00,0.0019
1798.00,0.0019
1797.00,0.0019
1796.00,0.0018
1795.00,0.0018
1794.00,0.0017
1793.00,0.0016
1792.00,0.0016
1791.00,0.0015
1790.00,0.0015
1789.00,0.0014
1788.00,0.0014
1787.00,0.0014
1786.00,0.0014
1785.00,0.0014
1784.00,0.0015
1783.00,0.0015
1782.00,0.0015
1781.00,0.0015
1780.00,0.0015
1779.00,0.0015
1778.00,0.0015
1777.00,0.0015
1776.00,0.0016
1775.00,0.0016
1774.00,0.0016
1773.00,0.0017
1772.00,0.0017
1771.00,0.0018
1770.00,0.0018
1769.00,0.0018
1768.00,0.0019
1767.00,0.0020
1766.00,0.0020
1765.00,0.0021
1764.00,0.0021
1763.00,0.0022
1762.00,0.0023
1761.00,0.0024
1760.00,0.0026
1759.00,0.0027
1758.00,0.0028
1757.00,0.0030
1756.00,0.0033
1755.00,0.0035
1754.00,0.0037
1753.00,0.0039
1752.00,0.0042
1751.00,0.0045
1750.00,0.0047
1749.00,0.0049
1748.00,0.0051
1747.00,0.0054
1746.00,0.0056
1745.00,0.0058
1744.00,0.0060
1743.00,0.0062
1742.00,0.0062
1741.00,0.0062
1740.00,0.0062
1739.00,0.0062
1738.00,0.0062
1737.00,0.0062
1736.00,0.0062
1735.00,0.0061
1734.00,0.0059
1733.00,0.0058
1732.00,0.0056
1731.00,0.0055
1730.00,0.0055
1729.00,0.0054
1728.00,0.0053
1727.00,0.0051
1726.00,0.0050
1725.00,0.0049
1724.00,0.0048
1723.00,0.0048
1722.00,0.0047
1721.00,0.0046
1720.00,0.0045
1719.00,0.0044
1718.00,0.0043
1717.00,0.0042
1716.00,0.0042
1715.00,0.0041
1714.00,0.0041
1713.00,0.0041
1712.00,0.0041
1711.00,0.0041
1710.00,0.0041
1709.00,0.0041
1708.00,0.0041
1707.00,0.0041
1706.00,0.0041
1705.00,0.0041
1704.00,0.0041
1703.00,0.0041
1702.00,0.0042
1701.00,0.0042
1700.00,0.0043
1699.00,0.0043
1698.00,0.0043
1697.00,0.0043
1696.00,0.0044
1695.00,0.0046
1694.00,0.0047
1693.00,0.0048
1692.00,0.0049
1691.00,0.0050
1690.00,0.0052
1689.00,0.0053
1688.00,0.0054
1687.00,0.0055
1686.00,0.0056
1685.00,0.0057
1684.00,0.0058
1683.00,0.0059
1682.00,0.0061
1681.00,0.0062
1680.00,0.0063
1679.00,0.0064
1678.00,0.0065
1677.00,0.0066
1676.00,0.0066
1675.00,0.0067
1674.00,0.0068
1673.00,0.0068
1672.00,0.0069
1671.00,0.0069
1670.00,0.0070
1669.00,0.0070
1668.00,0.0071
1667.00,0.0071
1666.00,0.0072
1665.00,0.0072
1664.00,0.0073
1663.00,0.0073
1662.00,0.0073
1661.00,0.0074
1660.00,0.0074
1659.00,0.0074
1658.00,0.0074
1657.00,0.0075
1656.00,0.0075
1655.00,0.0074
1654.00,0.0073
1653.00,0.0072
1652.00,0.0071
1651.00,0.0070
1650.00,0.0070
1649.00,0.0070
1648.00,0.0069
1647.00,0.0068
1646.00,0.0067
1645.00,0.0066
1644.00,0.0066
1643.00,0.0066
1642.00,0.0066
1641.00,0.0065
1640.00,0.0065
1639.00,0.0064
1638.00,0.0063
1637.00,0.0062
1636.00,0.0061
1635.00,0.0060
1634.00,0.0059
1633.00,0.0059
1632.00,0.0058
1631.00,0.0058
1630.00,0.0058
1629.00,0.0058
1628.00,0.0057
1627.00,0.0057
1626.00,0.0056
1625.00,0.0056
1624.00,0.0055
1623.00,0.0055
1622.00,0.0054
1621.00,0.0054
1620.00,0.0054
1619.00,0.0054
1618.00,0.0053
1617.00,0.0053
1616.00,0.0053
1615.00,0.0053
1614.00,0.0054
1613.00,0.0055
1612.00,0.0056
1611.00,0.0059
1610.00,0.0062
1609.00,0.0067
1608.00,0.0073
1607.00,0.0081
1606.00,0.0092
1605.00,0.0103
1604.00,0.0115
1603.00,0.0127
1602.00,0.0135
1601.00,0.0139
1600.00,0.0137
1599.00,0.0130
1598.00,0.0120
1597.00,0.0108
1596.00,0.0097
1595.00,0.0088
1594.00,0.0081
1593.00,0.0075
1592.00,0.0070
1591.00,0.0067
1590.00,0.0064
1589.00,0.0063
1588.00,0.0063
1587.00,0.0064
1586.00,0.0067
1585.00,0.0071
1584.00,0.0075
1583.00,0.0076
1582.00,0.0075
1581.00,0.0071
1580.00,0.0066
1579.00,0.0061
1578.00,0.0057
1577.00,0.0053
1576.00,0.0051
1575.00,0.0049
1574.00,0.0048
1573.00,0.0048
1572.00,0.0047
1571.00,0.0047
1570.00,0.0047
1569.00,0.0047
1568.00,0.0046
1567.00,0.0046
1566.00,0.0046
1565.00,0.0047
1564.00,0.0047
1563.00,0.0048
1562.00,0.0048
1561.00,0.0048
1560.00,0.0048
1559.00,0.0048
1558.00,0.0049
1557.00,0.0050
1556.00,0.0051
1555.00,0.0051
1554.00,0.0053
1553.00,0.0053
1552.00,0.0054
1551.00,0.0054
1550.00,0.0055
1549.00,0.0056
1548.00,0.0056
1547.00,0.0056
1546.00,0.0057
1545.00,0.0057
1544.00,0.0057
1543.00,0.0057
1542.00,0.0056
1541.00,0.0055
1540.00,0.0054
1539.00,0.0053
1538.00,0.0053
1537.00,0.0052
1536.00,0.0052
1535.00,0.0052
1534.00,0.0051
1533.00,0.0051
1532.00,0.0050
1531.00,0.0049
1530.00,0.0049
1529.00,0.0048
1528.00,0.0047
1527.00,0.0047
1526.00,0.0047
1525.00,0.0046
1524.00,0.0045
1523.00,0.0045
1522.00,0.0044
1521.00,0.0044
1520.00,0.0044
1519.00,0.0044
1518.00,0.0044
1517.00,0.0044
1516.00,0.0044
1515.00,0.0044
1514.00,0.0044
1513.00,0.0043
1512.00,0.0043
1511.00,0.0044
1510.00,0.0044
1509.00,0.0044
1508.00,0.0044
1507.00,0.0044
1506.00,0.0045
1505.00,0.0046
1504.00,0.0047
1503.00,0.0050
1502.00,0.0054
1501.00,0.0060
1500.00,0.0068
1499.00,0.0080
1498.00,0.0100
1497.00,0.0131
1496.00,0.0171
1495.00,0.0216
1494.00,0.0255
1493.00,0.0281
1492.00,0.0287
1491.00,0.0269
1490.00,0.0232
1489.00,0.0190
1488.00,0.0154
1487.00,0.0127
1486.00,0.0108
1485.00,0.0093
1484.00,0.0082
1483.00,0.0073
1482.00,0.0066
1481.00,0.0060
1480.00,0.0057
1479.00,0.0054
1478.00,0.0053
1477.00,0.0052
1476.00,0.0052
1475.00,0.0052
1474.00,0.0052
1473.00,0.0053
1472.00,0.0054
1471.00,0.0056
1470.00,0.0058
1469.00,0.0060
1468.00,0.0061
1467.00,0.0063
1466.00,0.0065
1465.00,0.0066
1464.00,0.0068
1463.00,0.0070
1462.00,0.0072
1461.00,0.0076
1460.00,0.0081
1459.00,0.0089
1458.00,0.0106
1457.00,0.0133
1456.00,0.0171
1455.00,0.0211
1454.00,0.0248
1453.00,0.0278
1452.00,0.0296
1451.00,0.0297
1450.00,0.0285
1449.00,0.0266
1448.00,0.0245
1447.00,0.0225
1446.00,0.0209
1445.00,0.0196
1444.00,0.0184
1443.00,0.0171
1442.00,0.0160
1441.00,0.0149
1440.00,0.0140
1439.00,0.0132
1438.00,0.0124
1437.00,0.0115
1436.00,0.0105
1435.00,0.0097
1434.00,0.0090
1433.00,0.0085
1432.00,0.0080
1431.00,0.0075
1430.00,0.0072
1429.00,0.0069
1428.00,0.0066
1427.00,0.0065
1426.00,0.0064
1425.00,0.0063
1424.00,0.0063
1423.00,0.0062
1422.00,0.0062
1421.00,0.0061
1420.00,0.0061
1419.00,0.0061
1418.00,0.0061
1417.00,0.0061
1416.00,0.0060
1415.00,0.0060
1414.00,0.0060
1413.00,0.0059
1412.00,0.0059
1411.00,0.0059
1410.00,0.0059
1409.00,0.0059
1408.00,0.0059
1407.00,0.0059
1406.00,0.0059
1405.00,0.0059
1404.00,0.0059
1403.00,0.0059
1402.00,0.0059
1401.00,0.0059
1400.00,0.0059
1399.00,0.0060
1398.00,0.0060
1397.00,0.0061
1396.00,0.0061
1395.00,0.0062
1394.00,0.0063
1393.00,0.0064
1392.00,0.0065
1391.00,0.0066
1390.00,0.0068
1389.00,0.0070
1388.00,0.0072
1387.00,0.0074
1386.00,0.0076
1385.00,0.0077
1384.00,0.0079
1383.00,0.0081
1382.00,0.0082
1381.00,0.0084
1380.00,0.0085
1379.00,0.0087
1378.00,0.0089
1377.00,0.0090
1376.00,0.0092
1375.00,0.0093
1374.00,0.0093
1373.00,0.0094
1372.00,0.0093
1371.00,0.0093
1370.00,0.0093
1369.00,0.0092
1368.00,0.0092
1367.00,0.0091
1366.00,0.0091
1365.00,0.0091
1364.00,0.0090
1363.00,0.0089
1362.00,0.0089
1361.00,0.0088
1360.00,0.0087
1359.00,0.0086
1358.00,0.0085
1357.00,0.0084
1356.00,0.0083
1355.00,0.0082
1354.00,0.0082
1353.00,0.0082
1352.00,0.0082
1351.00,0.0081
1350.00,0.0081
1349.00,0.0081
1348.00,0.0080
1347.00,0.0079
1346.00,0.0079
1345.00,0.0078
1344.00,0.0077
1343.00,0.0076
1342.00,0.0075
1341.00,0.0075
1340.00,0.0074
1339.00,0.0073
1338.00,0.0073
1337.00,0.0073
1336.00,0.0074
1335.00,0.0075
1334.00,0.0076
1333.00,0.0077
1332.00,0.0078
1331.00,0.0079
1330.00,0.0080
1329.00,0.0081
1328.00,0.0081
1327.00,0.0081
1326.00,0.0081
1325.00,0.0080
1324.00,0.0080
1323.00,0.0079
1322.00,0.0078
1321.00,0.0078
1320.00,0.0077
1319.00,0.0077
1318.00,0.0078
1317.00,0.0078
1316.00,0.0079
1315.00,0.0079
1314.00,0.0080
1313.00,0.0080
1312.00,0.0080
1311.00,0.0080
1310.00,0.0079
1309.00,0.0079
1308.00,0.0078
1307.00,0.0077
1306.00,0.0076
1305.00,0.0075
1304.00,0.0074
1303.00,0.0074
1302.00,0.0073
1301.00,0.0072
1300.00,0.0072
1299.00,0.0071
1298.00,0.0071
1297.00,0.0071
1296.00,0.0071
1295.00,0.0071
1294.00,0.0071
1293.00,0.0071
1292.00,0.0071
1291.00,0.0071
1290.00,0.0071
1289.00,0.0071
1288.00,0.0070
1287.00,0.0070
1286.00,0.0069
1285.00,0.0069
1284.00,0.0069
1283.00,0.0068
1282.00,0.0068
1281.00,0.0068
1280.00,0.0068
1279.00,0.0067
1278.00,0.0067
1277.00,0.0066
1276.00,0.0066
1275.00,0.0065
1274.00,0.0065
1273.00,0.0064
1272.00,0.0064
1271.00,0.0063
1270.00,0.0063
1269.00,0.0063
1268.00,0.0062
1267.00,0.0062
1266.00,0.0062
1265.00,0.0062
1264.00,0.0062
1263.00,0.0062
1262.00,0.0062
1261.00,0.0062
1260.00,0.0062
1259.00,0.0062
1258.00,0.0062
1257.00,0.0062
1256.00,0.0062
1255.00,0.0062
1254.00,0.0063
1253.00,0.0063
1252.00,0.0063
1251.00,0.0063
1250.00,0.0064
1249.00,0.0064
1248.00,0.0064
1247.00,0.0064
1246.00,0.0065
1245.00,0.0065
1244.00,0.0065
1243.00,0.0065
1242.00,0.0065
1241.00,0.0065
1240.00,0.0065
1239.00,0.0065
1238.00,0.0065
1237.00,0.0065
1236.00,0.0065
1235.00,0.0064
1234.00,0.0064
1233.00,0.0064
1232.00,0.0064
1231.00,0.0064
1230.00,0.0065
1229.00,0.0065
1228.00,0.0065
1227.00,0.0065
1226.00,0.0065
1225.00,0.0065
1224.00,0.0065
1223.00,0.0065
1222.00,0.0064
1221.00,0.0064
1220.00,0.0064
1219.00,0.0064
1218.00,0.0064
1217.00,0.0064
1216.00,0.0064
1215.00,0.0064
1214.00,0.0064
1213.00,0.0065
1212.00,0.0065
1211.00,0.0066
1210.00,0.0067
1209.00,0.0067
1208.00,0.0068
1207.00,0.0068
1206.00,0.0069
1205.00,0.0070
1204.00,0.0071
1203.00,0.0072
1202.00,0.0074
1201.00,0.0075
1200.00,0.0076
1199.00,0.0077
1198.00,0.0078
1197.00,0.0079
1196.00,0.0079
1195.00,0.0080
1194.00,0.0080
1193.00,0.0080
1192.00,0.0081
1191.00,0.0081
1190.00,0.0082
1189.00,0.0083
1188.00,0.0084
1187.00,0.0086
1186.00,0.0088
1185.00,0.0092
1184.00,0.0095
1183.00,0.0098
1182.00,0.0100
1181.00,0.0102
1180.00,0.0101
1179.00,0.0099
1178.00,0.0096
1177.00,0.0092
1176.00,0.0088
1175.00,0.0085
1174.00,0.0083
1173.00,0.0082
1172.00,0.0081
1171.00,0.0080
1170.00,0.0080
1169.00,0.0079
1168.00,0.0079
1167.00,0.0078
1166.00,0.0078
1165.00,0.0078
1164.00,0.0078
1163.00,0.0079
1162.00,0.0080
1161.00,0.0082
1160.00,0.0085
1159.00,0.0089
1158.00,0.0093
1157.00,0.0097
1156.00,0.0101
1155.00,0.0103
1154.00,0.0103
1153.00,0.0101
1152.00,0.0097
1151.00,0.0092
1150.00,0.0087
1149.00,0.0083
1148.00,0.0079
1147.00,0.0076
1146.00,0.0073
1145.00,0.0071
1144.00,0.0069
1143.00,0.0068
1142.00,0.0067
1141.00,0.0066
1140.00,0.0064
1139.00,0.0063
1138.00,0.0063
1137.00,0.0062
1136.00,0.0061
1135.00,0.0061
1134.00,0.0061
1133.00,0.0060
1132.00,0.0060
1131.00,0.0060
1130.00,0.0061
1129.00,0.0061
1128.00,0.0061
1127.00,0.0062
1126.00,0.0062
1125.00,0.0063
1124.00,0.0063
1123.00,0.0064
1122.00,0.0064
1121.00,0.0065
1120.00,0.0066
1119.00,0.0067
1118.00,0.0069
1117.00,0.0071
1116.00,0.0072
1115.00,0.0073
1114.00,0.0074
1113.00,0.0074
1112.00,0.0074
1111.00,0.0074
1110.00,0.0074
1109.00,0.0074
1108.00,0.0074
1107.00,0.0074
1106.00,0.0074
1105.00,0.0074
1104.00,0.0074
1103.00,0.0075
1102.00,0.0075
1101.00,0.0076
1100.00,0.0076
1099.00,0.0076
1098.00,0.0077
1097.00,0.0077
1096.00,0.0078
1095.00,0.0079
1094.00,0.0080
1093.00,0.0080
1092.00,0.0081
1091.00,0.0081
1090.00,0.0081
1089.00,0.0082
1088.00,0.0083
1087.00,0.0084
1086.00,0.0086
1085.00,0.0087
1084.00,0.0089
1083.00,0.0090
1082.00,0.0092
1081.00,0.0094
1080.00,0.0095
1079.00,0.0097
1078.00,0.0100
1077.00,0.0103
1076.00,0.0105
1075.00,0.0109
1074.00,0.0112
1073.00,0.0116
1072.00,0.0119
1071.00,0.0122
1070.00,0.0124
1069.00,0.0125
1068.00,0.0125
1067.00,0.0123
1066.00,0.0122
1065.00,0.0119
1064.00,0.0115
1063.00,0.0112
1062.00,0.0108
1061.00,0.0105
1060.00,0.0101
1059.00,0.0099
1058.00,0.0097
1057.00,0.0095
1056.00,0.0093
1055.00,0.0091
1054.00,0.0090
1053.00,0.0088
1052.00,0.0086
1051.00,0.0085
1050.00,0.0084
1049.00,0.0084
1048.00,0.0083
1047.00,0.0082
1046.00,0.0082
1045.00,0.0082
1044.00,0.0082
1043.00,0.0081
1042.00,0.0081
1041.00,0.0081
1040.00,0.0082
1039.00,0.0083
1038.00,0.0087
1037.00,0.0091
1036.00,0.0098
1035.00,0.0108
1034.00,0.0120
1033.00,0.0133
1032.00,0.0147
1031.00,0.0160
1030.00,0.0171
1029.00,0.0178
1028.00,0.0181
1027.00,0.0180
1026.00,0.0174
1025.00,0.0164
1024.00,0.0154
1023.00,0.0144
1022.00,0.0135
1021.00,0.0128
1020.00,0.0121
1019.00,0.0115
1018.00,0.0111
1017.00,0.0107
1016.00,0.0103
1015.00,0.0100
1014.00,0.0097
1013.00,0.0094
1012.00,0.0092
1011.00,0.0090
1010.00,0.0089
1009.00,0.0088
1008.00,0.0088
1007.00,0.0088
1006.00,0.0089
1005.00,0.0091
1004.00,0.0092
1003.00,0.0092
1002.00,0.0091
1001.00,0.0088
1000.00,0.0084
999.00,0.0079
998.00,0.0076
997.00,0.0074
996.00,0.0072
995.00,0.0071
994.00,0.0071
993.00,0.0071
992.00,0.0071
991.00,0.0071
990.00,0.0072
989.00,0.0073
988.00,0.0073
987.00,0.0074
986.00,0.0076
985.00,0.0077
984.00,0.0078
983.00,0.0079
982.00,0.0080
981.00,0.0081
980.00,0.0081
979.00,0.0080
978.00,0.0080
977.00,0.0079
976.00,0.0077
975.00,0.0076
974.00,0.0075
973.00,0.0074
972.00,0.0074
971.00,0.0075
970.00,0.0076
969.00,0.0078
968.00,0.0080
967.00,0.0081
966.00,0.0083
965.00,0.0084
964.00,0.0084
963.00,0.0083
962.00,0.0081
961.00,0.0079
960.00,0.0076
959.00,0.0073
958.00,0.0071
957.00,0.0069
956.00,0.0067
955.00,0.0065
954.00,0.0064
953.00,0.0063
952.00,0.0063
951.00,0.0063
950.00,0.0063
949.00,0.0064
948.00,0.0065
947.00,0.0065
946.00,0.0066
945.00,0.0067
944.00,0.0068
943.00,0.0068
942.00,0.0068
941.00,0.0067
940.00,0.0066
939.00,0.0064
938.00,0.0063
937.00,0.0062
936.00,0.0060
935.00,0.0058
934.00,0.0057
933.00,0.0056
932.00,0.0054
931.00,0.0053
930.00,0.0053
929.00,0.0053
928.00,0.0053
927.00,0.0052
926.00,0.0052
925.00,0.0052
924.00,0.0053
923.00,0.0053
922.00,0.0055
921.00,0.0056
920.00,0.0057
919.00,0.0059
918.00,0.0062
917.00,0.0065
916.00,0.0069
915.00,0.0073
914.00,0.0078
913.00,0.0084
912.00,0.0091
911.00,0.0097
910.00,0.0103
909.00,0.0109
908.00,0.0113
907.00,0.0115
906.00,0.0116
905.00,0.0115
904.00,0.0111
903.00,0.0105
902.00,0.0099
901.00,0.0091
900.00,0.0083
899.00,0.0076
898.00,0.0070
897.00,0.0065
896.00,0.0061
895.00,0.0057
894.00,0.0055
893.00,0.0054
892.00,0.0052
891.00,0.0051
890.00,0.0050
889.00,0.0048
888.00,0.0046
887.00,0.0045
886.00,0.0044
885.00,0.0044
884.00,0.0042
883.00,0.0042
882.00,0.0041
881.00,0.0041
880.00,0.0041
879.00,0.0041
878.00,0.0042
877.00,0.0042
876.00,0.0042
875.00,0.0041
874.00,0.0041
873.00,0.0041
872.00,0.0040
871.00,0.0039
870.00,0.0039
869.00,0.0039
868.00,0.0038
867.00,0.0038
866.00,0.0038
865.00,0.0038
864.00,0.0038
863.00,0.0038
862.00,0.0038
861.00,0.0038
860.00,0.0038
859.00,0.0038
858.00,0.0039
857.00,0.0039
856.00,0.0039
855.00,0.0040
854.00,0.0041
853.00,0.0042
852.00,0.0043
851.00,0.0045
850.00,0.0047
849.00,0.0050
848.00,0.0053
847.00,0.0056
846.00,0.0059
845.00,0.0062
844.00,0.0063
843.00,0.0065
842.00,0.0066
841.00,0.0065
840.00,0.0064
839.00,0.0062
838.00,0.0060
837.00,0.0058
836.00,0.0054
835.00,0.0051
834.00,0.0048
833.00,0.0046
832.00,0.0043
831.00,0.0042
830.00,0.0041
829.00,0.0040
828.00,0.0039
827.00,0.0038
826.00,0.0038
825.00,0.0038
824.00,0.0037
823.00,0.0037
822.00,0.0037
821.00,0.0037
820.00,0.0037
819.00,0.0037
818.00,0.0037
817.00,0.0037
816.00,0.0037
815.00,0.0038
814.00,0.0039
813.00,0.0040
812.00,0.0040
811.00,0.0039
810.00,0.0040
809.00,0.0040
808.00,0.0040
807.00,0.0040
806.00,0.0040
805.00,0.0040
804.00,0.0040
803.00,0.0041
802.00,0.0043
801.00,0.0044
800.00,0.0045
799.00,0.0046
798.00,0.0047
797.00,0.0048
796.00,0.0049
795.00,0.0050
794.00,0.0052
793.00,0.0055
792.00,0.0057
791.00,0.0059
790.00,0.0061
789.00,0.0064
788.00,0.0066
787.00,0.0069
786.00,0.0073
785.00,0.0077
784.00,0.0082
783.00,0.0086
782.00,0.0092
781.00,0.0098
780.00,0.0104
779.00,0.0110
778.00,0.0119
777.00,0.0129
776.00,0.0139
775.00,0.0150
774.00,0.0163
773.00,0.0177
772.00,0.0192
771.00,0.0207
770.00,0.0224
769.00,0.0241
768.00,0.0257
767.00,0.0274
766.00,0.0290
765.00,0.0306
764.00,0.0321
763.00,0.0336
762.00,0.0352
761.00,0.0368
760.00,0.0384
759.00,0.0398
758.00,0.0411
757.00,0.0421
756.00,0.0427
755.00,0.0430
754.00,0.0431
753.00,0.0430
752.00,0.0428
751.00,0.0427
750.00,0.0426
749.00,0.0425
748.00,0.0422
747.00,0.0417
746.00,0.0408
745.00,0.0393
744.00,0.0371
743.00,0.0345
742.00,0.0317
741.00,0.0290
740.00,0.0263
739.00,0.0239
738.00,0.0217
737.00,0.0196
736.00,0.0176
735.00,0.0158
734.00,0.0140
733.00,0.0125
732.00,0.0110
731.00,0.0099
730.00,0.0090
729.00,0.0083
728.00,0.0078
727.00,0.0075
726.00,0.0072
725.00,0.0071
724.00,0.0069
723.00,0.0068
722.00,0.0069
721.00,0.0069
720.00,0.0069
719.00,0.0069
718.00,0.0070
717.00,0.0073
716.00,0.0075
715.00,0.0079
714.00,0.0086
713.00,0.0095
712.00,0.0108
711.00,0.0126
710.00,0.0152
709.00,0.0185
708.00,0.0226
707.00,0.0275
706.00,0.0334
705.00,0.0402
704.00,0.0476
703.00,0.0557
702.00,0.0645
701.00,0.0735
700.00,0.0826
699.00,0.0916
698.00,0.1002
697.00,0.1079
696.00,0.1135
695.00,0.1161
694.00,0.1147
693.00,0.1089
692.00,0.0997
691.00,0.0886
690.00,0.0775
689.00,0.0675
688.00,0.0589
687.00,0.0520
686.00,0.0465
685.00,0.0421
684.00,0.0384
683.00,0.0353
682.00,0.0329
681.00,0.0307
680.00,0.0287
679.00,0.0270
678.00,0.0256
677.00,0.0243
676.00,0.0232
675.00,0.0222
674.00,0.0214
673.00,0.0207
672.00,0.0200
671.00,0.0195
670.00,0.0192
669.00,0.0186
668.00,0.0178
667.00,0.0169
666.00,0.0164
665.00,0.0159
664.00,0.0155
663.00,0.0150
662.00,0.0145
661.00,0.0141
660.00,0.0135
659.00,0.0129
658.00,0.0125
657.00,0.0122
656.00,0.0117
655.00,0.0113
654.00,0.0110
653.00,0.0107
652.00,0.0103
651.00,0.0100
650.00,0.0098
649.00,0.0096
648.00,0.0093
647.00,0.0091
646.00,0.0089
645.00,0.0088
644.00,0.0086
643.00,0.0085
642.00,0.0085
641.00,0.0086
640.00,0.0085
639.00,0.0085
638.00,0.0087
637.00,0.0088
636.00,0.0090
635.00,0.0091
634.00,0.0094
633.00,0.0096
632.00,0.0098
631.00,0.0099
630.00,0.0101
629.00,0.0103
628.00,0.0103
627.00,0.0103
626.00,0.0104
625.00,0.0106
624.00,0.0107
623.00,0.0108
622.00,0.0110
621.00,0.0111
620.00,0.0111
619.00,0.0109
618.00,0.0107
617.00,0.0103
616.00,0.0100
615.00,0.0097
614.00,0.0096
613.00,0.0095
612.00,0.0093
611.00,0.0092
610.00,0.0092
609.00,0.0092
608.00,0.0091
607.00,0.0090
606.00,0.0090
605.00,0.0090
604.00,0.0089
603.00,0.0089
602.00,0.0091
601.00,0.0092
600.00,0.0092
599.00,0.0093
598.00,0.0095
597.00,0.0096
596.00,0.0096
595.00,0.0096
594.00,0.0098
593.00,0.0099
592.00,0.0100
591.00,0.0100
590.00,0.0102
589.00,0.0103
588.00,0.0104
587.00,0.0105
586.00,0.0108
585.00,0.0111
584.00,0.0112
583.00,0.0113
582.00,0.0116
581.00,0.0119
580.00,0.0121
579.00,0.0124
578.00,0.0129
577.00,0.0134
576.00,0.0139
575.00,0.0144
574.00,0.0152
573.00,0.0159
572.00,0.0164
571.00,0.0170
570.00,0.0177
569.00,0.0183
568.00,0.0187
567.00,0.0191
566.00,0.0197
565.00,0.0204
564.00,0.0210
563.00,0.0215
562.00,0.0222
561.00,0.0227
560.00,0.0230
559.00,0.0234
558.00,0.0240
557.00,0.0247
556.00,0.0254
555.00,0.0260
554.00,0.0268
553.00,0.0276
552.00,0.0282
551.00,0.0290
550.00,0.0299
549.00,0.0308
548.00,0.0316
547.00,0.0327
546.00,0.0341
545.00,0.0356
544.00,0.0370
543.00,0.0384
542.00,0.0399
541.00,0.0411
540.00,0.0419
539.00,0.0424
538.00,0.0427
537.00,0.0426
536.00,0.0418
535.00,0.0406
534.00,0.0392
533.00,0.0374
532.00,0.0353
531.00,0.0332
530.00,0.0313
529.00,0.0296
528.00,0.0278
527.00,0.0261
526.00,0.0245
525.00,0.0231
524.00,0.0216
523.00,0.0204
522.00,0.0196
521.00,0.0188
520.00,0.0180
519.00,0.0173
518.00,0.0169
517.00,0.0164
516.00,0.0159
515.00,0.0155
514.00,0.0155
513.00,0.0153
512.00,0.0147
511.00,0.0141
510.00,0.0138
509.00,0.0135
508.00,0.0130
507.00,0.0125
506.00,0.0122
505.00,0.0119
504.00,0.0114
503.00,0.0111
502.00,0.0112
501.00,0.0112
500.00,0.0110
499.00,0.0107
498.00,0.0106
497.00,0.0105
496.00,0.0101
495.00,0.0098
494.00,0.0099
493.00,0.0099
492.00,0.0097
491.00,0.0095
490.00,0.0095
489.00,0.0096
488.00,0.0095
487.00,0.0095
486.00,0.0098
485.00,0.0101
484.00,0.0100
483.00,0.0098
482.00,0.0097
481.00,0.0096
480.00,0.0093
479.00,0.0089
478.00,0.0088
477.00,0.0088
476.00,0.0085
475.00,0.0084
474.00,0.0086
473.00,0.0088
472.00,0.0086
471.00,0.0086
470.00,0.0090
469.00,0.0093
468.00,0.0091
467.00,0.0088
466.00,0.0087
465.00,0.0086
464.00,0.0082
463.00,0.0080
462.00,0.0082
461.00,0.0084
460.00,0.0082
459.00,0.0080
458.00,0.0082
457.00,0.0084
456.00,0.0082
455.00,0.0080
454.00,0.0082
453.00,0.0081
452.00,0.0076
451.00,0.0073
450.00,0.0075
449.00,0.0079
448.00,0.0079
447.00,0.0079
446.00,0.0081
445.00,0.0082
444.00,0.0079
443.00,0.0077
442.00,0.0077
441.00,0.0074
440.00,0.0068
439.00,0.0065
438.00,0.0068
437.00,0.0070
436.00,0.0067
435.00,0.0065
434.00,0.0070
433.00,0.0075
432.00,0.0072
431.00,0.0068
430.00,0.0068
429.00,0.0065
428.00,0.0057
427.00,0.0051
426.00,0.0053
425.00,0.0057
424.00,0.0057
423.00,0.0061
422.00,0.0072
421.00,0.0081
420.00,0.0081
419.00,0.0080
418.00,0.0083
417.00,0.0081
416.00,0.0069
415.00,0.0058
414.00,0.0057
413.00,0.0058
412.00,0.0054
411.00,0.0055
410.00,0.0064
409.00,0.0068
408.00,0.0056
407.00,0.0043
406.00,0.0042
405.00,0.0045
404.00,0.0041
403.00,0.0037
402.00,0.0043
401.00,0.0044
400.00,0.0034
