Created as New Dataset,Sample 380 By YargerLab Date Sunday, November 16 2025
cm-1,A
4000.00,0.0025
3999.00,0.0025
3998.00,0.0025
3997.00,0.0025
3996.00,0.0025
3995.00,0.0025
3994.00,0.0025
3993.00,0.0025
3992.00,0.0025
3991.00,0.0025
3990.00,0.0025
3989.00,0.0025
3988.00,0.0025
3987.00,0.0025
3986.00,0.0025
3985.00,0.0025
3984.00,0.0025
3983.00,0.0025
3982.00,0.0025
3981.00,0.0025
3980.00,0.0025
3979.00,0.0025
3978.00,0.0025
3977.00,0.0025
3976.00,0.0025
3975.00,0.0025
3974.00,0.0025
3973.00,0.0025
3972.00,0.0025
3971.00,0.0025
3970.00,0.0025
3969.00,0.0025
3968.00,0.0025
3967.00,0.0025
3966.00,0.0025
3965.00,0.0025
3964.00,0.0025
3963.00,0.0025
3962.00,0.0025
3961.00,0.0025
3960.00,0.0025
3959.00,0.0024
3958.00,0.0024
3957.00,0.0024
3956.00,0.0025
3955.00,0.0025
3954.00,0.0025
3953.00,0.0025
3952.00,0.0025
3951.00,0.0025
3950.00,0.0025
3949.00,0.0025
3948.00,0.0025
3947.00,0.0025
3946.00,0.0025
3945.00,0.0024
3944.00,0.0024
3943.00,0.0024
3942.00,0.0024
3941.00,0.0025
3940.00,0.0025
3939.00,0.0025
3938.00,0.0024
3937.00,0.0024
3936.00,0.0024
3935.00,0.0024
3934.00,0.0024
3933.00,0.0024
3932.00,0.0024
3931.00,0.0024
3930.00,0.0024
3929.00,0.0024
3928.00,0.0024
3927.00,0.0024
3926.00,0.0024
3925.00,0.0024
3924.00,0.0024
3923.00,0.0024
3922.00,0.0024
3921.00,0.0024
3920.00,0.0024
3919.00,0.0024
3918.00,0.0024
3917.00,0.0024
3916.00,0.0024
3915.00,0.0024
3914.00,0.0024
3913.00,0.0024
3912.00,0.0024
3911.00,0.0024
3910.00,0.0024
3909.00,0.0024
3908.00,0.0024
3907.00,0.0024
3906.00,0.0024
3905.00,0.0024
3904.00,0.0024
3903.00,0.0023
3902.00,0.0023
3901.00,0.0022
3900.00,0.0022
3899.00,0.0022
3898.00,0.0022
3897.00,0.0022
3896.00,0.0022
3895.00,0.0022
3894.00,0.0023
3893.00,0.0023
3892.00,0.0024
3891.00,0.0024
3890.00,0.0024
3889.00,0.0024
3888.00,0.0023
3887.00,0.0023
3886.00,0.0023
3885.00,0.0023
3884.00,0.0023
3883.00,0.0023
3882.00,0.0023
3881.00,0.0023
3880.00,0.0023
3879.00,0.0023
3878.00,0.0023
3877.00,0.0023
3876.00,0.0022
3875.00,0.0022
3874.00,0.0022
3873.00,0.0022
3872.00,0.0022
3871.00,0.0022
3870.00,0.0022
3869.00,0.0022
3868.00,0.0022
3867.00,0.0022
3866.00,0.0022
3865.00,0.0021
3864.00,0.0022
3863.00,0.0022
3862.00,0.0022
3861.00,0.0022
3860.00,0.0022
3859.00,0.0022
3858.00,0.0023
3857.00,0.0023
3856.00,0.0024
3855.00,0.0023
3854.00,0.0023
3853.00,0.0022
3852.00,0.0022
3851.00,0.0021
3850.00,0.0021
3849.00,0.0021
3848.00,0.0021
3847.00,0.0021
3846.00,0.0021
3845.00,0.0021
3844.00,0.0022
3843.00,0.0022
3842.00,0.0022
3841.00,0.0022
3840.00,0.0022
3839.00,0.0022
3838.00,0.0022
3837.00,0.0022
3836.00,0.0022
3835.00,0.0022
3834.00,0.0022
3833.00,0.0022
3832.00,0.0022
3831.00,0.0022
3830.00,0.0022
3829.00,0.0021
3828.00,0.0021
3827.00,0.0021
3826.00,0.0022
3825.00,0.0022
3824.00,0.0022
3823.00,0.0022
3822.00,0.0022
3821.00,0.0022
3820.00,0.0022
3819.00,0.0022
3818.00,0.0022
3817.00,0.0021
3816.00,0.0021
3815.00,0.0021
3814.00,0.0021
3813.00,0.0022
3812.00,0.0022
3811.00,0.0022
3810.00,0.0022
3809.00,0.0023
3808.00,0.0022
3807.00,0.0022
3806.00,0.0022
3805.00,0.0022
3804.00,0.0021
3803.00,0.0021
3802.00,0.0021
3801.00,0.0021
3800.00,0.0021
3799.00,0.0021
3798.00,0.0021
3797.00,0.0021
3796.00,0.0021
3795.00,0.0021
3794.00,0.0022
3793.00,0.0022
3792.00,0.0022
3791.00,0.0022
3790.00,0.0022
3789.00,0.0022
3788.00,0.0022
3787.00,0.0022
3786.00,0.0022
3785.00,0.0022
3784.00,0.0022
3783.00,0.0022
3782.00,0.0022
3781.00,0.0022
3780.00,0.0022
3779.00,0.0022
3778.00,0.0023
3777.00,0.0023
3776.00,0.0023
3775.00,0.0023
3774.00,0.0023
3773.00,0.0023
3772.00,0.0023
3771.00,0.0022
3770.00,0.0022
3769.00,0.0022
3768.00,0.0022
3767.00,0.0022
3766.00,0.0022
3765.00,0.0022
3764.00,0.0022
3763.00,0.0022
3762.00,0.0022
3761.00,0.0022
3760.00,0.0022
3759.00,0.0022
3758.00,0.0022
3757.00,0.0022
3756.00,0.0022
3755.00,0.0022
3754.00,0.0022
3753.00,0.0022
3752.00,0.0022
3751.00,0.0022
3750.00,0.0021
3749.00,0.0021
3748.00,0.0021
3747.00,0.0020
3746.00,0.0020
3745.00,0.0020
3744.00,0.0020
3743.00,0.0020
3742.00,0.0020
3741.00,0.0019
3740.00,0.0019
3739.00,0.0019
3738.00,0.0019
3737.00,0.0019
3736.00,0.0020
3735.00,0.0020
3734.00,0.0020
3733.00,0.0020
3732.00,0.0020
3731.00,0.0020
3730.00,0.0020
3729.00,0.0020
3728.00,0.0021
3727.00,0.0021
3726.00,0.0021
3725.00,0.0021
3724.00,0.0021
3723.00,0.0021
3722.00,0.0021
3721.00,0.0021
3720.00,0.0021
3719.00,0.0021
3718.00,0.0021
3717.00,0.0021
3716.00,0.0022
3715.00,0.0022
3714.00,0.0021
3713.00,0.0021
3712.00,0.0021
3711.00,0.0021
3710.00,0.0021
3709.00,0.0021
3708.00,0.0022
3707.00,0.0022
3706.00,0.0022
3705.00,0.0022
3704.00,0.0022
3703.00,0.0023
3702.00,0.0023
3701.00,0.0023
3700.00,0.0024
3699.00,0.0023
3698.00,0.0023
3697.00,0.0023
3696.00,0.0023
3695.00,0.0024
3694.00,0.0024
3693.00,0.0024
3692.00,0.0025
3691.00,0.0025
3690.00,0.0026
3689.00,0.0026
3688.00,0.0025
3687.00,0.0025
3686.00,0.0025
3685.00,0.0026
3684.00,0.0026
3683.00,0.0027
3682.00,0.0027
3681.00,0.0028
3680.00,0.0028
3679.00,0.0029
3678.00,0.0029
3677.00,0.0029
3676.00,0.0029
3675.00,0.0029
3674.00,0.0030
3673.00,0.0030
3672.00,0.0030
3671.00,0.0030
3670.00,0.0031
3669.00,0.0033
3668.00,0.0034
3667.00,0.0034
3666.00,0.0035
3665.00,0.0036
3664.00,0.0036
3663.00,0.0037
3662.00,0.0038
3661.00,0.0039
3660.00,0.0040
3659.00,0.0040
3658.00,0.0041
3657.00,0.0042
3656.00,0.0043
3655.00,0.0043
3654.00,0.0044
3653.00,0.0044
3652.00,0.0043
3651.00,0.0043
3650.00,0.0043
3649.00,0.0045
3648.00,0.0046
3647.00,0.0048
3646.00,0.0049
3645.00,0.0050
3644.00,0.0051
3643.00,0.0051
3642.00,0.0052
3641.00,0.0053
3640.00,0.0055
3639.00,0.0056
3638.00,0.0057
3637.00,0.0059
3636.00,0.0060
3635.00,0.0060
3634.00,0.0061
3633.00,0.0062
3632.00,0.0063
3631.00,0.0063
3630.00,0.0064
3629.00,0.0065
3628.00,0.0067
3627.00,0.0068
3626.00,0.0069
3625.00,0.0070
3624.00,0.0071
3623.00,0.0072
3622.00,0.0073
3621.00,0.0074
3620.00,0.0075
3619.00,0.0076
3618.00,0.0077
3617.00,0.0078
3616.00,0.0079
3615.00,0.0080
3614.00,0.0081
3613.00,0.0082
3612.00,0.0084
3611.00,0.0085
3610.00,0.0086
3609.00,0.0087
3608.00,0.0089
3607.00,0.0090
3606.00,0.0092
3605.00,0.0093
3604.00,0.0094
3603.00,0.0095
3602.00,0.0096
3601.00,0.0097
3600.00,0.0098
3599.00,0.0099
3598.00,0.0100
3597.00,0.0101
3596.00,0.0102
3595.00,0.0103
3594.00,0.0105
3593.00,0.0106
3592.00,0.0108
3591.00,0.0109
3590.00,0.0110
3589.00,0.0111
3588.00,0.0112
3587.00,0.0114
3586.00,0.0116
3585.00,0.0117
3584.00,0.0119
3583.00,0.0120
3582.00,0.0121
3581.00,0.0123
3580.00,0.0124
3579.00,0.0125
3578.00,0.0126
3577.00,0.0128
3576.00,0.0129
3575.00,0.0131
3574.00,0.0132
3573.00,0.0133
3572.00,0.0135
3571.00,0.0136
3570.00,0.0137
3569.00,0.0138
3568.00,0.0139
3567.00,0.0141
3566.00,0.0143
3565.00,0.0145
3564.00,0.0146
3563.00,0.0148
3562.00,0.0149
3561.00,0.0151
3560.00,0.0153
3559.00,0.0154
3558.00,0.0156
3557.00,0.0157
3556.00,0.0158
3555.00,0.0160
3554.00,0.0161
3553.00,0.0163
3552.00,0.0164
3551.00,0.0165
3550.00,0.0167
3549.00,0.0168
3548.00,0.0169
3547.00,0.0170
3546.00,0.0172
3545.00,0.0174
3544.00,0.0175
3543.00,0.0177
3542.00,0.0178
3541.00,0.0180
3540.00,0.0181
3539.00,0.0183
3538.00,0.0184
3537.00,0.0186
3536.00,0.0187
3535.00,0.0188
3534.00,0.0190
3533.00,0.0191
3532.00,0.0192
3531.00,0.0193
3530.00,0.0195
3529.00,0.0196
3528.00,0.0197
3527.00,0.0199
3526.00,0.0200
3525.00,0.0201
3524.00,0.0203
3523.00,0.0204
3522.00,0.0206
3521.00,0.0208
3520.00,0.0209
3519.00,0.0211
3518.00,0.0212
3517.00,0.0214
3516.00,0.0215
3515.00,0.0216
3514.00,0.0218
3513.00,0.0219
3512.00,0.0220
3511.00,0.0221
3510.00,0.0222
3509.00,0.0224
3508.00,0.0225
3507.00,0.0227
3506.00,0.0228
3505.00,0.0230
3504.00,0.0231
3503.00,0.0232
3502.00,0.0234
3501.00,0.0235
3500.00,0.0237
3499.00,0.0239
3498.00,0.0240
3497.00,0.0241
3496.00,0.0243
3495.00,0.0244
3494.00,0.0246
3493.00,0.0247
3492.00,0.0249
3491.00,0.0250
3490.00,0.0252
3489.00,0.0253
3488.00,0.0255
3487.00,0.0257
3486.00,0.0259
3485.00,0.0260
3484.00,0.0262
3483.00,0.0263
3482.00,0.0265
3481.00,0.0266
3480.00,0.0268
3479.00,0.0270
3478.00,0.0272
3477.00,0.0273
3476.00,0.0275
3475.00,0.0276
3474.00,0.0278
3473.00,0.0280
3472.00,0.0281
3471.00,0.0283
3470.00,0.0284
3469.00,0.0285
3468.00,0.0287
3467.00,0.0288
3466.00,0.0290
3465.00,0.0292
3464.00,0.0293
3463.00,0.0294
3462.00,0.0296
3461.00,0.0298
3460.00,0.0299
3459.00,0.0301
3458.00,0.0302
3457.00,0.0304
3456.00,0.0305
3455.00,0.0306
3454.00,0.0308
3453.00,0.0309
3452.00,0.0310
3451.00,0.0312
3450.00,0.0313
3449.00,0.0315
3448.00,0.0316
3447.00,0.0318
3446.00,0.0319
3445.00,0.0321
3444.00,0.0322
3443.00,0.0323
3442.00,0.0325
3441.00,0.0326
3440.00,0.0328
3439.00,0.0330
3438.00,0.0332
3437.00,0.0334
3436.00,0.0335
3435.00,0.0337
3434.00,0.0338
3433.00,0.0340
3432.00,0.0342
3431.00,0.0343
3430.00,0.0345
3429.00,0.0347
3428.00,0.0348
3427.00,0.0350
3426.00,0.0352
3425.00,0.0353
3424.00,0.0355
3423.00,0.0356
3422.00,0.0358
3421.00,0.0359
3420.00,0.0361
3419.00,0.0363
3418.00,0.0365
3417.00,0.0367
3416.00,0.0369
3415.00,0.0371
3414.00,0.0373
3413.00,0.0374
3412.00,0.0376
3411.00,0.0377
3410.00,0.0379
3409.00,0.0381
3408.00,0.0383
3407.00,0.0384
3406.00,0.0386
3405.00,0.0387
3404.00,0.0389
3403.00,0.0391
3402.00,0.0392
3401.00,0.0394
3400.00,0.0396
3399.00,0.0398
3398.00,0.0399
3397.00,0.0401
3396.00,0.0403
3395.00,0.0404
3394.00,0.0406
3393.00,0.0408
3392.00,0.0410
3391.00,0.0412
3390.00,0.0414
3389.00,0.0416
3388.00,0.0418
3387.00,0.0420
3386.00,0.0422
3385.00,0.0424
3384.00,0.0426
3383.00,0.0428
3382.00,0.0430
3381.00,0.0432
3380.00,0.0434
3379.00,0.0436
3378.00,0.0439
3377.00,0.0441
3376.00,0.0444
3375.00,0.0446
3374.00,0.0449
3373.00,0.0451
3372.00,0.0453
3371.00,0.0455
3370.00,0.0458
3369.00,0.0460
3368.00,0.0463
3367.00,0.0466
3366.00,0.0469
3365.00,0.0472
3364.00,0.0475
3363.00,0.0478
3362.00,0.0481
3361.00,0.0484
3360.00,0.0487
3359.00,0.0490
3358.00,0.0494
3357.00,0.0497
3356.00,0.0501
3355.00,0.0504
3354.00,0.0507
3353.00,0.0510
3352.00,0.0512
3351.00,0.0515
3350.00,0.0518
3349.00,0.0522
3348.00,0.0526
3347.00,0.0530
3346.00,0.0533
3345.00,0.0536
3344.00,0.0539
3343.00,0.0542
3342.00,0.0545
3341.00,0.0549
3340.00,0.0552
3339.00,0.0555
3338.00,0.0559
3337.00,0.0563
3336.00,0.0567
3335.00,0.0572
3334.00,0.0576
3333.00,0.0580
3332.00,0.0583
3331.00,0.0587
3330.00,0.0591
3329.00,0.0594
3328.00,0.0598
3327.00,0.0601
3326.00,0.0605
3325.00,0.0609
3324.00,0.0614
3323.00,0.0618
3322.00,0.0623
3321.00,0.0627
3320.00,0.0632
3319.00,0.0636
3318.00,0.0641
3317.00,0.0645
3316.00,0.0649
3315.00,0.0654
3314.00,0.0658
3313.00,0.0661
3312.00,0.0665
3311.00,0.0668
3310.00,0.0671
3309.00,0.0674
3308.00,0.0678
3307.00,0.0682
3306.00,0.0686
3305.00,0.0691
3304.00,0.0696
3303.00,0.0701
3302.00,0.0706
3301.00,0.0711
3300.00,0.0715
3299.00,0.0718
3298.00,0.0721
3297.00,0.0724
3296.00,0.0726
3295.00,0.0729
3294.00,0.0732
3293.00,0.0735
3292.00,0.0738
3291.00,0.0741
3290.00,0.0745
3289.00,0.0748
3288.00,0.0750
3287.00,0.0752
3286.00,0.0754
3285.00,0.0755
3284.00,0.0756
3283.00,0.0757
3282.00,0.0757
3281.00,0.0757
3280.00,0.0757
3279.00,0.0756
3278.00,0.0754
3277.00,0.0752
3276.00,0.0750
3275.00,0.0748
3274.00,0.0745
3273.00,0.0742
3272.00,0.0739
3271.00,0.0736
3270.00,0.0734
3269.00,0.0731
3268.00,0.0728
3267.00,0.0724
3266.00,0.0721
3265.00,0.0717
3264.00,0.0712
3263.00,0.0708
3262.00,0.0703
3261.00,0.0698
3260.00,0.0693
3259.00,0.0688
3258.00,0.0683
3257.00,0.0677
3256.00,0.0672
3255.00,0.0668
3254.00,0.0663
3253.00,0.0659
3252.00,0.0654
3251.00,0.0649
3250.00,0.0644
3249.00,0.0639
3248.00,0.0634
3247.00,0.0629
3246.00,0.0625
3245.00,0.0621
3244.00,0.0618
3243.00,0.0614
3242.00,0.0610
3241.00,0.0607
3240.00,0.0604
3239.00,0.0600
3238.00,0.0596
3237.00,0.0592
3236.00,0.0588
3235.00,0.0584
3234.00,0.0581
3233.00,0.0578
3232.00,0.0576
3231.00,0.0574
3230.00,0.0572
3229.00,0.0569
3228.00,0.0567
3227.00,0.0565
3226.00,0.0562
3225.00,0.0560
3224.00,0.0558
3223.00,0.0555
3222.00,0.0553
3221.00,0.0550
3220.00,0.0548
3219.00,0.0546
3218.00,0.0544
3217.00,0.0542
3216.00,0.0540
3215.00,0.0538
3214.00,0.0536
3213.00,0.0534
3212.00,0.0532
3211.00,0.0530
3210.00,0.0527
3209.00,0.0525
3208.00,0.0523
3207.00,0.0521
3206.00,0.0519
3205.00,0.0518
3204.00,0.0516
3203.00,0.0514
3202.00,0.0511
3201.00,0.0509
3200.00,0.0507
3199.00,0.0504
3198.00,0.0502
3197.00,0.0500
3196.00,0.0497
3195.00,0.0495
3194.00,0.0493
3193.00,0.0490
3192.00,0.0488
3191.00,0.0485
3190.00,0.0482
3189.00,0.0479
3188.00,0.0476
3187.00,0.0473
3186.00,0.0470
3185.00,0.0468
3184.00,0.0465
3183.00,0.0462
3182.00,0.0460
3181.00,0.0457
3180.00,0.0454
3179.00,0.0451
3178.00,0.0448
3177.00,0.0444
3176.00,0.0441
3175.00,0.0438
3174.00,0.0435
3173.00,0.0432
3172.00,0.0429
3171.00,0.0426
3170.00,0.0423
3169.00,0.0420
3168.00,0.0417
3167.00,0.0414
3166.00,0.0411
3165.00,0.0408
3164.00,0.0405
3163.00,0.0403
3162.00,0.0400
3161.00,0.0397
3160.00,0.0394
3159.00,0.0391
3158.00,0.0389
3157.00,0.0386
3156.00,0.0383
3155.00,0.0380
3154.00,0.0377
3153.00,0.0374
3152.00,0.0372
3151.00,0.0370
3150.00,0.0368
3149.00,0.0366
3148.00,0.0364
3147.00,0.0362
3146.00,0.0360
3145.00,0.0358
3144.00,0.0356
3143.00,0.0354
3142.00,0.0351
3141.00,0.0349
3140.00,0.0347
3139.00,0.0346
3138.00,0.0344
3137.00,0.0343
3136.00,0.0342
3135.00,0.0341
3134.00,0.0339
3133.00,0.0338
3132.00,0.0336
3131.00,0.0334
3130.00,0.0333
3129.00,0.0332
3128.00,0.0331
3127.00,0.0330
3126.00,0.0330
3125.00,0.0329
3124.00,0.0327
3123.00,0.0326
3122.00,0.0324
3121.00,0.0323
3120.00,0.0322
3119.00,0.0322
3118.00,0.0322
3117.00,0.0322
3116.00,0.0322
3115.00,0.0322
3114.00,0.0322
3113.00,0.0323
3112.00,0.0323
3111.00,0.0323
3110.00,0.0323
3109.00,0.0323
3108.00,0.0324
3107.00,0.0325
3106.00,0.0326
3105.00,0.0327
3104.00,0.0327
3103.00,0.0327
3102.00,0.0327
3101.00,0.0328
3100.00,0.0329
3099.00,0.0330
3098.00,0.0331
3097.00,0.0333
3096.00,0.0334
3095.00,0.0335
3094.00,0.0336
3093.00,0.0336
3092.00,0.0336
3091.00,0.0336
3090.00,0.0337
3089.00,0.0338
3088.00,0.0339
3087.00,0.0340
3086.00,0.0340
3085.00,0.0341
3084.00,0.0341
3083.00,0.0342
3082.00,0.0342
3081.00,0.0343
3080.00,0.0343
3079.00,0.0344
3078.00,0.0345
3077.00,0.0347
3076.00,0.0348
3075.00,0.0349
3074.00,0.0350
3073.00,0.0351
3072.00,0.0351
3071.00,0.0350
3070.00,0.0350
3069.00,0.0349
3068.00,0.0348
3067.00,0.0348
3066.00,0.0348
3065.00,0.0348
3064.00,0.0348
3063.00,0.0348
3062.00,0.0348
3061.00,0.0347
3060.00,0.0346
3059.00,0.0344
3058.00,0.0342
3057.00,0.0340
3056.00,0.0338
3055.00,0.0337
3054.00,0.0336
3053.00,0.0334
3052.00,0.0332
3051.00,0.0330
3050.00,0.0328
3049.00,0.0327
3048.00,0.0325
3047.00,0.0323
3046.00,0.0320
3045.00,0.0318
3044.00,0.0315
3043.00,0.0313
3042.00,0.0312
3041.00,0.0311
3040.00,0.0310
3039.00,0.0309
3038.00,0.0307
3037.00,0.0305
3036.00,0.0302
3035.00,0.0300
3034.00,0.0298
3033.00,0.0297
3032.00,0.0296
3031.00,0.0295
3030.00,0.0294
3029.00,0.0293
3028.00,0.0291
3027.00,0.0289
3026.00,0.0287
3025.00,0.0285
3024.00,0.0284
3023.00,0.0282
3022.00,0.0280
3021.00,0.0279
3020.00,0.0277
3019.00,0.0275
3018.00,0.0272
3017.00,0.0270
3016.00,0.0269
3015.00,0.0267
3014.00,0.0266
3013.00,0.0265
3012.00,0.0265
3011.00,0.0265
3010.00,0.0266
3009.00,0.0267
3008.00,0.0267
3007.00,0.0268
3006.00,0.0268
3005.00,0.0268
3004.00,0.0269
3003.00,0.0269
3002.00,0.0270
3001.00,0.0271
3000.00,0.0272
2999.00,0.0273
2998.00,0.0275
2997.00,0.0277
2996.00,0.0279
2995.00,0.0281
2994.00,0.0284
2993.00,0.0287
2992.00,0.0290
2991.00,0.0294
2990.00,0.0299
2989.00,0.0304
2988.00,0.0308
2987.00,0.0313
2986.00,0.0318
2985.00,0.0323
2984.00,0.0328
2983.00,0.0334
2982.00,0.0340
2981.00,0.0346
2980.00,0.0353
2979.00,0.0360
2978.00,0.0367
2977.00,0.0375
2976.00,0.0382
2975.00,0.0391
2974.00,0.0400
2973.00,0.0410
2972.00,0.0421
2971.00,0.0433
2970.00,0.0445
2969.00,0.0458
2968.00,0.0471
2967.00,0.0485
2966.00,0.0498
2965.00,0.0512
2964.00,0.0525
2963.00,0.0537
2962.00,0.0548
2961.00,0.0559
2960.00,0.0568
2959.00,0.0576
2958.00,0.0583
2957.00,0.0588
2956.00,0.0592
2955.00,0.0593
2954.00,0.0593
2953.00,0.0590
2952.00,0.0587
2951.00,0.0584
2950.00,0.0581
2949.00,0.0580
2948.00,0.0580
2947.00,0.0583
2946.00,0.0590
2945.00,0.0601
2944.00,0.0615
2943.00,0.0633
2942.00,0.0655
2941.00,0.0679
2940.00,0.0707
2939.00,0.0738
2938.00,0.0770
2937.00,0.0805
2936.00,0.0842
2935.00,0.0881
2934.00,0.0920
2933.00,0.0961
2932.00,0.1002
2931.00,0.1044
2930.00,0.1086
2929.00,0.1127
2928.00,0.1167
2927.00,0.1204
2926.00,0.1238
2925.00,0.1265
2924.00,0.1284
2923.00,0.1294
2922.00,0.1293
2921.00,0.1283
2920.00,0.1262
2919.00,0.1232
2918.00,0.1195
2917.00,0.1151
2916.00,0.1105
2915.00,0.1056
2914.00,0.1008
2913.00,0.0961
2912.00,0.0918
2911.00,0.0879
2910.00,0.0844
2909.00,0.0813
2908.00,0.0786
2907.00,0.0761
2906.00,0.0739
2905.00,0.0719
2904.00,0.0701
2903.00,0.0685
2902.00,0.0670
2901.00,0.0656
2900.00,0.0642
2899.00,0.0628
2898.00,0.0614
2897.00,0.0600
2896.00,0.0586
2895.00,0.0572
2894.00,0.0558
2893.00,0.0544
2892.00,0.0531
2891.00,0.0517
2890.00,0.0503
2889.00,0.0490
2888.00,0.0477
2887.00,0.0466
2886.00,0.0456
2885.00,0.0448
2884.00,0.0440
2883.00,0.0435
2882.00,0.0431
2881.00,0.0429
2880.00,0.0428
2879.00,0.0429
2878.00,0.0432
2877.00,0.0436
2876.00,0.0441
2875.00,0.0446
2874.00,0.0452
2873.00,0.0458
2872.00,0.0462
2871.00,0.0465
2870.00,0.0466
2869.00,0.0468
2868.00,0.0470
2867.00,0.0475
2866.00,0.0482
2865.00,0.0493
2864.00,0.0509
2863.00,0.0530
2862.00,0.0556
2861.00,0.0587
2860.00,0.0622
2859.00,0.0661
2858.00,0.0700
2857.00,0.0739
2856.00,0.0775
2855.00,0.0804
2854.00,0.0824
2853.00,0.0834
2852.00,0.0831
2851.00,0.0817
2850.00,0.0791
2849.00,0.0755
2848.00,0.0709
2847.00,0.0657
2846.00,0.0603
2845.00,0.0550
2844.00,0.0502
2843.00,0.0458
2842.00,0.0420
2841.00,0.0388
2840.00,0.0360
2839.00,0.0337
2838.00,0.0317
2837.00,0.0300
2836.00,0.0286
2835.00,0.0275
2834.00,0.0265
2833.00,0.0257
2832.00,0.0250
2831.00,0.0244
2830.00,0.0239
2829.00,0.0235
2828.00,0.0230
2827.00,0.0227
2826.00,0.0223
2825.00,0.0220
2824.00,0.0217
2823.00,0.0214
2822.00,0.0211
2821.00,0.0209
2820.00,0.0206
2819.00,0.0204
2818.00,0.0202
2817.00,0.0200
2816.00,0.0198
2815.00,0.0196
2814.00,0.0194
2813.00,0.0192
2812.00,0.0190
2811.00,0.0188
2810.00,0.0187
2809.00,0.0185
2808.00,0.0184
2807.00,0.0182
2806.00,0.0181
2805.00,0.0179
2804.00,0.0178
2803.00,0.0176
2802.00,0.0175
2801.00,0.0173
2800.00,0.0172
2799.00,0.0170
2798.00,0.0169
2797.00,0.0167
2796.00,0.0166
2795.00,0.0165
2794.00,0.0164
2793.00,0.0163
2792.00,0.0162
2791.00,0.0161
2790.00,0.0160
2789.00,0.0159
2788.00,0.0158
2787.00,0.0157
2786.00,0.0156
2785.00,0.0155
2784.00,0.0154
2783.00,0.0153
2782.00,0.0153
2781.00,0.0152
2780.00,0.0151
2779.00,0.0150
2778.00,0.0149
2777.00,0.0148
2776.00,0.0147
2775.00,0.0146
2774.00,0.0145
2773.00,0.0144
2772.00,0.0144
2771.00,0.0143
2770.00,0.0143
2769.00,0.0142
2768.00,0.0142
2767.00,0.0142
2766.00,0.0141
2765.00,0.0141
2764.00,0.0140
2763.00,0.0140
2762.00,0.0139
2761.00,0.0138
2760.00,0.0138
2759.00,0.0137
2758.00,0.0137
2757.00,0.0136
2756.00,0.0135
2755.00,0.0135
2754.00,0.0134
2753.00,0.0134
2752.00,0.0133
2751.00,0.0132
2750.00,0.0132
2749.00,0.0131
2748.00,0.0131
2747.00,0.0130
2746.00,0.0130
2745.00,0.0129
2744.00,0.0129
2743.00,0.0129
2742.00,0.0128
2741.00,0.0128
2740.00,0.0127
2739.00,0.0127
2738.00,0.0126
2737.00,0.0126
2736.00,0.0125
2735.00,0.0125
2734.00,0.0125
2733.00,0.0124
2732.00,0.0124
2731.00,0.0124
2730.00,0.0123
2729.00,0.0122
2728.00,0.0122
2727.00,0.0121
2726.00,0.0121
2725.00,0.0120
2724.00,0.0120
2723.00,0.0119
2722.00,0.0119
2721.00,0.0118
2720.00,0.0118
2719.00,0.0117
2718.00,0.0116
2717.00,0.0115
2716.00,0.0115
2715.00,0.0114
2714.00,0.0114
2713.00,0.0113
2712.00,0.0113
2711.00,0.0112
2710.00,0.0111
2709.00,0.0111
2708.00,0.0110
2707.00,0.0110
2706.00,0.0109
2705.00,0.0109
2704.00,0.0109
2703.00,0.0109
2702.00,0.0108
2701.00,0.0108
2700.00,0.0108
2699.00,0.0108
2698.00,0.0107
2697.00,0.0107
2696.00,0.0107
2695.00,0.0107
2694.00,0.0107
2693.00,0.0107
2692.00,0.0107
2691.00,0.0106
2690.00,0.0106
2689.00,0.0106
2688.00,0.0106
2687.00,0.0106
2686.00,0.0106
2685.00,0.0105
2684.00,0.0105
2683.00,0.0105
2682.00,0.0104
2681.00,0.0104
2680.00,0.0104
2679.00,0.0104
2678.00,0.0104
2677.00,0.0103
2676.00,0.0103
2675.00,0.0103
2674.00,0.0103
2673.00,0.0103
2672.00,0.0103
2671.00,0.0103
2670.00,0.0102
2669.00,0.0102
2668.00,0.0102
2667.00,0.0102
2666.00,0.0103
2665.00,0.0103
2664.00,0.0103
2663.00,0.0103
2662.00,0.0103
2661.00,0.0103
2660.00,0.0103
2659.00,0.0103
2658.00,0.0103
2657.00,0.0103
2656.00,0.0103
2655.00,0.0103
2654.00,0.0103
2653.00,0.0102
2652.00,0.0102
2651.00,0.0102
2650.00,0.0102
2649.00,0.0102
2648.00,0.0101
2647.00,0.0101
2646.00,0.0101
2645.00,0.0101
2644.00,0.0101
2643.00,0.0101
2642.00,0.0100
2641.00,0.0100
2640.00,0.0099
2639.00,0.0099
2638.00,0.0099
2637.00,0.0099
2636.00,0.0099
2635.00,0.0099
2634.00,0.0098
2633.00,0.0098
2632.00,0.0098
2631.00,0.0098
2630.00,0.0097
2629.00,0.0097
2628.00,0.0097
2627.00,0.0097
2626.00,0.0096
2625.00,0.0096
2624.00,0.0096
2623.00,0.0095
2622.00,0.0095
2621.00,0.0095
2620.00,0.0094
2619.00,0.0094
2618.00,0.0094
2617.00,0.0094
2616.00,0.0093
2615.00,0.0093
2614.00,0.0093
2613.00,0.0093
2612.00,0.0092
2611.00,0.0092
2610.00,0.0092
2609.00,0.0092
2608.00,0.0092
2607.00,0.0091
2606.00,0.0091
2605.00,0.0090
2604.00,0.0090
2603.00,0.0090
2602.00,0.0090
2601.00,0.0089
2600.00,0.0089
2599.00,0.0089
2598.00,0.0088
2597.00,0.0088
2596.00,0.0087
2595.00,0.0087
2594.00,0.0086
2593.00,0.0086
2592.00,0.0085
2591.00,0.0085
2590.00,0.0085
2589.00,0.0085
2588.00,0.0084
2587.00,0.0084
2586.00,0.0084
2585.00,0.0084
2584.00,0.0083
2583.00,0.0083
2582.00,0.0083
2581.00,0.0082
2580.00,0.0082
2579.00,0.0081
2578.00,0.0080
2577.00,0.0080
2576.00,0.0080
2575.00,0.0080
2574.00,0.0079
2573.00,0.0079
2572.00,0.0079
2571.00,0.0078
2570.00,0.0078
2569.00,0.0077
2568.00,0.0077
2567.00,0.0076
2566.00,0.0076
2565.00,0.0076
2564.00,0.0076
2563.00,0.0076
2562.00,0.0076
2561.00,0.0076
2560.00,0.0076
2559.00,0.0075
2558.00,0.0074
2557.00,0.0074
2556.00,0.0073
2555.00,0.0073
2554.00,0.0073
2553.00,0.0073
2552.00,0.0073
2551.00,0.0073
2550.00,0.0073
2549.00,0.0073
2548.00,0.0073
2547.00,0.0072
2546.00,0.0072
2545.00,0.0072
2544.00,0.0072
2543.00,0.0072
2542.00,0.0071
2541.00,0.0071
2540.00,0.0071
2539.00,0.0071
2538.00,0.0071
2537.00,0.0070
2536.00,0.0070
2535.00,0.0070
2534.00,0.0071
2533.00,0.0071
2532.00,0.0071
2531.00,0.0070
2530.00,0.0070
2529.00,0.0069
2528.00,0.0069
2527.00,0.0069
2526.00,0.0069
2525.00,0.0069
2524.00,0.0069
2523.00,0.0069
2522.00,0.0068
2521.00,0.0068
2520.00,0.0068
2519.00,0.0068
2518.00,0.0068
2517.00,0.0068
2516.00,0.0068
2515.00,0.0068
2514.00,0.0068
2513.00,0.0068
2512.00,0.0068
2511.00,0.0068
2510.00,0.0068
2509.00,0.0067
2508.00,0.0068
2507.00,0.0067
2506.00,0.0067
2505.00,0.0067
2504.00,0.0067
2503.00,0.0067
2502.00,0.0067
2501.00,0.0066
2500.00,0.0066
2499.00,0.0066
2498.00,0.0067
2497.00,0.0067
2496.00,0.0067
2495.00,0.0066
2494.00,0.0066
2493.00,0.0065
2492.00,0.0065
2491.00,0.0064
2490.00,0.0064
2489.00,0.0064
2488.00,0.0063
2487.00,0.0063
2486.00,0.0063
2485.00,0.0063
2484.00,0.0063
2483.00,0.0063
2482.00,0.0063
2481.00,0.0063
2480.00,0.0063
2479.00,0.0063
2478.00,0.0062
2477.00,0.0062
2476.00,0.0062
2475.00,0.0062
2474.00,0.0062
2473.00,0.0062
2472.00,0.0062
2471.00,0.0061
2470.00,0.0061
2469.00,0.0061
2468.00,0.0061
2467.00,0.0061
2466.00,0.0060
2465.00,0.0060
2464.00,0.0060
2463.00,0.0060
2462.00,0.0060
2461.00,0.0061
2460.00,0.0061
2459.00,0.0061
2458.00,0.0061
2457.00,0.0061
2456.00,0.0061
2455.00,0.0061
2454.00,0.0061
2453.00,0.0060
2452.00,0.0060
2451.00,0.0060
2450.00,0.0060
2449.00,0.0060
2448.00,0.0060
2447.00,0.0060
2446.00,0.0059
2445.00,0.0059
2444.00,0.0058
2443.00,0.0058
2442.00,0.0058
2441.00,0.0058
2440.00,0.0058
2439.00,0.0058
2438.00,0.0057
2437.00,0.0057
2436.00,0.0057
2435.00,0.0057
2434.00,0.0057
2433.00,0.0057
2432.00,0.0056
2431.00,0.0056
2430.00,0.0056
2429.00,0.0056
2428.00,0.0056
2427.00,0.0056
2426.00,0.0056
2425.00,0.0056
2424.00,0.0056
2423.00,0.0055
2422.00,0.0055
2421.00,0.0054
2420.00,0.0054
2419.00,0.0053
2418.00,0.0053
2417.00,0.0053
2416.00,0.0053
2415.00,0.0054
2414.00,0.0054
2413.00,0.0054
2412.00,0.0054
2411.00,0.0053
2410.00,0.0053
2409.00,0.0053
2408.00,0.0052
2407.00,0.0052
2406.00,0.0051
2405.00,0.0051
2404.00,0.0051
2403.00,0.0051
2402.00,0.0051
2401.00,0.0051
2400.00,0.0051
2399.00,0.0051
2398.00,0.0051
2397.00,0.0051
2396.00,0.0051
2395.00,0.0051
2394.00,0.0051
2393.00,0.0051
2392.00,0.0051
2391.00,0.0051
2390.00,0.0050
2389.00,0.0050
2388.00,0.0049
2387.00,0.0049
2386.00,0.0048
2385.00,0.0048
2384.00,0.0047
2383.00,0.0047
2382.00,0.0046
2381.00,0.0046
2380.00,0.0046
2379.00,0.0046
2378.00,0.0046
2377.00,0.0046
2376.00,0.0046
2375.00,0.0046
2374.00,0.0045
2373.00,0.0045
2372.00,0.0045
2371.00,0.0044
2370.00,0.0044
2369.00,0.0043
2368.00,0.0043
2367.00,0.0044
2366.00,0.0044
2365.00,0.0044
2364.00,0.0045
2363.00,0.0045
2362.00,0.0046
2361.00,0.0046
2360.00,0.0047
2359.00,0.0046
2358.00,0.0046
2357.00,0.0045
2356.00,0.0045
2355.00,0.0045
2354.00,0.0045
2353.00,0.0045
2352.00,0.0046
2351.00,0.0046
2350.00,0.0046
2349.00,0.0046
2348.00,0.0047
2347.00,0.0047
2346.00,0.0047
2345.00,0.0047
2344.00,0.0047
2343.00,0.0047
2342.00,0.0047
2341.00,0.0048
2340.00,0.0049
2339.00,0.0049
2338.00,0.0049
2337.00,0.0049
2336.00,0.0049
2335.00,0.0049
2334.00,0.0048
2333.00,0.0048
2332.00,0.0048
2331.00,0.0047
2330.00,0.0048
2329.00,0.0050
2328.00,0.0054
2327.00,0.0058
2326.00,0.0061
2325.00,0.0062
2324.00,0.0061
2323.00,0.0059
2322.00,0.0057
2321.00,0.0055
2320.00,0.0054
2319.00,0.0054
2318.00,0.0053
2317.00,0.0053
2316.00,0.0053
2315.00,0.0053
2314.00,0.0052
2313.00,0.0052
2312.00,0.0052
2311.00,0.0051
2310.00,0.0051
2309.00,0.0051
2308.00,0.0051
2307.00,0.0051
2306.00,0.0051
2305.00,0.0052
2304.00,0.0052
2303.00,0.0052
2302.00,0.0052
2301.00,0.0052
2300.00,0.0052
2299.00,0.0052
2298.00,0.0053
2297.00,0.0055
2296.00,0.0055
2295.00,0.0056
2294.00,0.0056
2293.00,0.0057
2292.00,0.0057
2291.00,0.0059
2290.00,0.0060
2289.00,0.0061
2288.00,0.0062
2287.00,0.0062
2286.00,0.0062
2285.00,0.0061
2284.00,0.0060
2283.00,0.0059
2282.00,0.0058
2281.00,0.0057
2280.00,0.0057
2279.00,0.0057
2278.00,0.0057
2277.00,0.0057
2276.00,0.0057
2275.00,0.0056
2274.00,0.0056
2273.00,0.0055
2272.00,0.0055
2271.00,0.0054
2270.00,0.0054
2269.00,0.0053
2268.00,0.0054
2267.00,0.0053
2266.00,0.0053
2265.00,0.0053
2264.00,0.0052
2263.00,0.0052
2262.00,0.0052
2261.00,0.0052
2260.00,0.0052
2259.00,0.0052
2258.00,0.0052
2257.00,0.0051
2256.00,0.0050
2255.00,0.0050
2254.00,0.0049
2253.00,0.0050
2252.00,0.0051
2251.00,0.0051
2250.00,0.0051
2249.00,0.0051
2248.00,0.0050
2247.00,0.0050
2246.00,0.0050
2245.00,0.0050
2244.00,0.0051
2243.00,0.0051
2242.00,0.0052
2241.00,0.0052
2240.00,0.0052
2239.00,0.0052
2238.00,0.0052
2237.00,0.0052
2236.00,0.0051
2235.00,0.0051
2234.00,0.0050
2233.00,0.0050
2232.00,0.0050
2231.00,0.0050
2230.00,0.0050
2229.00,0.0050
2228.00,0.0050
2227.00,0.0050
2226.00,0.0049
2225.00,0.0049
2224.00,0.0050
2223.00,0.0050
2222.00,0.0050
2221.00,0.0049
2220.00,0.0049
2219.00,0.0048
2218.00,0.0048
2217.00,0.0049
2216.00,0.0049
2215.00,0.0049
2214.00,0.0049
2213.00,0.0048
2212.00,0.0049
2211.00,0.0050
2210.00,0.0050
2209.00,0.0050
2208.00,0.0051
2207.00,0.0052
2206.00,0.0052
2205.00,0.0052
2204.00,0.0052
2203.00,0.0052
2202.00,0.0052
2201.00,0.0052
2200.00,0.0052
2199.00,0.0052
2198.00,0.0052
2197.00,0.0052
2196.00,0.0052
2195.00,0.0053
2194.00,0.0053
2193.00,0.0054
2192.00,0.0055
2191.00,0.0056
2190.00,0.0057
2189.00,0.0056
2188.00,0.0056
2187.00,0.0056
2186.00,0.0054
2185.00,0.0052
2184.00,0.0049
2183.00,0.0046
2182.00,0.0045
2181.00,0.0046
2180.00,0.0048
2179.00,0.0048
2178.00,0.0045
2177.00,0.0042
2176.00,0.0041
2175.00,0.0041
2174.00,0.0043
2173.00,0.0047
2172.00,0.0051
2171.00,0.0055
2170.00,0.0057
2169.00,0.0059
2168.00,0.0060
2167.00,0.0060
2166.00,0.0061
2165.00,0.0063
2164.00,0.0065
2163.00,0.0065
2162.00,0.0060
2161.00,0.0049
2160.00,0.0035
2159.00,0.0021
2158.00,0.0013
2157.00,0.0012
2156.00,0.0015
2155.00,0.0019
2154.00,0.0023
2153.00,0.0026
2152.00,0.0029
2151.00,0.0031
2150.00,0.0033
2149.00,0.0034
2148.00,0.0034
2147.00,0.0033
2146.00,0.0032
2145.00,0.0032
2144.00,0.0033
2143.00,0.0033
2142.00,0.0034
2141.00,0.0035
2140.00,0.0035
2139.00,0.0034
2138.00,0.0032
2137.00,0.0030
2136.00,0.0029
2135.00,0.0029
2134.00,0.0029
2133.00,0.0030
2132.00,0.0032
2131.00,0.0034
2130.00,0.0035
2129.00,0.0037
2128.00,0.0038
2127.00,0.0040
2126.00,0.0041
2125.00,0.0042
2124.00,0.0043
2123.00,0.0044
2122.00,0.0045
2121.00,0.0046
2120.00,0.0047
2119.00,0.0047
2118.00,0.0048
2117.00,0.0049
2116.00,0.0050
2115.00,0.0051
2114.00,0.0052
2113.00,0.0052
2112.00,0.0052
2111.00,0.0051
2110.00,0.0051
2109.00,0.0051
2108.00,0.0051
2107.00,0.0052
2106.00,0.0052
2105.00,0.0052
2104.00,0.0053
2103.00,0.0053
2102.00,0.0052
2101.00,0.0052
2100.00,0.0051
2099.00,0.0050
2098.00,0.0048
2097.00,0.0046
2096.00,0.0045
2095.00,0.0044
2094.00,0.0044
2093.00,0.0046
2092.00,0.0047
2091.00,0.0048
2090.00,0.0049
2089.00,0.0050
2088.00,0.0051
2087.00,0.0052
2086.00,0.0052
2085.00,0.0052
2084.00,0.0053
2083.00,0.0053
2082.00,0.0052
2081.00,0.0053
2080.00,0.0053
2079.00,0.0053
2078.00,0.0052
2077.00,0.0052
2076.00,0.0053
2075.00,0.0053
2074.00,0.0052
2073.00,0.0052
2072.00,0.0052
2071.00,0.0051
2070.00,0.0050
2069.00,0.0050
2068.00,0.0049
2067.00,0.0049
2066.00,0.0049
2065.00,0.0049
2064.00,0.0050
2063.00,0.0050
2062.00,0.0050
2061.00,0.0049
2060.00,0.0049
2059.00,0.0049
2058.00,0.0048
2057.00,0.0048
2056.00,0.0049
2055.00,0.0050
2054.00,0.0053
2053.00,0.0057
2052.00,0.0059
2051.00,0.0059
2050.00,0.0055
2049.00,0.0052
2048.00,0.0050
2047.00,0.0050
2046.00,0.0050
2045.00,0.0051
2044.00,0.0052
2043.00,0.0052
2042.00,0.0051
2041.00,0.0051
2040.00,0.0051
2039.00,0.0051
2038.00,0.0050
2037.00,0.0049
2036.00,0.0047
2035.00,0.0044
2034.00,0.0041
2033.00,0.0040
2032.00,0.0040
2031.00,0.0039
2030.00,0.0038
2029.00,0.0038
2028.00,0.0038
2027.00,0.0038
2026.00,0.0037
2025.00,0.0038
2024.00,0.0039
2023.00,0.0040
2022.00,0.0039
2021.00,0.0038
2020.00,0.0038
2019.00,0.0038
2018.00,0.0038
2017.00,0.0038
2016.00,0.0039
2015.00,0.0039
2014.00,0.0038
2013.00,0.0038
2012.00,0.0039
2011.00,0.0040
2010.00,0.0039
2009.00,0.0037
2008.00,0.0033
2007.00,0.0030
2006.00,0.0028
2005.00,0.0029
2004.00,0.0031
2003.00,0.0033
2002.00,0.0033
2001.00,0.0033
2000.00,0.0034
1999.00,0.0035
1998.00,0.0037
1997.00,0.0041
1996.00,0.0044
1995.00,0.0044
1994.00,0.0043
1993.00,0.0042
1992.00,0.0041
1991.00,0.0040
1990.00,0.0040
1989.00,0.0041
1988.00,0.0043
1987.00,0.0044
1986.00,0.0045
1985.00,0.0046
1984.00,0.0048
1983.00,0.0051
1982.00,0.0053
1981.00,0.0055
1980.00,0.0053
1979.00,0.0047
1978.00,0.0040
1977.00,0.0035
1976.00,0.0033
1975.00,0.0031
1974.00,0.0030
1973.00,0.0029
1972.00,0.0030
1971.00,0.0031
1970.00,0.0031
1969.00,0.0032
1968.00,0.0033
1967.00,0.0033
1966.00,0.0032
1965.00,0.0031
1964.00,0.0031
1963.00,0.0030
1962.00,0.0029
1961.00,0.0028
1960.00,0.0027
1959.00,0.0028
1958.00,0.0028
1957.00,0.0030
1956.00,0.0032
1955.00,0.0033
1954.00,0.0032
1953.00,0.0032
1952.00,0.0032
1951.00,0.0032
1950.00,0.0032
1949.00,0.0032
1948.00,0.0032
1947.00,0.0032
1946.00,0.0031
1945.00,0.0030
1944.00,0.0030
1943.00,0.0030
1942.00,0.0030
1941.00,0.0030
1940.00,0.0032
1939.00,0.0033
1938.00,0.0033
1937.00,0.0033
1936.00,0.0033
1935.00,0.0033
1934.00,0.0032
1933.00,0.0032
1932.00,0.0033
1931.00,0.0033
1930.00,0.0033
1929.00,0.0034
1928.00,0.0035
1927.00,0.0035
1926.00,0.0034
1925.00,0.0034
1924.00,0.0034
1923.00,0.0034
1922.00,0.0034
1921.00,0.0034
1920.00,0.0034
1919.00,0.0035
1918.00,0.0034
1917.00,0.0033
1916.00,0.0033
1915.00,0.0034
1914.00,0.0036
1913.00,0.0037
1912.00,0.0038
1911.00,0.0038
1910.00,0.0038
1909.00,0.0038
1908.00,0.0038
1907.00,0.0038
1906.00,0.0038
1905.00,0.0038
1904.00,0.0038
1903.00,0.0038
1902.00,0.0038
1901.00,0.0039
1900.00,0.0040
1899.00,0.0041
1898.00,0.0040
1897.00,0.0040
1896.00,0.0040
1895.00,0.0040
1894.00,0.0040
1893.00,0.0039
1892.00,0.0039
1891.00,0.0039
1890.00,0.0038
1889.00,0.0037
1888.00,0.0036
1887.00,0.0037
1886.00,0.0038
1885.00,0.0039
1884.00,0.0041
1883.00,0.0041
1882.00,0.0041
1881.00,0.0040
1880.00,0.0041
1879.00,0.0041
1878.00,0.0040
1877.00,0.0041
1876.00,0.0041
1875.00,0.0042
1874.00,0.0042
1873.00,0.0042
1872.00,0.0042
1871.00,0.0040
1870.00,0.0038
1869.00,0.0036
1868.00,0.0034
1867.00,0.0034
1866.00,0.0036
1865.00,0.0038
1864.00,0.0041
1863.00,0.0042
1862.00,0.0042
1861.00,0.0042
1860.00,0.0042
1859.00,0.0042
1858.00,0.0042
1857.00,0.0043
1856.00,0.0043
1855.00,0.0043
1854.00,0.0043
1853.00,0.0043
1852.00,0.0043
1851.00,0.0043
1850.00,0.0042
1849.00,0.0042
1848.00,0.0042
1847.00,0.0043
1846.00,0.0043
1845.00,0.0042
1844.00,0.0041
1843.00,0.0038
1842.00,0.0037
1841.00,0.0039
1840.00,0.0042
1839.00,0.0044
1838.00,0.0045
1837.00,0.0045
1836.00,0.0045
1835.00,0.0046
1834.00,0.0046
1833.00,0.0046
1832.00,0.0045
1831.00,0.0043
1830.00,0.0040
1829.00,0.0038
1828.00,0.0038
1827.00,0.0039
1826.00,0.0041
1825.00,0.0042
1824.00,0.0043
1823.00,0.0043
1822.00,0.0045
1821.00,0.0046
1820.00,0.0047
1819.00,0.0047
1818.00,0.0046
1817.00,0.0046
1816.00,0.0047
1815.00,0.0048
1814.00,0.0048
1813.00,0.0049
1812.00,0.0050
1811.00,0.0050
1810.00,0.0050
1809.00,0.0050
1808.00,0.0051
1807.00,0.0052
1806.00,0.0053
1805.00,0.0053
1804.00,0.0054
1803.00,0.0053
1802.00,0.0052
1801.00,0.0050
1800.00,0.0049
1799.00,0.0049
1798.00,0.0049
1797.00,0.0051
1796.00,0.0054
1795.00,0.0056
1794.00,0.0056
1793.00,0.0054
1792.00,0.0052
1791.00,0.0049
1790.00,0.0048
1789.00,0.0050
1788.00,0.0054
1787.00,0.0058
1786.00,0.0059
1785.00,0.0059
1784.00,0.0059
1783.00,0.0058
1782.00,0.0058
1781.00,0.0057
1780.00,0.0058
1779.00,0.0058
1778.00,0.0058
1777.00,0.0059
1776.00,0.0061
1775.00,0.0062
1774.00,0.0064
1773.00,0.0064
1772.00,0.0062
1771.00,0.0057
1770.00,0.0054
1769.00,0.0055
1768.00,0.0059
1767.00,0.0063
1766.00,0.0065
1765.00,0.0067
1764.00,0.0069
1763.00,0.0071
1762.00,0.0070
1761.00,0.0069
1760.00,0.0069
1759.00,0.0071
1758.00,0.0074
1757.00,0.0076
1756.00,0.0078
1755.00,0.0080
1754.00,0.0085
1753.00,0.0092
1752.00,0.0100
1751.00,0.0107
1750.00,0.0114
1749.00,0.0125
1748.00,0.0144
1747.00,0.0169
1746.00,0.0200
1745.00,0.0236
1744.00,0.0279
1743.00,0.0323
1742.00,0.0365
1741.00,0.0403
1740.00,0.0437
1739.00,0.0460
1738.00,0.0468
1737.00,0.0467
1736.00,0.0457
1735.00,0.0430
1734.00,0.0384
1733.00,0.0335
1732.00,0.0298
1731.00,0.0267
1730.00,0.0239
1729.00,0.0217
1728.00,0.0200
1727.00,0.0187
1726.00,0.0177
1725.00,0.0170
1724.00,0.0165
1723.00,0.0160
1722.00,0.0157
1721.00,0.0156
1720.00,0.0157
1719.00,0.0160
1718.00,0.0162
1717.00,0.0166
1716.00,0.0170
1715.00,0.0172
1714.00,0.0174
1713.00,0.0182
1712.00,0.0195
1711.00,0.0209
1710.00,0.0223
1709.00,0.0238
1708.00,0.0253
1707.00,0.0270
1706.00,0.0289
1705.00,0.0311
1704.00,0.0336
1703.00,0.0361
1702.00,0.0388
1701.00,0.0419
1700.00,0.0451
1699.00,0.0478
1698.00,0.0504
1697.00,0.0537
1696.00,0.0573
1695.00,0.0603
1694.00,0.0620
1693.00,0.0635
1692.00,0.0653
1691.00,0.0676
1690.00,0.0701
1689.00,0.0726
1688.00,0.0752
1687.00,0.0779
1686.00,0.0809
1685.00,0.0842
1684.00,0.0875
1683.00,0.0900
1682.00,0.0919
1681.00,0.0945
1680.00,0.0977
1679.00,0.1010
1678.00,0.1039
1677.00,0.1068
1676.00,0.1099
1675.00,0.1131
1674.00,0.1162
1673.00,0.1192
1672.00,0.1223
1671.00,0.1255
1670.00,0.1292
1669.00,0.1331
1668.00,0.1371
1667.00,0.1408
1666.00,0.1443
1665.00,0.1478
1664.00,0.1515
1663.00,0.1555
1662.00,0.1594
1661.00,0.1633
1660.00,0.1672
1659.00,0.1708
1658.00,0.1742
1657.00,0.1773
1656.00,0.1801
1655.00,0.1830
1654.00,0.1861
1653.00,0.1896
1652.00,0.1924
1651.00,0.1939
1650.00,0.1946
1649.00,0.1949
1648.00,0.1955
1647.00,0.1965
1646.00,0.1974
1645.00,0.1980
1644.00,0.1986
1643.00,0.1990
1642.00,0.1991
1641.00,0.1991
1640.00,0.1989
1639.00,0.1985
1638.00,0.1978
1637.00,0.1969
1636.00,0.1957
1635.00,0.1944
1634.00,0.1933
1633.00,0.1927
1632.00,0.1926
1631.00,0.1923
1630.00,0.1918
1629.00,0.1908
1628.00,0.1898
1627.00,0.1890
1626.00,0.1881
1625.00,0.1872
1624.00,0.1859
1623.00,0.1842
1622.00,0.1825
1621.00,0.1810
1620.00,0.1796
1619.00,0.1780
1618.00,0.1758
1617.00,0.1725
1616.00,0.1684
1615.00,0.1641
1614.00,0.1601
1613.00,0.1561
1612.00,0.1519
1611.00,0.1473
1610.00,0.1425
1609.00,0.1376
1608.00,0.1327
1607.00,0.1280
1606.00,0.1235
1605.00,0.1194
1604.00,0.1154
1603.00,0.1117
1602.00,0.1082
1601.00,0.1051
1600.00,0.1022
1599.00,0.0996
1598.00,0.0973
1597.00,0.0951
1596.00,0.0930
1595.00,0.0909
1594.00,0.0891
1593.00,0.0874
1592.00,0.0857
1591.00,0.0841
1590.00,0.0828
1589.00,0.0817
1588.00,0.0807
1587.00,0.0798
1586.00,0.0791
1585.00,0.0787
1584.00,0.0783
1583.00,0.0780
1582.00,0.0780
1581.00,0.0781
1580.00,0.0783
1579.00,0.0786
1578.00,0.0795
1577.00,0.0808
1576.00,0.0820
1575.00,0.0827
1574.00,0.0831
1573.00,0.0836
1572.00,0.0844
1571.00,0.0854
1570.00,0.0869
1569.00,0.0886
1568.00,0.0903
1567.00,0.0922
1566.00,0.0944
1565.00,0.0969
1564.00,0.0992
1563.00,0.1015
1562.00,0.1041
1561.00,0.1068
1560.00,0.1093
1559.00,0.1127
1558.00,0.1165
1557.00,0.1194
1556.00,0.1224
1555.00,0.1260
1554.00,0.1299
1553.00,0.1337
1552.00,0.1370
1551.00,0.1401
1550.00,0.1435
1549.00,0.1469
1548.00,0.1499
1547.00,0.1525
1546.00,0.1550
1545.00,0.1574
1544.00,0.1597
1543.00,0.1617
1542.00,0.1636
1541.00,0.1657
1540.00,0.1682
1539.00,0.1705
1538.00,0.1721
1537.00,0.1732
1536.00,0.1738
1535.00,0.1742
1534.00,0.1747
1533.00,0.1753
1532.00,0.1761
1531.00,0.1769
1530.00,0.1776
1529.00,0.1782
1528.00,0.1784
1527.00,0.1786
1526.00,0.1788
1525.00,0.1790
1524.00,0.1792
1523.00,0.1796
1522.00,0.1805
1521.00,0.1816
1520.00,0.1825
1519.00,0.1830
1518.00,0.1835
1517.00,0.1842
1516.00,0.1848
1515.00,0.1850
1514.00,0.1845
1513.00,0.1833
1512.00,0.1814
1511.00,0.1789
1510.00,0.1764
1509.00,0.1737
1508.00,0.1703
1507.00,0.1661
1506.00,0.1615
1505.00,0.1574
1504.00,0.1542
1503.00,0.1513
1502.00,0.1480
1501.00,0.1445
1500.00,0.1405
1499.00,0.1365
1498.00,0.1323
1497.00,0.1281
1496.00,0.1240
1495.00,0.1201
1494.00,0.1165
1493.00,0.1129
1492.00,0.1092
1491.00,0.1052
1490.00,0.1010
1489.00,0.0972
1488.00,0.0941
1487.00,0.0915
1486.00,0.0893
1485.00,0.0874
1484.00,0.0857
1483.00,0.0842
1482.00,0.0828
1481.00,0.0816
1480.00,0.0808
1479.00,0.0803
1478.00,0.0801
1477.00,0.0801
1476.00,0.0806
1475.00,0.0816
1474.00,0.0832
1473.00,0.0858
1472.00,0.0893
1471.00,0.0930
1470.00,0.0965
1469.00,0.0997
1468.00,0.1025
1467.00,0.1045
1466.00,0.1059
1465.00,0.1067
1464.00,0.1074
1463.00,0.1078
1462.00,0.1081
1461.00,0.1082
1460.00,0.1082
1459.00,0.1084
1458.00,0.1092
1457.00,0.1102
1456.00,0.1109
1455.00,0.1110
1454.00,0.1107
1453.00,0.1101
1452.00,0.1094
1451.00,0.1086
1450.00,0.1076
1449.00,0.1063
1448.00,0.1049
1447.00,0.1036
1446.00,0.1024
1445.00,0.1013
1444.00,0.1001
1443.00,0.0988
1442.00,0.0974
1441.00,0.0960
1440.00,0.0945
1439.00,0.0931
1438.00,0.0915
1437.00,0.0893
1436.00,0.0870
1435.00,0.0853
1434.00,0.0840
1433.00,0.0829
1432.00,0.0818
1431.00,0.0806
1430.00,0.0794
1429.00,0.0785
1428.00,0.0780
1427.00,0.0778
1426.00,0.0778
1425.00,0.0779
1424.00,0.0781
1423.00,0.0786
1422.00,0.0793
1421.00,0.0800
1420.00,0.0808
1419.00,0.0814
1418.00,0.0821
1417.00,0.0827
1416.00,0.0834
1415.00,0.0842
1414.00,0.0849
1413.00,0.0853
1412.00,0.0857
1411.00,0.0860
1410.00,0.0862
1409.00,0.0862
1408.00,0.0863
1407.00,0.0862
1406.00,0.0861
1405.00,0.0860
1404.00,0.0859
1403.00,0.0859
1402.00,0.0859
1401.00,0.0859
1400.00,0.0858
1399.00,0.0858
1398.00,0.0859
1397.00,0.0862
1396.00,0.0867
1395.00,0.0872
1394.00,0.0878
1393.00,0.0883
1392.00,0.0890
1391.00,0.0897
1390.00,0.0903
1389.00,0.0909
1388.00,0.0914
1387.00,0.0919
1386.00,0.0924
1385.00,0.0928
1384.00,0.0932
1383.00,0.0934
1382.00,0.0936
1381.00,0.0939
1380.00,0.0942
1379.00,0.0945
1378.00,0.0945
1377.00,0.0941
1376.00,0.0932
1375.00,0.0921
1374.00,0.0908
1373.00,0.0897
1372.00,0.0890
1371.00,0.0885
1370.00,0.0882
1369.00,0.0879
1368.00,0.0875
1367.00,0.0869
1366.00,0.0861
1365.00,0.0849
1364.00,0.0835
1363.00,0.0820
1362.00,0.0808
1361.00,0.0799
1360.00,0.0793
1359.00,0.0790
1358.00,0.0788
1357.00,0.0787
1356.00,0.0786
1355.00,0.0786
1354.00,0.0786
1353.00,0.0786
1352.00,0.0787
1351.00,0.0787
1350.00,0.0788
1349.00,0.0789
1348.00,0.0791
1347.00,0.0792
1346.00,0.0794
1345.00,0.0796
1344.00,0.0799
1343.00,0.0801
1342.00,0.0803
1341.00,0.0805
1340.00,0.0806
1339.00,0.0808
1338.00,0.0809
1337.00,0.0809
1336.00,0.0808
1335.00,0.0806
1334.00,0.0804
1333.00,0.0802
1332.00,0.0799
1331.00,0.0796
1330.00,0.0793
1329.00,0.0790
1328.00,0.0787
1327.00,0.0785
1326.00,0.0783
1325.00,0.0781
1324.00,0.0780
1323.00,0.0780
1322.00,0.0780
1321.00,0.0780
1320.00,0.0781
1319.00,0.0783
1318.00,0.0785
1317.00,0.0787
1316.00,0.0789
1315.00,0.0792
1314.00,0.0795
1313.00,0.0798
1312.00,0.0801
1311.00,0.0804
1310.00,0.0806
1309.00,0.0809
1308.00,0.0810
1307.00,0.0812
1306.00,0.0813
1305.00,0.0813
1304.00,0.0813
1303.00,0.0812
1302.00,0.0810
1301.00,0.0808
1300.00,0.0805
1299.00,0.0801
1298.00,0.0798
1297.00,0.0794
1296.00,0.0790
1295.00,0.0786
1294.00,0.0783
1293.00,0.0780
1292.00,0.0778
1291.00,0.0777
1290.00,0.0776
1289.00,0.0775
1288.00,0.0775
1287.00,0.0775
1286.00,0.0776
1285.00,0.0777
1284.00,0.0778
1283.00,0.0780
1282.00,0.0782
1281.00,0.0784
1280.00,0.0787
1279.00,0.0790
1278.00,0.0794
1277.00,0.0797
1276.00,0.0802
1275.00,0.0807
1274.00,0.0812
1273.00,0.0817
1272.00,0.0823
1271.00,0.0829
1270.00,0.0835
1269.00,0.0842
1268.00,0.0848
1267.00,0.0855
1266.00,0.0862
1265.00,0.0870
1264.00,0.0877
1263.00,0.0884
1262.00,0.0891
1261.00,0.0898
1260.00,0.0905
1259.00,0.0912
1258.00,0.0919
1257.00,0.0927
1256.00,0.0934
1255.00,0.0942
1254.00,0.0949
1253.00,0.0957
1252.00,0.0965
1251.00,0.0973
1250.00,0.0980
1249.00,0.0988
1248.00,0.0995
1247.00,0.1002
1246.00,0.1008
1245.00,0.1015
1244.00,0.1021
1243.00,0.1026
1242.00,0.1031
1241.00,0.1036
1240.00,0.1040
1239.00,0.1044
1238.00,0.1047
1237.00,0.1050
1236.00,0.1051
1235.00,0.1052
1234.00,0.1051
1233.00,0.1050
1232.00,0.1048
1231.00,0.1045
1230.00,0.1040
1229.00,0.1035
1228.00,0.1029
1227.00,0.1021
1226.00,0.1012
1225.00,0.1003
1224.00,0.0992
1223.00,0.0981
1222.00,0.0970
1221.00,0.0958
1220.00,0.0947
1219.00,0.0934
1218.00,0.0922
1217.00,0.0909
1216.00,0.0896
1215.00,0.0884
1214.00,0.0872
1213.00,0.0860
1212.00,0.0848
1211.00,0.0837
1210.00,0.0826
1209.00,0.0815
1208.00,0.0805
1207.00,0.0794
1206.00,0.0784
1205.00,0.0774
1204.00,0.0765
1203.00,0.0755
1202.00,0.0746
1201.00,0.0738
1200.00,0.0731
1199.00,0.0725
1198.00,0.0720
1197.00,0.0716
1196.00,0.0713
1195.00,0.0711
1194.00,0.0710
1193.00,0.0710
1192.00,0.0711
1191.00,0.0712
1190.00,0.0714
1189.00,0.0717
1188.00,0.0720
1187.00,0.0723
1186.00,0.0727
1185.00,0.0732
1184.00,0.0738
1183.00,0.0745
1182.00,0.0754
1181.00,0.0764
1180.00,0.0776
1179.00,0.0790
1178.00,0.0806
1177.00,0.0822
1176.00,0.0840
1175.00,0.0858
1174.00,0.0875
1173.00,0.0890
1172.00,0.0904
1171.00,0.0915
1170.00,0.0923
1169.00,0.0929
1168.00,0.0932
1167.00,0.0932
1166.00,0.0931
1165.00,0.0928
1164.00,0.0923
1163.00,0.0916
1162.00,0.0908
1161.00,0.0897
1160.00,0.0885
1159.00,0.0871
1158.00,0.0857
1157.00,0.0842
1156.00,0.0827
1155.00,0.0813
1154.00,0.0799
1153.00,0.0786
1152.00,0.0773
1151.00,0.0761
1150.00,0.0750
1149.00,0.0739
1148.00,0.0728
1147.00,0.0719
1146.00,0.0710
1145.00,0.0701
1144.00,0.0692
1143.00,0.0683
1142.00,0.0675
1141.00,0.0667
1140.00,0.0660
1139.00,0.0652
1138.00,0.0645
1137.00,0.0639
1136.00,0.0634
1135.00,0.0630
1134.00,0.0627
1133.00,0.0625
1132.00,0.0624
1131.00,0.0623
1130.00,0.0623
1129.00,0.0622
1128.00,0.0621
1127.00,0.0620
1126.00,0.0618
1125.00,0.0616
1124.00,0.0613
1123.00,0.0609
1122.00,0.0606
1121.00,0.0603
1120.00,0.0600
1119.00,0.0598
1118.00,0.0596
1117.00,0.0594
1116.00,0.0592
1115.00,0.0590
1114.00,0.0588
1113.00,0.0587
1112.00,0.0586
1111.00,0.0586
1110.00,0.0586
1109.00,0.0587
1108.00,0.0588
1107.00,0.0588
1106.00,0.0589
1105.00,0.0588
1104.00,0.0587
1103.00,0.0586
1102.00,0.0584
1101.00,0.0582
1100.00,0.0580
1099.00,0.0578
1098.00,0.0576
1097.00,0.0575
1096.00,0.0574
1095.00,0.0575
1094.00,0.0577
1093.00,0.0579
1092.00,0.0582
1091.00,0.0587
1090.00,0.0592
1089.00,0.0597
1088.00,0.0603
1087.00,0.0610
1086.00,0.0616
1085.00,0.0622
1084.00,0.0628
1083.00,0.0634
1082.00,0.0639
1081.00,0.0645
1080.00,0.0649
1079.00,0.0654
1078.00,0.0658
1077.00,0.0662
1076.00,0.0665
1075.00,0.0667
1074.00,0.0670
1073.00,0.0672
1072.00,0.0674
1071.00,0.0675
1070.00,0.0676
1069.00,0.0677
1068.00,0.0678
1067.00,0.0678
1066.00,0.0679
1065.00,0.0679
1064.00,0.0679
1063.00,0.0679
1062.00,0.0678
1061.00,0.0677
1060.00,0.0675
1059.00,0.0673
1058.00,0.0671
1057.00,0.0669
1056.00,0.0666
1055.00,0.0662
1054.00,0.0657
1053.00,0.0651
1052.00,0.0646
1051.00,0.0641
1050.00,0.0636
1049.00,0.0631
1048.00,0.0626
1047.00,0.0622
1046.00,0.0618
1045.00,0.0615
1044.00,0.0612
1043.00,0.0609
1042.00,0.0606
1041.00,0.0603
1040.00,0.0601
1039.00,0.0599
1038.00,0.0596
1037.00,0.0594
1036.00,0.0591
1035.00,0.0588
1034.00,0.0585
1033.00,0.0581
1032.00,0.0578
1031.00,0.0573
1030.00,0.0567
1029.00,0.0561
1028.00,0.0554
1027.00,0.0547
1026.00,0.0540
1025.00,0.0532
1024.00,0.0524
1023.00,0.0516
1022.00,0.0509
1021.00,0.0504
1020.00,0.0499
1019.00,0.0495
1018.00,0.0492
1017.00,0.0489
1016.00,0.0485
1015.00,0.0482
1014.00,0.0479
1013.00,0.0475
1012.00,0.0471
1011.00,0.0467
1010.00,0.0462
1009.00,0.0456
1008.00,0.0451
1007.00,0.0445
1006.00,0.0440
1005.00,0.0435
1004.00,0.0430
1003.00,0.0425
1002.00,0.0421
1001.00,0.0416
1000.00,0.0412
999.00,0.0408
998.00,0.0405
997.00,0.0402
996.00,0.0399
995.00,0.0397
994.00,0.0395
993.00,0.0393
992.00,0.0392
991.00,0.0390
990.00,0.0389
989.00,0.0388
988.00,0.0387
987.00,0.0387
986.00,0.0386
985.00,0.0387
984.00,0.0387
983.00,0.0389
982.00,0.0390
981.00,0.0392
980.00,0.0393
979.00,0.0395
978.00,0.0397
977.00,0.0399
976.00,0.0401
975.00,0.0403
974.00,0.0405
973.00,0.0406
972.00,0.0407
971.00,0.0408
970.00,0.0410
969.00,0.0411
968.00,0.0412
967.00,0.0413
966.00,0.0414
965.00,0.0414
964.00,0.0414
963.00,0.0414
962.00,0.0414
961.00,0.0413
960.00,0.0411
959.00,0.0409
958.00,0.0407
957.00,0.0404
956.00,0.0401
955.00,0.0399
954.00,0.0397
953.00,0.0396
952.00,0.0395
951.00,0.0394
950.00,0.0393
949.00,0.0393
948.00,0.0393
947.00,0.0393
946.00,0.0393
945.00,0.0393
944.00,0.0392
943.00,0.0392
942.00,0.0391
941.00,0.0391
940.00,0.0391
939.00,0.0391
938.00,0.0391
937.00,0.0391
936.00,0.0390
935.00,0.0390
934.00,0.0390
933.00,0.0390
932.00,0.0391
931.00,0.0391
930.00,0.0391
929.00,0.0391
928.00,0.0390
927.00,0.0390
926.00,0.0389
925.00,0.0388
924.00,0.0386
923.00,0.0384
922.00,0.0383
921.00,0.0380
920.00,0.0377
919.00,0.0375
918.00,0.0372
917.00,0.0369
916.00,0.0367
915.00,0.0365
914.00,0.0364
913.00,0.0364
912.00,0.0364
911.00,0.0365
910.00,0.0366
909.00,0.0366
908.00,0.0366
907.00,0.0366
906.00,0.0366
905.00,0.0366
904.00,0.0366
903.00,0.0365
902.00,0.0365
901.00,0.0364
900.00,0.0363
899.00,0.0363
898.00,0.0362
897.00,0.0362
896.00,0.0361
895.00,0.0361
894.00,0.0360
893.00,0.0360
892.00,0.0359
891.00,0.0359
890.00,0.0359
889.00,0.0359
888.00,0.0359
887.00,0.0359
886.00,0.0358
885.00,0.0358
884.00,0.0357
883.00,0.0357
882.00,0.0357
881.00,0.0357
880.00,0.0357
879.00,0.0357
878.00,0.0357
877.00,0.0357
876.00,0.0357
875.00,0.0358
874.00,0.0358
873.00,0.0359
872.00,0.0359
871.00,0.0358
870.00,0.0358
869.00,0.0358
868.00,0.0359
867.00,0.0359
866.00,0.0359
865.00,0.0360
864.00,0.0360
863.00,0.0361
862.00,0.0362
861.00,0.0364
860.00,0.0366
859.00,0.0368
858.00,0.0370
857.00,0.0373
856.00,0.0376
855.00,0.0380
854.00,0.0383
853.00,0.0386
852.00,0.0388
851.00,0.0389
850.00,0.0390
849.00,0.0391
848.00,0.0391
847.00,0.0391
846.00,0.0391
845.00,0.0392
844.00,0.0393
843.00,0.0395
842.00,0.0397
841.00,0.0400
840.00,0.0403
839.00,0.0407
838.00,0.0410
837.00,0.0414
836.00,0.0418
835.00,0.0422
834.00,0.0428
833.00,0.0433
832.00,0.0439
831.00,0.0445
830.00,0.0451
829.00,0.0455
828.00,0.0459
827.00,0.0461
826.00,0.0460
825.00,0.0459
824.00,0.0457
823.00,0.0456
822.00,0.0455
821.00,0.0455
820.00,0.0455
819.00,0.0457
818.00,0.0459
817.00,0.0462
816.00,0.0465
815.00,0.0468
814.00,0.0471
813.00,0.0474
812.00,0.0478
811.00,0.0481
810.00,0.0485
809.00,0.0489
808.00,0.0492
807.00,0.0495
806.00,0.0497
805.00,0.0500
804.00,0.0502
803.00,0.0505
802.00,0.0508
801.00,0.0510
800.00,0.0513
799.00,0.0515
798.00,0.0518
797.00,0.0521
796.00,0.0524
795.00,0.0527
794.00,0.0531
793.00,0.0535
792.00,0.0539
791.00,0.0544
790.00,0.0549
789.00,0.0553
788.00,0.0558
787.00,0.0563
786.00,0.0568
785.00,0.0574
784.00,0.0579
783.00,0.0584
782.00,0.0590
781.00,0.0595
780.00,0.0600
779.00,0.0606
778.00,0.0611
777.00,0.0617
776.00,0.0623
775.00,0.0629
774.00,0.0635
773.00,0.0640
772.00,0.0645
771.00,0.0651
770.00,0.0656
769.00,0.0661
768.00,0.0666
767.00,0.0670
766.00,0.0675
765.00,0.0679
764.00,0.0683
763.00,0.0687
762.00,0.0690
761.00,0.0694
760.00,0.0697
759.00,0.0701
758.00,0.0705
757.00,0.0709
756.00,0.0714
755.00,0.0718
754.00,0.0723
753.00,0.0728
752.00,0.0733
751.00,0.0738
750.00,0.0743
749.00,0.0749
748.00,0.0754
747.00,0.0760
746.00,0.0766
745.00,0.0771
744.00,0.0777
743.00,0.0782
742.00,0.0786
741.00,0.0791
740.00,0.0796
739.00,0.0801
738.00,0.0807
737.00,0.0812
736.00,0.0819
735.00,0.0826
734.00,0.0834
733.00,0.0845
732.00,0.0858
731.00,0.0871
730.00,0.0884
729.00,0.0895
728.00,0.0906
727.00,0.0917
726.00,0.0930
725.00,0.0945
724.00,0.0963
723.00,0.0980
722.00,0.0997
721.00,0.1011
720.00,0.1020
719.00,0.1024
718.00,0.1023
717.00,0.1021
716.00,0.1021
715.00,0.1022
714.00,0.1025
713.00,0.1029
712.00,0.1034
711.00,0.1040
710.00,0.1046
709.00,0.1053
708.00,0.1061
707.00,0.1069
706.00,0.1077
705.00,0.1086
704.00,0.1095
703.00,0.1105
702.00,0.1114
701.00,0.1121
700.00,0.1128
699.00,0.1133
698.00,0.1137
697.00,0.1141
696.00,0.1143
695.00,0.1145
694.00,0.1146
693.00,0.1147
692.00,0.1149
691.00,0.1151
690.00,0.1153
689.00,0.1155
688.00,0.1158
687.00,0.1161
686.00,0.1164
685.00,0.1168
684.00,0.1173
683.00,0.1178
682.00,0.1182
681.00,0.1186
680.00,0.1190
679.00,0.1195
678.00,0.1200
677.00,0.1205
676.00,0.1210
675.00,0.1215
674.00,0.1219
673.00,0.1223
672.00,0.1226
671.00,0.1229
670.00,0.1230
669.00,0.1233
668.00,0.1239
667.00,0.1247
666.00,0.1252
665.00,0.1255
664.00,0.1259
663.00,0.1263
662.00,0.1266
661.00,0.1269
660.00,0.1272
659.00,0.1275
658.00,0.1277
657.00,0.1280
656.00,0.1282
655.00,0.1285
654.00,0.1288
653.00,0.1290
652.00,0.1293
651.00,0.1295
650.00,0.1298
649.00,0.1301
648.00,0.1305
647.00,0.1309
646.00,0.1312
645.00,0.1316
644.00,0.1319
643.00,0.1323
642.00,0.1327
641.00,0.1332
640.00,0.1336
639.00,0.1341
638.00,0.1346
637.00,0.1351
636.00,0.1355
635.00,0.1360
634.00,0.1364
633.00,0.1369
632.00,0.1374
631.00,0.1379
630.00,0.1383
629.00,0.1388
628.00,0.1393
627.00,0.1397
626.00,0.1400
625.00,0.1402
624.00,0.1405
623.00,0.1408
622.00,0.1411
621.00,0.1416
620.00,0.1421
619.00,0.1425
618.00,0.1428
617.00,0.1431
616.00,0.1434
615.00,0.1437
614.00,0.1439
613.00,0.1442
612.00,0.1445
611.00,0.1448
610.00,0.1450
609.00,0.1451
608.00,0.1450
607.00,0.1449
606.00,0.1449
605.00,0.1450
604.00,0.1452
603.00,0.1455
602.00,0.1457
601.00,0.1458
600.00,0.1459
599.00,0.1459
598.00,0.1459
597.00,0.1459
596.00,0.1460
595.00,0.1462
594.00,0.1464
593.00,0.1466
592.00,0.1468
591.00,0.1471
590.00,0.1473
589.00,0.1475
588.00,0.1478
587.00,0.1481
586.00,0.1485
585.00,0.1490
584.00,0.1495
583.00,0.1499
582.00,0.1502
581.00,0.1505
580.00,0.1509
579.00,0.1513
578.00,0.1517
577.00,0.1523
576.00,0.1528
575.00,0.1532
574.00,0.1535
573.00,0.1538
572.00,0.1543
571.00,0.1548
570.00,0.1552
569.00,0.1555
568.00,0.1559
567.00,0.1564
566.00,0.1570
565.00,0.1577
564.00,0.1585
563.00,0.1591
562.00,0.1596
561.00,0.1601
560.00,0.1607
559.00,0.1611
558.00,0.1615
557.00,0.1618
556.00,0.1623
555.00,0.1629
554.00,0.1635
553.00,0.1641
552.00,0.1646
551.00,0.1649
550.00,0.1651
549.00,0.1653
548.00,0.1657
547.00,0.1662
546.00,0.1666
545.00,0.1668
544.00,0.1669
543.00,0.1670
542.00,0.1672
541.00,0.1674
540.00,0.1677
539.00,0.1680
538.00,0.1681
537.00,0.1683
536.00,0.1685
535.00,0.1687
534.00,0.1688
533.00,0.1689
532.00,0.1692
531.00,0.1695
530.00,0.1697
529.00,0.1700
528.00,0.1703
527.00,0.1706
526.00,0.1708
525.00,0.1710
524.00,0.1713
523.00,0.1715
522.00,0.1715
521.00,0.1715
520.00,0.1716
519.00,0.1716
518.00,0.1713
517.00,0.1710
516.00,0.1709
515.00,0.1708
514.00,0.1706
513.00,0.1703
512.00,0.1701
511.00,0.1698
510.00,0.1693
509.00,0.1687
508.00,0.1681
507.00,0.1676
506.00,0.1670
505.00,0.1665
504.00,0.1662
503.00,0.1658
502.00,0.1654
501.00,0.1651
500.00,0.1648
499.00,0.1646
498.00,0.1645
497.00,0.1645
496.00,0.1646
495.00,0.1646
494.00,0.1645
493.00,0.1644
492.00,0.1645
491.00,0.1646
490.00,0.1646
489.00,0.1645
488.00,0.1646
487.00,0.1645
486.00,0.1643
485.00,0.1642
484.00,0.1642
483.00,0.1641
482.00,0.1639
481.00,0.1636
480.00,0.1635
479.00,0.1637
478.00,0.1639
477.00,0.1642
476.00,0.1644
475.00,0.1643
474.00,0.1638
473.00,0.1635
472.00,0.1635
471.00,0.1638
470.00,0.1641
469.00,0.1643
468.00,0.1644
467.00,0.1644
466.00,0.1641
465.00,0.1638
464.00,0.1635
463.00,0.1632
462.00,0.1628
461.00,0.1624
460.00,0.1620
459.00,0.1613
458.00,0.1606
457.00,0.1603
456.00,0.1605
455.00,0.1606
454.00,0.1602
453.00,0.1596
452.00,0.1591
451.00,0.1587
450.00,0.1582
449.00,0.1576
448.00,0.1572
447.00,0.1569
446.00,0.1566
445.00,0.1563
444.00,0.1561
443.00,0.1558
442.00,0.1552
441.00,0.1547
440.00,0.1544
439.00,0.1543
438.00,0.1540
437.00,0.1535
436.00,0.1529
435.00,0.1523
434.00,0.1516
433.00,0.1511
432.00,0.1508
431.00,0.1505
430.00,0.1501
429.00,0.1500
428.00,0.1501
427.00,0.1502
426.00,0.1498
425.00,0.1495
424.00,0.1495
423.00,0.1496
422.00,0.1494
421.00,0.1489
420.00,0.1484
419.00,0.1480
418.00,0.1478
417.00,0.1481
416.00,0.1486
415.00,0.1488
414.00,0.1485
413.00,0.1481
412.00,0.1476
411.00,0.1469
410.00,0.1458
409.00,0.1447
408.00,0.1439
407.00,0.1433
406.00,0.1428
405.00,0.1430
404.00,0.1437
403.00,0.1438
402.00,0.1428
401.00,0.1413
400.00,0.1403
