Created as New Dataset,Sample 376 By YargerLab Date Sunday, November 16 2025
cm-1,A
4000.00,0.0104
3999.00,0.0104
3998.00,0.0103
3997.00,0.0103
3996.00,0.0103
3995.00,0.0103
3994.00,0.0104
3993.00,0.0104
3992.00,0.0104
3991.00,0.0104
3990.00,0.0104
3989.00,0.0104
3988.00,0.0104
3987.00,0.0104
3986.00,0.0104
3985.00,0.0104
3984.00,0.0104
3983.00,0.0104
3982.00,0.0104
3981.00,0.0104
3980.00,0.0104
3979.00,0.0104
3978.00,0.0104
3977.00,0.0104
3976.00,0.0104
3975.00,0.0104
3974.00,0.0104
3973.00,0.0104
3972.00,0.0104
3971.00,0.0104
3970.00,0.0104
3969.00,0.0104
3968.00,0.0104
3967.00,0.0104
3966.00,0.0104
3965.00,0.0104
3964.00,0.0104
3963.00,0.0104
3962.00,0.0104
3961.00,0.0104
3960.00,0.0104
3959.00,0.0104
3958.00,0.0104
3957.00,0.0104
3956.00,0.0104
3955.00,0.0104
3954.00,0.0104
3953.00,0.0104
3952.00,0.0104
3951.00,0.0104
3950.00,0.0104
3949.00,0.0104
3948.00,0.0104
3947.00,0.0104
3946.00,0.0104
3945.00,0.0104
3944.00,0.0104
3943.00,0.0104
3942.00,0.0104
3941.00,0.0104
3940.00,0.0104
3939.00,0.0104
3938.00,0.0104
3937.00,0.0104
3936.00,0.0104
3935.00,0.0104
3934.00,0.0103
3933.00,0.0103
3932.00,0.0103
3931.00,0.0103
3930.00,0.0103
3929.00,0.0103
3928.00,0.0103
3927.00,0.0103
3926.00,0.0103
3925.00,0.0103
3924.00,0.0103
3923.00,0.0103
3922.00,0.0103
3921.00,0.0103
3920.00,0.0103
3919.00,0.0103
3918.00,0.0103
3917.00,0.0103
3916.00,0.0103
3915.00,0.0103
3914.00,0.0103
3913.00,0.0103
3912.00,0.0103
3911.00,0.0103
3910.00,0.0103
3909.00,0.0103
3908.00,0.0103
3907.00,0.0103
3906.00,0.0103
3905.00,0.0103
3904.00,0.0102
3903.00,0.0102
3902.00,0.0102
3901.00,0.0102
3900.00,0.0102
3899.00,0.0102
3898.00,0.0102
3897.00,0.0102
3896.00,0.0102
3895.00,0.0103
3894.00,0.0103
3893.00,0.0103
3892.00,0.0103
3891.00,0.0103
3890.00,0.0103
3889.00,0.0102
3888.00,0.0102
3887.00,0.0102
3886.00,0.0102
3885.00,0.0102
3884.00,0.0102
3883.00,0.0102
3882.00,0.0102
3881.00,0.0102
3880.00,0.0102
3879.00,0.0102
3878.00,0.0102
3877.00,0.0102
3876.00,0.0103
3875.00,0.0103
3874.00,0.0102
3873.00,0.0102
3872.00,0.0102
3871.00,0.0102
3870.00,0.0102
3869.00,0.0102
3868.00,0.0103
3867.00,0.0102
3866.00,0.0102
3865.00,0.0102
3864.00,0.0102
3863.00,0.0102
3862.00,0.0102
3861.00,0.0102
3860.00,0.0102
3859.00,0.0102
3858.00,0.0102
3857.00,0.0102
3856.00,0.0102
3855.00,0.0102
3854.00,0.0102
3853.00,0.0102
3852.00,0.0102
3851.00,0.0101
3850.00,0.0101
3849.00,0.0101
3848.00,0.0102
3847.00,0.0102
3846.00,0.0102
3845.00,0.0102
3844.00,0.0102
3843.00,0.0101
3842.00,0.0101
3841.00,0.0101
3840.00,0.0101
3839.00,0.0101
3838.00,0.0101
3837.00,0.0101
3836.00,0.0101
3835.00,0.0101
3834.00,0.0102
3833.00,0.0102
3832.00,0.0102
3831.00,0.0102
3830.00,0.0101
3829.00,0.0101
3828.00,0.0101
3827.00,0.0101
3826.00,0.0101
3825.00,0.0101
3824.00,0.0102
3823.00,0.0102
3822.00,0.0102
3821.00,0.0102
3820.00,0.0102
3819.00,0.0101
3818.00,0.0101
3817.00,0.0100
3816.00,0.0100
3815.00,0.0100
3814.00,0.0101
3813.00,0.0101
3812.00,0.0101
3811.00,0.0101
3810.00,0.0101
3809.00,0.0101
3808.00,0.0101
3807.00,0.0101
3806.00,0.0100
3805.00,0.0100
3804.00,0.0100
3803.00,0.0100
3802.00,0.0100
3801.00,0.0100
3800.00,0.0100
3799.00,0.0100
3798.00,0.0100
3797.00,0.0100
3796.00,0.0100
3795.00,0.0101
3794.00,0.0101
3793.00,0.0101
3792.00,0.0101
3791.00,0.0101
3790.00,0.0101
3789.00,0.0101
3788.00,0.0101
3787.00,0.0101
3786.00,0.0101
3785.00,0.0101
3784.00,0.0101
3783.00,0.0101
3782.00,0.0100
3781.00,0.0100
3780.00,0.0100
3779.00,0.0100
3778.00,0.0100
3777.00,0.0100
3776.00,0.0100
3775.00,0.0101
3774.00,0.0101
3773.00,0.0101
3772.00,0.0100
3771.00,0.0100
3770.00,0.0100
3769.00,0.0100
3768.00,0.0100
3767.00,0.0100
3766.00,0.0100
3765.00,0.0100
3764.00,0.0100
3763.00,0.0100
3762.00,0.0100
3761.00,0.0100
3760.00,0.0100
3759.00,0.0100
3758.00,0.0100
3757.00,0.0100
3756.00,0.0100
3755.00,0.0100
3754.00,0.0100
3753.00,0.0100
3752.00,0.0099
3751.00,0.0099
3750.00,0.0099
3749.00,0.0099
3748.00,0.0099
3747.00,0.0098
3746.00,0.0098
3745.00,0.0098
3744.00,0.0098
3743.00,0.0098
3742.00,0.0099
3741.00,0.0099
3740.00,0.0099
3739.00,0.0099
3738.00,0.0098
3737.00,0.0098
3736.00,0.0098
3735.00,0.0098
3734.00,0.0098
3733.00,0.0098
3732.00,0.0098
3731.00,0.0098
3730.00,0.0098
3729.00,0.0098
3728.00,0.0098
3727.00,0.0098
3726.00,0.0098
3725.00,0.0098
3724.00,0.0098
3723.00,0.0098
3722.00,0.0098
3721.00,0.0098
3720.00,0.0098
3719.00,0.0098
3718.00,0.0098
3717.00,0.0098
3716.00,0.0098
3715.00,0.0098
3714.00,0.0097
3713.00,0.0097
3712.00,0.0097
3711.00,0.0096
3710.00,0.0096
3709.00,0.0096
3708.00,0.0096
3707.00,0.0097
3706.00,0.0097
3705.00,0.0097
3704.00,0.0097
3703.00,0.0097
3702.00,0.0097
3701.00,0.0097
3700.00,0.0097
3699.00,0.0097
3698.00,0.0097
3697.00,0.0097
3696.00,0.0097
3695.00,0.0097
3694.00,0.0097
3693.00,0.0097
3692.00,0.0097
3691.00,0.0098
3690.00,0.0098
3689.00,0.0098
3688.00,0.0098
3687.00,0.0097
3686.00,0.0097
3685.00,0.0098
3684.00,0.0098
3683.00,0.0098
3682.00,0.0098
3681.00,0.0098
3680.00,0.0098
3679.00,0.0098
3678.00,0.0098
3677.00,0.0098
3676.00,0.0098
3675.00,0.0098
3674.00,0.0098
3673.00,0.0097
3672.00,0.0097
3671.00,0.0098
3670.00,0.0098
3669.00,0.0099
3668.00,0.0099
3667.00,0.0100
3666.00,0.0100
3665.00,0.0100
3664.00,0.0101
3663.00,0.0101
3662.00,0.0101
3661.00,0.0101
3660.00,0.0101
3659.00,0.0101
3658.00,0.0101
3657.00,0.0102
3656.00,0.0102
3655.00,0.0103
3654.00,0.0103
3653.00,0.0102
3652.00,0.0102
3651.00,0.0101
3650.00,0.0102
3649.00,0.0102
3648.00,0.0103
3647.00,0.0103
3646.00,0.0104
3645.00,0.0104
3644.00,0.0104
3643.00,0.0105
3642.00,0.0105
3641.00,0.0105
3640.00,0.0106
3639.00,0.0107
3638.00,0.0107
3637.00,0.0108
3636.00,0.0108
3635.00,0.0108
3634.00,0.0108
3633.00,0.0108
3632.00,0.0108
3631.00,0.0108
3630.00,0.0108
3629.00,0.0109
3628.00,0.0109
3627.00,0.0109
3626.00,0.0109
3625.00,0.0110
3624.00,0.0110
3623.00,0.0111
3622.00,0.0111
3621.00,0.0112
3620.00,0.0112
3619.00,0.0113
3618.00,0.0113
3617.00,0.0113
3616.00,0.0114
3615.00,0.0114
3614.00,0.0115
3613.00,0.0115
3612.00,0.0116
3611.00,0.0116
3610.00,0.0117
3609.00,0.0117
3608.00,0.0118
3607.00,0.0118
3606.00,0.0119
3605.00,0.0119
3604.00,0.0119
3603.00,0.0119
3602.00,0.0119
3601.00,0.0120
3600.00,0.0120
3599.00,0.0121
3598.00,0.0121
3597.00,0.0121
3596.00,0.0122
3595.00,0.0123
3594.00,0.0123
3593.00,0.0124
3592.00,0.0124
3591.00,0.0124
3590.00,0.0124
3589.00,0.0125
3588.00,0.0125
3587.00,0.0126
3586.00,0.0127
3585.00,0.0127
3584.00,0.0128
3583.00,0.0128
3582.00,0.0128
3581.00,0.0129
3580.00,0.0129
3579.00,0.0129
3578.00,0.0130
3577.00,0.0130
3576.00,0.0131
3575.00,0.0131
3574.00,0.0132
3573.00,0.0132
3572.00,0.0133
3571.00,0.0133
3570.00,0.0133
3569.00,0.0133
3568.00,0.0134
3567.00,0.0135
3566.00,0.0136
3565.00,0.0136
3564.00,0.0137
3563.00,0.0137
3562.00,0.0138
3561.00,0.0138
3560.00,0.0139
3559.00,0.0139
3558.00,0.0140
3557.00,0.0140
3556.00,0.0141
3555.00,0.0141
3554.00,0.0142
3553.00,0.0142
3552.00,0.0143
3551.00,0.0143
3550.00,0.0144
3549.00,0.0144
3548.00,0.0145
3547.00,0.0146
3546.00,0.0147
3545.00,0.0148
3544.00,0.0149
3543.00,0.0149
3542.00,0.0149
3541.00,0.0150
3540.00,0.0150
3539.00,0.0151
3538.00,0.0151
3537.00,0.0152
3536.00,0.0153
3535.00,0.0153
3534.00,0.0153
3533.00,0.0153
3532.00,0.0154
3531.00,0.0154
3530.00,0.0155
3529.00,0.0155
3528.00,0.0156
3527.00,0.0156
3526.00,0.0157
3525.00,0.0157
3524.00,0.0158
3523.00,0.0158
3522.00,0.0158
3521.00,0.0159
3520.00,0.0159
3519.00,0.0159
3518.00,0.0160
3517.00,0.0161
3516.00,0.0161
3515.00,0.0162
3514.00,0.0162
3513.00,0.0163
3512.00,0.0163
3511.00,0.0163
3510.00,0.0163
3509.00,0.0164
3508.00,0.0164
3507.00,0.0165
3506.00,0.0165
3505.00,0.0166
3504.00,0.0166
3503.00,0.0167
3502.00,0.0167
3501.00,0.0167
3500.00,0.0168
3499.00,0.0168
3498.00,0.0168
3497.00,0.0168
3496.00,0.0169
3495.00,0.0169
3494.00,0.0169
3493.00,0.0170
3492.00,0.0170
3491.00,0.0170
3490.00,0.0170
3489.00,0.0171
3488.00,0.0171
3487.00,0.0172
3486.00,0.0172
3485.00,0.0172
3484.00,0.0172
3483.00,0.0173
3482.00,0.0173
3481.00,0.0173
3480.00,0.0173
3479.00,0.0174
3478.00,0.0174
3477.00,0.0174
3476.00,0.0174
3475.00,0.0174
3474.00,0.0175
3473.00,0.0175
3472.00,0.0175
3471.00,0.0176
3470.00,0.0176
3469.00,0.0177
3468.00,0.0177
3467.00,0.0177
3466.00,0.0177
3465.00,0.0177
3464.00,0.0177
3463.00,0.0178
3462.00,0.0178
3461.00,0.0178
3460.00,0.0179
3459.00,0.0179
3458.00,0.0179
3457.00,0.0179
3456.00,0.0179
3455.00,0.0179
3454.00,0.0180
3453.00,0.0180
3452.00,0.0180
3451.00,0.0181
3450.00,0.0181
3449.00,0.0182
3448.00,0.0182
3447.00,0.0182
3446.00,0.0183
3445.00,0.0183
3444.00,0.0183
3443.00,0.0183
3442.00,0.0183
3441.00,0.0184
3440.00,0.0185
3439.00,0.0185
3438.00,0.0186
3437.00,0.0187
3436.00,0.0187
3435.00,0.0187
3434.00,0.0188
3433.00,0.0188
3432.00,0.0189
3431.00,0.0190
3430.00,0.0190
3429.00,0.0191
3428.00,0.0191
3427.00,0.0192
3426.00,0.0193
3425.00,0.0194
3424.00,0.0194
3423.00,0.0195
3422.00,0.0195
3421.00,0.0196
3420.00,0.0197
3419.00,0.0198
3418.00,0.0199
3417.00,0.0200
3416.00,0.0201
3415.00,0.0201
3414.00,0.0202
3413.00,0.0203
3412.00,0.0203
3411.00,0.0204
3410.00,0.0205
3409.00,0.0206
3408.00,0.0206
3407.00,0.0207
3406.00,0.0208
3405.00,0.0209
3404.00,0.0210
3403.00,0.0210
3402.00,0.0211
3401.00,0.0212
3400.00,0.0212
3399.00,0.0213
3398.00,0.0214
3397.00,0.0215
3396.00,0.0215
3395.00,0.0216
3394.00,0.0217
3393.00,0.0217
3392.00,0.0218
3391.00,0.0219
3390.00,0.0220
3389.00,0.0221
3388.00,0.0221
3387.00,0.0222
3386.00,0.0223
3385.00,0.0224
3384.00,0.0224
3383.00,0.0225
3382.00,0.0226
3381.00,0.0227
3380.00,0.0228
3379.00,0.0229
3378.00,0.0229
3377.00,0.0230
3376.00,0.0231
3375.00,0.0232
3374.00,0.0233
3373.00,0.0234
3372.00,0.0235
3371.00,0.0236
3370.00,0.0237
3369.00,0.0238
3368.00,0.0240
3367.00,0.0241
3366.00,0.0242
3365.00,0.0244
3364.00,0.0245
3363.00,0.0246
3362.00,0.0247
3361.00,0.0249
3360.00,0.0251
3359.00,0.0253
3358.00,0.0255
3357.00,0.0256
3356.00,0.0258
3355.00,0.0260
3354.00,0.0262
3353.00,0.0264
3352.00,0.0266
3351.00,0.0268
3350.00,0.0270
3349.00,0.0272
3348.00,0.0275
3347.00,0.0278
3346.00,0.0281
3345.00,0.0283
3344.00,0.0286
3343.00,0.0289
3342.00,0.0292
3341.00,0.0295
3340.00,0.0298
3339.00,0.0301
3338.00,0.0304
3337.00,0.0308
3336.00,0.0312
3335.00,0.0316
3334.00,0.0320
3333.00,0.0324
3332.00,0.0328
3331.00,0.0332
3330.00,0.0337
3329.00,0.0341
3328.00,0.0346
3327.00,0.0351
3326.00,0.0356
3325.00,0.0361
3324.00,0.0366
3323.00,0.0371
3322.00,0.0377
3321.00,0.0383
3320.00,0.0388
3319.00,0.0394
3318.00,0.0400
3317.00,0.0406
3316.00,0.0412
3315.00,0.0418
3314.00,0.0424
3313.00,0.0430
3312.00,0.0436
3311.00,0.0442
3310.00,0.0449
3309.00,0.0455
3308.00,0.0462
3307.00,0.0469
3306.00,0.0476
3305.00,0.0483
3304.00,0.0490
3303.00,0.0497
3302.00,0.0504
3301.00,0.0511
3300.00,0.0518
3299.00,0.0525
3298.00,0.0531
3297.00,0.0538
3296.00,0.0544
3295.00,0.0550
3294.00,0.0556
3293.00,0.0563
3292.00,0.0569
3291.00,0.0574
3290.00,0.0580
3289.00,0.0585
3288.00,0.0589
3287.00,0.0593
3286.00,0.0597
3285.00,0.0600
3284.00,0.0602
3283.00,0.0605
3282.00,0.0606
3281.00,0.0608
3280.00,0.0608
3279.00,0.0608
3278.00,0.0608
3277.00,0.0606
3276.00,0.0605
3275.00,0.0603
3274.00,0.0600
3273.00,0.0597
3272.00,0.0593
3271.00,0.0590
3270.00,0.0586
3269.00,0.0582
3268.00,0.0578
3267.00,0.0574
3266.00,0.0569
3265.00,0.0564
3264.00,0.0558
3263.00,0.0553
3262.00,0.0548
3261.00,0.0542
3260.00,0.0537
3259.00,0.0532
3258.00,0.0526
3257.00,0.0521
3256.00,0.0515
3255.00,0.0510
3254.00,0.0505
3253.00,0.0501
3252.00,0.0496
3251.00,0.0491
3250.00,0.0486
3249.00,0.0480
3248.00,0.0476
3247.00,0.0471
3246.00,0.0467
3245.00,0.0464
3244.00,0.0461
3243.00,0.0457
3242.00,0.0453
3241.00,0.0449
3240.00,0.0445
3239.00,0.0442
3238.00,0.0438
3237.00,0.0434
3236.00,0.0430
3235.00,0.0426
3234.00,0.0422
3233.00,0.0420
3232.00,0.0417
3231.00,0.0415
3230.00,0.0412
3229.00,0.0410
3228.00,0.0407
3227.00,0.0404
3226.00,0.0401
3225.00,0.0398
3224.00,0.0396
3223.00,0.0393
3222.00,0.0390
3221.00,0.0387
3220.00,0.0384
3219.00,0.0382
3218.00,0.0380
3217.00,0.0377
3216.00,0.0375
3215.00,0.0373
3214.00,0.0370
3213.00,0.0367
3212.00,0.0365
3211.00,0.0362
3210.00,0.0360
3209.00,0.0358
3208.00,0.0356
3207.00,0.0353
3206.00,0.0351
3205.00,0.0349
3204.00,0.0347
3203.00,0.0345
3202.00,0.0343
3201.00,0.0341
3200.00,0.0339
3199.00,0.0337
3198.00,0.0335
3197.00,0.0332
3196.00,0.0330
3195.00,0.0328
3194.00,0.0326
3193.00,0.0324
3192.00,0.0322
3191.00,0.0319
3190.00,0.0317
3189.00,0.0315
3188.00,0.0313
3187.00,0.0311
3186.00,0.0310
3185.00,0.0308
3184.00,0.0306
3183.00,0.0304
3182.00,0.0302
3181.00,0.0301
3180.00,0.0299
3179.00,0.0297
3178.00,0.0296
3177.00,0.0294
3176.00,0.0292
3175.00,0.0290
3174.00,0.0288
3173.00,0.0287
3172.00,0.0285
3171.00,0.0284
3170.00,0.0282
3169.00,0.0280
3168.00,0.0279
3167.00,0.0277
3166.00,0.0276
3165.00,0.0274
3164.00,0.0273
3163.00,0.0272
3162.00,0.0270
3161.00,0.0269
3160.00,0.0268
3159.00,0.0267
3158.00,0.0266
3157.00,0.0264
3156.00,0.0263
3155.00,0.0262
3154.00,0.0260
3153.00,0.0259
3152.00,0.0258
3151.00,0.0258
3150.00,0.0257
3149.00,0.0256
3148.00,0.0255
3147.00,0.0255
3146.00,0.0254
3145.00,0.0253
3144.00,0.0252
3143.00,0.0251
3142.00,0.0250
3141.00,0.0249
3140.00,0.0248
3139.00,0.0248
3138.00,0.0248
3137.00,0.0248
3136.00,0.0248
3135.00,0.0247
3134.00,0.0247
3133.00,0.0246
3132.00,0.0246
3131.00,0.0245
3130.00,0.0245
3129.00,0.0244
3128.00,0.0244
3127.00,0.0245
3126.00,0.0245
3125.00,0.0244
3124.00,0.0244
3123.00,0.0244
3122.00,0.0243
3121.00,0.0243
3120.00,0.0243
3119.00,0.0243
3118.00,0.0243
3117.00,0.0243
3116.00,0.0243
3115.00,0.0244
3114.00,0.0245
3113.00,0.0245
3112.00,0.0246
3111.00,0.0246
3110.00,0.0246
3109.00,0.0246
3108.00,0.0247
3107.00,0.0248
3106.00,0.0249
3105.00,0.0250
3104.00,0.0251
3103.00,0.0251
3102.00,0.0252
3101.00,0.0252
3100.00,0.0253
3099.00,0.0254
3098.00,0.0255
3097.00,0.0256
3096.00,0.0257
3095.00,0.0257
3094.00,0.0258
3093.00,0.0258
3092.00,0.0258
3091.00,0.0258
3090.00,0.0259
3089.00,0.0260
3088.00,0.0260
3087.00,0.0261
3086.00,0.0261
3085.00,0.0262
3084.00,0.0262
3083.00,0.0263
3082.00,0.0263
3081.00,0.0264
3080.00,0.0264
3079.00,0.0264
3078.00,0.0265
3077.00,0.0266
3076.00,0.0267
3075.00,0.0268
3074.00,0.0268
3073.00,0.0268
3072.00,0.0268
3071.00,0.0268
3070.00,0.0267
3069.00,0.0267
3068.00,0.0266
3067.00,0.0266
3066.00,0.0266
3065.00,0.0266
3064.00,0.0266
3063.00,0.0266
3062.00,0.0266
3061.00,0.0265
3060.00,0.0264
3059.00,0.0263
3058.00,0.0261
3057.00,0.0260
3056.00,0.0259
3055.00,0.0258
3054.00,0.0257
3053.00,0.0256
3052.00,0.0255
3051.00,0.0253
3050.00,0.0252
3049.00,0.0251
3048.00,0.0250
3047.00,0.0248
3046.00,0.0247
3045.00,0.0245
3044.00,0.0243
3043.00,0.0242
3042.00,0.0241
3041.00,0.0240
3040.00,0.0240
3039.00,0.0239
3038.00,0.0238
3037.00,0.0237
3036.00,0.0235
3035.00,0.0234
3034.00,0.0233
3033.00,0.0232
3032.00,0.0232
3031.00,0.0231
3030.00,0.0231
3029.00,0.0231
3028.00,0.0230
3027.00,0.0229
3026.00,0.0228
3025.00,0.0228
3024.00,0.0227
3023.00,0.0226
3022.00,0.0225
3021.00,0.0224
3020.00,0.0223
3019.00,0.0222
3018.00,0.0221
3017.00,0.0220
3016.00,0.0219
3015.00,0.0219
3014.00,0.0218
3013.00,0.0218
3012.00,0.0218
3011.00,0.0218
3010.00,0.0219
3009.00,0.0219
3008.00,0.0220
3007.00,0.0221
3006.00,0.0221
3005.00,0.0221
3004.00,0.0220
3003.00,0.0220
3002.00,0.0220
3001.00,0.0219
3000.00,0.0219
2999.00,0.0219
2998.00,0.0220
2997.00,0.0220
2996.00,0.0221
2995.00,0.0221
2994.00,0.0221
2993.00,0.0222
2992.00,0.0222
2991.00,0.0224
2990.00,0.0225
2989.00,0.0226
2988.00,0.0227
2987.00,0.0228
2986.00,0.0228
2985.00,0.0228
2984.00,0.0228
2983.00,0.0227
2982.00,0.0227
2981.00,0.0227
2980.00,0.0227
2979.00,0.0227
2978.00,0.0227
2977.00,0.0227
2976.00,0.0227
2975.00,0.0227
2974.00,0.0227
2973.00,0.0228
2972.00,0.0228
2971.00,0.0228
2970.00,0.0228
2969.00,0.0227
2968.00,0.0226
2967.00,0.0225
2966.00,0.0223
2965.00,0.0222
2964.00,0.0220
2963.00,0.0219
2962.00,0.0217
2961.00,0.0215
2960.00,0.0214
2959.00,0.0212
2958.00,0.0211
2957.00,0.0210
2956.00,0.0209
2955.00,0.0208
2954.00,0.0207
2953.00,0.0207
2952.00,0.0208
2951.00,0.0208
2950.00,0.0209
2949.00,0.0209
2948.00,0.0209
2947.00,0.0210
2946.00,0.0210
2945.00,0.0211
2944.00,0.0212
2943.00,0.0213
2942.00,0.0215
2941.00,0.0216
2940.00,0.0217
2939.00,0.0218
2938.00,0.0218
2937.00,0.0219
2936.00,0.0220
2935.00,0.0220
2934.00,0.0221
2933.00,0.0220
2932.00,0.0220
2931.00,0.0219
2930.00,0.0217
2929.00,0.0216
2928.00,0.0215
2927.00,0.0214
2926.00,0.0213
2925.00,0.0211
2924.00,0.0209
2923.00,0.0207
2922.00,0.0205
2921.00,0.0202
2920.00,0.0199
2919.00,0.0196
2918.00,0.0193
2917.00,0.0191
2916.00,0.0190
2915.00,0.0190
2914.00,0.0192
2913.00,0.0195
2912.00,0.0198
2911.00,0.0200
2910.00,0.0202
2909.00,0.0202
2908.00,0.0203
2907.00,0.0202
2906.00,0.0202
2905.00,0.0202
2904.00,0.0202
2903.00,0.0203
2902.00,0.0203
2901.00,0.0203
2900.00,0.0203
2899.00,0.0202
2898.00,0.0202
2897.00,0.0202
2896.00,0.0202
2895.00,0.0202
2894.00,0.0202
2893.00,0.0202
2892.00,0.0202
2891.00,0.0202
2890.00,0.0202
2889.00,0.0202
2888.00,0.0202
2887.00,0.0203
2886.00,0.0203
2885.00,0.0204
2884.00,0.0204
2883.00,0.0205
2882.00,0.0205
2881.00,0.0206
2880.00,0.0206
2879.00,0.0206
2878.00,0.0206
2877.00,0.0206
2876.00,0.0206
2875.00,0.0205
2874.00,0.0205
2873.00,0.0205
2872.00,0.0205
2871.00,0.0204
2870.00,0.0203
2869.00,0.0202
2868.00,0.0201
2867.00,0.0199
2866.00,0.0198
2865.00,0.0197
2864.00,0.0196
2863.00,0.0195
2862.00,0.0193
2861.00,0.0192
2860.00,0.0191
2859.00,0.0190
2858.00,0.0189
2857.00,0.0187
2856.00,0.0185
2855.00,0.0183
2854.00,0.0181
2853.00,0.0178
2852.00,0.0176
2851.00,0.0176
2850.00,0.0176
2849.00,0.0177
2848.00,0.0180
2847.00,0.0183
2846.00,0.0185
2845.00,0.0187
2844.00,0.0189
2843.00,0.0189
2842.00,0.0190
2841.00,0.0190
2840.00,0.0190
2839.00,0.0191
2838.00,0.0191
2837.00,0.0191
2836.00,0.0191
2835.00,0.0191
2834.00,0.0191
2833.00,0.0191
2832.00,0.0191
2831.00,0.0191
2830.00,0.0191
2829.00,0.0191
2828.00,0.0191
2827.00,0.0191
2826.00,0.0191
2825.00,0.0191
2824.00,0.0191
2823.00,0.0191
2822.00,0.0191
2821.00,0.0191
2820.00,0.0191
2819.00,0.0191
2818.00,0.0191
2817.00,0.0191
2816.00,0.0192
2815.00,0.0191
2814.00,0.0191
2813.00,0.0191
2812.00,0.0191
2811.00,0.0191
2810.00,0.0191
2809.00,0.0191
2808.00,0.0191
2807.00,0.0191
2806.00,0.0190
2805.00,0.0190
2804.00,0.0191
2803.00,0.0191
2802.00,0.0190
2801.00,0.0190
2800.00,0.0190
2799.00,0.0190
2798.00,0.0190
2797.00,0.0190
2796.00,0.0190
2795.00,0.0189
2794.00,0.0189
2793.00,0.0189
2792.00,0.0189
2791.00,0.0189
2790.00,0.0189
2789.00,0.0189
2788.00,0.0188
2787.00,0.0188
2786.00,0.0188
2785.00,0.0188
2784.00,0.0188
2783.00,0.0188
2782.00,0.0188
2781.00,0.0187
2780.00,0.0187
2779.00,0.0187
2778.00,0.0187
2777.00,0.0187
2776.00,0.0186
2775.00,0.0186
2774.00,0.0186
2773.00,0.0185
2772.00,0.0185
2771.00,0.0185
2770.00,0.0185
2769.00,0.0185
2768.00,0.0185
2767.00,0.0185
2766.00,0.0185
2765.00,0.0185
2764.00,0.0185
2763.00,0.0184
2762.00,0.0184
2761.00,0.0184
2760.00,0.0183
2759.00,0.0183
2758.00,0.0183
2757.00,0.0183
2756.00,0.0182
2755.00,0.0182
2754.00,0.0182
2753.00,0.0182
2752.00,0.0181
2751.00,0.0181
2750.00,0.0181
2749.00,0.0180
2748.00,0.0180
2747.00,0.0181
2746.00,0.0181
2745.00,0.0181
2744.00,0.0180
2743.00,0.0180
2742.00,0.0180
2741.00,0.0180
2740.00,0.0179
2739.00,0.0179
2738.00,0.0179
2737.00,0.0178
2736.00,0.0178
2735.00,0.0178
2734.00,0.0177
2733.00,0.0177
2732.00,0.0177
2731.00,0.0177
2730.00,0.0177
2729.00,0.0177
2728.00,0.0176
2727.00,0.0176
2726.00,0.0176
2725.00,0.0176
2724.00,0.0176
2723.00,0.0176
2722.00,0.0176
2721.00,0.0175
2720.00,0.0175
2719.00,0.0175
2718.00,0.0175
2717.00,0.0174
2716.00,0.0174
2715.00,0.0174
2714.00,0.0174
2713.00,0.0174
2712.00,0.0174
2711.00,0.0174
2710.00,0.0173
2709.00,0.0173
2708.00,0.0173
2707.00,0.0172
2706.00,0.0172
2705.00,0.0172
2704.00,0.0172
2703.00,0.0172
2702.00,0.0172
2701.00,0.0172
2700.00,0.0172
2699.00,0.0172
2698.00,0.0172
2697.00,0.0172
2696.00,0.0171
2695.00,0.0171
2694.00,0.0171
2693.00,0.0171
2692.00,0.0171
2691.00,0.0171
2690.00,0.0170
2689.00,0.0170
2688.00,0.0170
2687.00,0.0170
2686.00,0.0170
2685.00,0.0170
2684.00,0.0170
2683.00,0.0170
2682.00,0.0169
2681.00,0.0169
2680.00,0.0169
2679.00,0.0169
2678.00,0.0169
2677.00,0.0169
2676.00,0.0169
2675.00,0.0169
2674.00,0.0169
2673.00,0.0169
2672.00,0.0169
2671.00,0.0169
2670.00,0.0169
2669.00,0.0169
2668.00,0.0169
2667.00,0.0169
2666.00,0.0170
2665.00,0.0170
2664.00,0.0170
2663.00,0.0170
2662.00,0.0171
2661.00,0.0171
2660.00,0.0171
2659.00,0.0171
2658.00,0.0172
2657.00,0.0172
2656.00,0.0172
2655.00,0.0172
2654.00,0.0172
2653.00,0.0172
2652.00,0.0171
2651.00,0.0171
2650.00,0.0171
2649.00,0.0171
2648.00,0.0171
2647.00,0.0171
2646.00,0.0171
2645.00,0.0171
2644.00,0.0172
2643.00,0.0171
2642.00,0.0171
2641.00,0.0171
2640.00,0.0171
2639.00,0.0171
2638.00,0.0171
2637.00,0.0171
2636.00,0.0171
2635.00,0.0171
2634.00,0.0171
2633.00,0.0171
2632.00,0.0171
2631.00,0.0171
2630.00,0.0171
2629.00,0.0170
2628.00,0.0170
2627.00,0.0170
2626.00,0.0170
2625.00,0.0170
2624.00,0.0170
2623.00,0.0170
2622.00,0.0170
2621.00,0.0170
2620.00,0.0170
2619.00,0.0170
2618.00,0.0170
2617.00,0.0170
2616.00,0.0170
2615.00,0.0170
2614.00,0.0169
2613.00,0.0169
2612.00,0.0169
2611.00,0.0169
2610.00,0.0169
2609.00,0.0169
2608.00,0.0169
2607.00,0.0169
2606.00,0.0169
2605.00,0.0169
2604.00,0.0169
2603.00,0.0168
2602.00,0.0168
2601.00,0.0168
2600.00,0.0168
2599.00,0.0167
2598.00,0.0167
2597.00,0.0167
2596.00,0.0167
2595.00,0.0166
2594.00,0.0166
2593.00,0.0166
2592.00,0.0165
2591.00,0.0165
2590.00,0.0165
2589.00,0.0165
2588.00,0.0165
2587.00,0.0165
2586.00,0.0165
2585.00,0.0165
2584.00,0.0165
2583.00,0.0164
2582.00,0.0164
2581.00,0.0164
2580.00,0.0164
2579.00,0.0163
2578.00,0.0163
2577.00,0.0163
2576.00,0.0163
2575.00,0.0163
2574.00,0.0162
2573.00,0.0162
2572.00,0.0161
2571.00,0.0161
2570.00,0.0160
2569.00,0.0160
2568.00,0.0161
2567.00,0.0161
2566.00,0.0161
2565.00,0.0161
2564.00,0.0161
2563.00,0.0161
2562.00,0.0161
2561.00,0.0160
2560.00,0.0160
2559.00,0.0159
2558.00,0.0159
2557.00,0.0159
2556.00,0.0159
2555.00,0.0159
2554.00,0.0159
2553.00,0.0159
2552.00,0.0159
2551.00,0.0159
2550.00,0.0159
2549.00,0.0159
2548.00,0.0158
2547.00,0.0158
2546.00,0.0158
2545.00,0.0158
2544.00,0.0158
2543.00,0.0158
2542.00,0.0157
2541.00,0.0157
2540.00,0.0157
2539.00,0.0157
2538.00,0.0158
2537.00,0.0157
2536.00,0.0157
2535.00,0.0157
2534.00,0.0157
2533.00,0.0157
2532.00,0.0157
2531.00,0.0157
2530.00,0.0157
2529.00,0.0157
2528.00,0.0157
2527.00,0.0157
2526.00,0.0157
2525.00,0.0156
2524.00,0.0157
2523.00,0.0157
2522.00,0.0157
2521.00,0.0157
2520.00,0.0157
2519.00,0.0157
2518.00,0.0156
2517.00,0.0156
2516.00,0.0156
2515.00,0.0156
2514.00,0.0157
2513.00,0.0157
2512.00,0.0157
2511.00,0.0157
2510.00,0.0157
2509.00,0.0156
2508.00,0.0156
2507.00,0.0156
2506.00,0.0156
2505.00,0.0157
2504.00,0.0157
2503.00,0.0157
2502.00,0.0156
2501.00,0.0156
2500.00,0.0156
2499.00,0.0156
2498.00,0.0156
2497.00,0.0156
2496.00,0.0156
2495.00,0.0156
2494.00,0.0156
2493.00,0.0156
2492.00,0.0157
2491.00,0.0157
2490.00,0.0156
2489.00,0.0156
2488.00,0.0156
2487.00,0.0156
2486.00,0.0156
2485.00,0.0155
2484.00,0.0155
2483.00,0.0156
2482.00,0.0156
2481.00,0.0156
2480.00,0.0156
2479.00,0.0156
2478.00,0.0155
2477.00,0.0155
2476.00,0.0156
2475.00,0.0155
2474.00,0.0155
2473.00,0.0155
2472.00,0.0155
2471.00,0.0155
2470.00,0.0154
2469.00,0.0154
2468.00,0.0154
2467.00,0.0154
2466.00,0.0154
2465.00,0.0154
2464.00,0.0155
2463.00,0.0155
2462.00,0.0155
2461.00,0.0155
2460.00,0.0156
2459.00,0.0156
2458.00,0.0156
2457.00,0.0156
2456.00,0.0156
2455.00,0.0156
2454.00,0.0155
2453.00,0.0155
2452.00,0.0155
2451.00,0.0155
2450.00,0.0154
2449.00,0.0154
2448.00,0.0154
2447.00,0.0154
2446.00,0.0154
2445.00,0.0154
2444.00,0.0154
2443.00,0.0154
2442.00,0.0154
2441.00,0.0154
2440.00,0.0154
2439.00,0.0154
2438.00,0.0153
2437.00,0.0153
2436.00,0.0153
2435.00,0.0153
2434.00,0.0153
2433.00,0.0153
2432.00,0.0153
2431.00,0.0152
2430.00,0.0152
2429.00,0.0152
2428.00,0.0152
2427.00,0.0151
2426.00,0.0152
2425.00,0.0152
2424.00,0.0152
2423.00,0.0152
2422.00,0.0152
2421.00,0.0151
2420.00,0.0151
2419.00,0.0151
2418.00,0.0150
2417.00,0.0150
2416.00,0.0150
2415.00,0.0150
2414.00,0.0150
2413.00,0.0150
2412.00,0.0150
2411.00,0.0150
2410.00,0.0149
2409.00,0.0149
2408.00,0.0148
2407.00,0.0148
2406.00,0.0147
2405.00,0.0147
2404.00,0.0148
2403.00,0.0148
2402.00,0.0149
2401.00,0.0149
2400.00,0.0148
2399.00,0.0148
2398.00,0.0148
2397.00,0.0148
2396.00,0.0148
2395.00,0.0148
2394.00,0.0148
2393.00,0.0147
2392.00,0.0147
2391.00,0.0147
2390.00,0.0147
2389.00,0.0147
2388.00,0.0147
2387.00,0.0146
2386.00,0.0146
2385.00,0.0145
2384.00,0.0144
2383.00,0.0144
2382.00,0.0143
2381.00,0.0143
2380.00,0.0143
2379.00,0.0143
2378.00,0.0143
2377.00,0.0143
2376.00,0.0143
2375.00,0.0143
2374.00,0.0143
2373.00,0.0143
2372.00,0.0142
2371.00,0.0142
2370.00,0.0142
2369.00,0.0142
2368.00,0.0142
2367.00,0.0142
2366.00,0.0142
2365.00,0.0142
2364.00,0.0142
2363.00,0.0142
2362.00,0.0142
2361.00,0.0143
2360.00,0.0143
2359.00,0.0143
2358.00,0.0143
2357.00,0.0143
2356.00,0.0143
2355.00,0.0143
2354.00,0.0143
2353.00,0.0143
2352.00,0.0143
2351.00,0.0143
2350.00,0.0143
2349.00,0.0143
2348.00,0.0144
2347.00,0.0144
2346.00,0.0144
2345.00,0.0144
2344.00,0.0145
2343.00,0.0145
2342.00,0.0145
2341.00,0.0146
2340.00,0.0146
2339.00,0.0146
2338.00,0.0146
2337.00,0.0147
2336.00,0.0147
2335.00,0.0147
2334.00,0.0146
2333.00,0.0146
2332.00,0.0146
2331.00,0.0146
2330.00,0.0146
2329.00,0.0148
2328.00,0.0152
2327.00,0.0156
2326.00,0.0159
2325.00,0.0160
2324.00,0.0159
2323.00,0.0156
2322.00,0.0154
2321.00,0.0152
2320.00,0.0152
2319.00,0.0152
2318.00,0.0152
2317.00,0.0152
2316.00,0.0152
2315.00,0.0151
2314.00,0.0150
2313.00,0.0150
2312.00,0.0150
2311.00,0.0150
2310.00,0.0150
2309.00,0.0150
2308.00,0.0150
2307.00,0.0150
2306.00,0.0150
2305.00,0.0150
2304.00,0.0150
2303.00,0.0150
2302.00,0.0150
2301.00,0.0150
2300.00,0.0150
2299.00,0.0150
2298.00,0.0151
2297.00,0.0152
2296.00,0.0154
2295.00,0.0155
2294.00,0.0156
2293.00,0.0156
2292.00,0.0157
2291.00,0.0157
2290.00,0.0158
2289.00,0.0159
2288.00,0.0159
2287.00,0.0160
2286.00,0.0159
2285.00,0.0158
2284.00,0.0157
2283.00,0.0157
2282.00,0.0156
2281.00,0.0156
2280.00,0.0156
2279.00,0.0155
2278.00,0.0154
2277.00,0.0154
2276.00,0.0154
2275.00,0.0154
2274.00,0.0154
2273.00,0.0153
2272.00,0.0153
2271.00,0.0152
2270.00,0.0152
2269.00,0.0151
2268.00,0.0151
2267.00,0.0150
2266.00,0.0150
2265.00,0.0149
2264.00,0.0149
2263.00,0.0149
2262.00,0.0149
2261.00,0.0149
2260.00,0.0150
2259.00,0.0150
2258.00,0.0149
2257.00,0.0148
2256.00,0.0147
2255.00,0.0146
2254.00,0.0146
2253.00,0.0146
2252.00,0.0147
2251.00,0.0148
2250.00,0.0148
2249.00,0.0149
2248.00,0.0148
2247.00,0.0148
2246.00,0.0148
2245.00,0.0148
2244.00,0.0149
2243.00,0.0150
2242.00,0.0150
2241.00,0.0150
2240.00,0.0150
2239.00,0.0150
2238.00,0.0149
2237.00,0.0149
2236.00,0.0148
2235.00,0.0148
2234.00,0.0147
2233.00,0.0147
2232.00,0.0148
2231.00,0.0148
2230.00,0.0148
2229.00,0.0148
2228.00,0.0148
2227.00,0.0147
2226.00,0.0147
2225.00,0.0147
2224.00,0.0147
2223.00,0.0148
2222.00,0.0148
2221.00,0.0147
2220.00,0.0146
2219.00,0.0146
2218.00,0.0145
2217.00,0.0146
2216.00,0.0146
2215.00,0.0145
2214.00,0.0144
2213.00,0.0143
2212.00,0.0143
2211.00,0.0145
2210.00,0.0146
2209.00,0.0146
2208.00,0.0146
2207.00,0.0146
2206.00,0.0145
2205.00,0.0145
2204.00,0.0145
2203.00,0.0145
2202.00,0.0145
2201.00,0.0146
2200.00,0.0147
2199.00,0.0147
2198.00,0.0148
2197.00,0.0148
2196.00,0.0148
2195.00,0.0148
2194.00,0.0147
2193.00,0.0147
2192.00,0.0147
2191.00,0.0147
2190.00,0.0148
2189.00,0.0149
2188.00,0.0150
2187.00,0.0150
2186.00,0.0149
2185.00,0.0147
2184.00,0.0144
2183.00,0.0141
2182.00,0.0140
2181.00,0.0141
2180.00,0.0143
2179.00,0.0143
2178.00,0.0141
2177.00,0.0139
2176.00,0.0137
2175.00,0.0137
2174.00,0.0138
2173.00,0.0141
2172.00,0.0144
2171.00,0.0147
2170.00,0.0150
2169.00,0.0152
2168.00,0.0153
2167.00,0.0154
2166.00,0.0155
2165.00,0.0157
2164.00,0.0158
2163.00,0.0157
2162.00,0.0151
2161.00,0.0140
2160.00,0.0126
2159.00,0.0114
2158.00,0.0108
2157.00,0.0107
2156.00,0.0110
2155.00,0.0114
2154.00,0.0118
2153.00,0.0121
2152.00,0.0123
2151.00,0.0124
2150.00,0.0125
2149.00,0.0125
2148.00,0.0125
2147.00,0.0124
2146.00,0.0123
2145.00,0.0123
2144.00,0.0125
2143.00,0.0125
2142.00,0.0125
2141.00,0.0125
2140.00,0.0125
2139.00,0.0124
2138.00,0.0124
2137.00,0.0122
2136.00,0.0121
2135.00,0.0121
2134.00,0.0120
2133.00,0.0121
2132.00,0.0123
2131.00,0.0125
2130.00,0.0127
2129.00,0.0129
2128.00,0.0130
2127.00,0.0130
2126.00,0.0130
2125.00,0.0131
2124.00,0.0131
2123.00,0.0132
2122.00,0.0133
2121.00,0.0134
2120.00,0.0136
2119.00,0.0137
2118.00,0.0138
2117.00,0.0139
2116.00,0.0140
2115.00,0.0140
2114.00,0.0140
2113.00,0.0139
2112.00,0.0139
2111.00,0.0139
2110.00,0.0139
2109.00,0.0139
2108.00,0.0140
2107.00,0.0140
2106.00,0.0139
2105.00,0.0139
2104.00,0.0138
2103.00,0.0138
2102.00,0.0138
2101.00,0.0139
2100.00,0.0140
2099.00,0.0140
2098.00,0.0138
2097.00,0.0135
2096.00,0.0132
2095.00,0.0131
2094.00,0.0131
2093.00,0.0132
2092.00,0.0134
2091.00,0.0136
2090.00,0.0137
2089.00,0.0138
2088.00,0.0139
2087.00,0.0139
2086.00,0.0139
2085.00,0.0140
2084.00,0.0140
2083.00,0.0141
2082.00,0.0141
2081.00,0.0141
2080.00,0.0140
2079.00,0.0139
2078.00,0.0138
2077.00,0.0138
2076.00,0.0138
2075.00,0.0138
2074.00,0.0138
2073.00,0.0138
2072.00,0.0137
2071.00,0.0137
2070.00,0.0137
2069.00,0.0137
2068.00,0.0137
2067.00,0.0137
2066.00,0.0137
2065.00,0.0137
2064.00,0.0137
2063.00,0.0137
2062.00,0.0136
2061.00,0.0136
2060.00,0.0135
2059.00,0.0135
2058.00,0.0134
2057.00,0.0133
2056.00,0.0133
2055.00,0.0134
2054.00,0.0137
2053.00,0.0142
2052.00,0.0145
2051.00,0.0145
2050.00,0.0142
2049.00,0.0139
2048.00,0.0137
2047.00,0.0135
2046.00,0.0134
2045.00,0.0134
2044.00,0.0135
2043.00,0.0136
2042.00,0.0137
2041.00,0.0137
2040.00,0.0137
2039.00,0.0137
2038.00,0.0137
2037.00,0.0137
2036.00,0.0136
2035.00,0.0132
2034.00,0.0129
2033.00,0.0128
2032.00,0.0127
2031.00,0.0127
2030.00,0.0126
2029.00,0.0124
2028.00,0.0122
2027.00,0.0121
2026.00,0.0121
2025.00,0.0122
2024.00,0.0125
2023.00,0.0126
2022.00,0.0125
2021.00,0.0124
2020.00,0.0124
2019.00,0.0123
2018.00,0.0122
2017.00,0.0122
2016.00,0.0121
2015.00,0.0121
2014.00,0.0120
2013.00,0.0122
2012.00,0.0124
2011.00,0.0124
2010.00,0.0123
2009.00,0.0119
2008.00,0.0117
2007.00,0.0115
2006.00,0.0115
2005.00,0.0117
2004.00,0.0118
2003.00,0.0119
2002.00,0.0119
2001.00,0.0119
2000.00,0.0120
1999.00,0.0121
1998.00,0.0122
1997.00,0.0123
1996.00,0.0124
1995.00,0.0124
1994.00,0.0123
1993.00,0.0124
1992.00,0.0125
1991.00,0.0125
1990.00,0.0125
1989.00,0.0126
1988.00,0.0127
1987.00,0.0128
1986.00,0.0129
1985.00,0.0130
1984.00,0.0131
1983.00,0.0133
1982.00,0.0135
1981.00,0.0136
1980.00,0.0133
1979.00,0.0128
1978.00,0.0121
1977.00,0.0117
1976.00,0.0114
1975.00,0.0112
1974.00,0.0111
1973.00,0.0112
1972.00,0.0113
1971.00,0.0114
1970.00,0.0114
1969.00,0.0114
1968.00,0.0115
1967.00,0.0116
1966.00,0.0116
1965.00,0.0116
1964.00,0.0115
1963.00,0.0113
1962.00,0.0111
1961.00,0.0109
1960.00,0.0109
1959.00,0.0109
1958.00,0.0110
1957.00,0.0112
1956.00,0.0113
1955.00,0.0113
1954.00,0.0112
1953.00,0.0111
1952.00,0.0111
1951.00,0.0111
1950.00,0.0111
1949.00,0.0112
1948.00,0.0112
1947.00,0.0112
1946.00,0.0112
1945.00,0.0111
1944.00,0.0111
1943.00,0.0111
1942.00,0.0111
1941.00,0.0111
1940.00,0.0112
1939.00,0.0112
1938.00,0.0112
1937.00,0.0111
1936.00,0.0111
1935.00,0.0111
1934.00,0.0111
1933.00,0.0112
1932.00,0.0112
1931.00,0.0111
1930.00,0.0111
1929.00,0.0110
1928.00,0.0111
1927.00,0.0111
1926.00,0.0111
1925.00,0.0112
1924.00,0.0112
1923.00,0.0113
1922.00,0.0113
1921.00,0.0112
1920.00,0.0112
1919.00,0.0112
1918.00,0.0113
1917.00,0.0114
1916.00,0.0115
1915.00,0.0114
1914.00,0.0114
1913.00,0.0114
1912.00,0.0114
1911.00,0.0114
1910.00,0.0114
1909.00,0.0114
1908.00,0.0113
1907.00,0.0113
1906.00,0.0112
1905.00,0.0112
1904.00,0.0111
1903.00,0.0111
1902.00,0.0111
1901.00,0.0111
1900.00,0.0111
1899.00,0.0111
1898.00,0.0111
1897.00,0.0111
1896.00,0.0112
1895.00,0.0113
1894.00,0.0113
1893.00,0.0112
1892.00,0.0111
1891.00,0.0110
1890.00,0.0110
1889.00,0.0110
1888.00,0.0111
1887.00,0.0110
1886.00,0.0110
1885.00,0.0109
1884.00,0.0110
1883.00,0.0110
1882.00,0.0109
1881.00,0.0109
1880.00,0.0109
1879.00,0.0109
1878.00,0.0109
1877.00,0.0109
1876.00,0.0109
1875.00,0.0110
1874.00,0.0109
1873.00,0.0108
1872.00,0.0107
1871.00,0.0106
1870.00,0.0106
1869.00,0.0106
1868.00,0.0108
1867.00,0.0109
1866.00,0.0109
1865.00,0.0108
1864.00,0.0108
1863.00,0.0107
1862.00,0.0106
1861.00,0.0106
1860.00,0.0106
1859.00,0.0106
1858.00,0.0105
1857.00,0.0105
1856.00,0.0106
1855.00,0.0105
1854.00,0.0105
1853.00,0.0104
1852.00,0.0104
1851.00,0.0103
1850.00,0.0103
1849.00,0.0103
1848.00,0.0104
1847.00,0.0103
1846.00,0.0102
1845.00,0.0102
1844.00,0.0102
1843.00,0.0103
1842.00,0.0103
1841.00,0.0102
1840.00,0.0102
1839.00,0.0102
1838.00,0.0102
1837.00,0.0101
1836.00,0.0101
1835.00,0.0101
1834.00,0.0100
1833.00,0.0100
1832.00,0.0100
1831.00,0.0099
1830.00,0.0099
1829.00,0.0099
1828.00,0.0099
1827.00,0.0099
1826.00,0.0098
1825.00,0.0099
1824.00,0.0099
1823.00,0.0099
1822.00,0.0098
1821.00,0.0098
1820.00,0.0097
1819.00,0.0096
1818.00,0.0094
1817.00,0.0094
1816.00,0.0094
1815.00,0.0094
1814.00,0.0094
1813.00,0.0095
1812.00,0.0095
1811.00,0.0095
1810.00,0.0096
1809.00,0.0096
1808.00,0.0096
1807.00,0.0096
1806.00,0.0095
1805.00,0.0094
1804.00,0.0094
1803.00,0.0094
1802.00,0.0093
1801.00,0.0093
1800.00,0.0094
1799.00,0.0093
1798.00,0.0093
1797.00,0.0093
1796.00,0.0093
1795.00,0.0092
1794.00,0.0091
1793.00,0.0090
1792.00,0.0091
1791.00,0.0091
1790.00,0.0090
1789.00,0.0090
1788.00,0.0089
1787.00,0.0089
1786.00,0.0088
1785.00,0.0087
1784.00,0.0087
1783.00,0.0086
1782.00,0.0086
1781.00,0.0085
1780.00,0.0085
1779.00,0.0084
1778.00,0.0083
1777.00,0.0082
1776.00,0.0082
1775.00,0.0082
1774.00,0.0081
1773.00,0.0081
1772.00,0.0081
1771.00,0.0080
1770.00,0.0078
1769.00,0.0077
1768.00,0.0076
1767.00,0.0076
1766.00,0.0075
1765.00,0.0074
1764.00,0.0073
1763.00,0.0072
1762.00,0.0071
1761.00,0.0070
1760.00,0.0069
1759.00,0.0068
1758.00,0.0067
1757.00,0.0065
1756.00,0.0064
1755.00,0.0062
1754.00,0.0060
1753.00,0.0058
1752.00,0.0056
1751.00,0.0054
1750.00,0.0051
1749.00,0.0049
1748.00,0.0048
1747.00,0.0046
1746.00,0.0044
1745.00,0.0043
1744.00,0.0042
1743.00,0.0040
1742.00,0.0038
1741.00,0.0037
1740.00,0.0035
1739.00,0.0033
1738.00,0.0032
1737.00,0.0032
1736.00,0.0033
1735.00,0.0034
1734.00,0.0034
1733.00,0.0034
1732.00,0.0034
1731.00,0.0034
1730.00,0.0034
1729.00,0.0035
1728.00,0.0036
1727.00,0.0038
1726.00,0.0039
1725.00,0.0041
1724.00,0.0043
1723.00,0.0045
1722.00,0.0047
1721.00,0.0049
1720.00,0.0051
1719.00,0.0055
1718.00,0.0059
1717.00,0.0064
1716.00,0.0069
1715.00,0.0073
1714.00,0.0077
1713.00,0.0083
1712.00,0.0091
1711.00,0.0100
1710.00,0.0110
1709.00,0.0123
1708.00,0.0138
1707.00,0.0158
1706.00,0.0183
1705.00,0.0212
1704.00,0.0238
1703.00,0.0261
1702.00,0.0282
1701.00,0.0307
1700.00,0.0333
1699.00,0.0350
1698.00,0.0356
1697.00,0.0357
1696.00,0.0355
1695.00,0.0351
1694.00,0.0346
1693.00,0.0341
1692.00,0.0338
1691.00,0.0337
1690.00,0.0338
1689.00,0.0340
1688.00,0.0342
1687.00,0.0344
1686.00,0.0348
1685.00,0.0356
1684.00,0.0367
1683.00,0.0376
1682.00,0.0381
1681.00,0.0386
1680.00,0.0393
1679.00,0.0400
1678.00,0.0406
1677.00,0.0412
1676.00,0.0422
1675.00,0.0434
1674.00,0.0445
1673.00,0.0454
1672.00,0.0462
1671.00,0.0471
1670.00,0.0484
1669.00,0.0499
1668.00,0.0512
1667.00,0.0522
1666.00,0.0530
1665.00,0.0538
1664.00,0.0549
1663.00,0.0564
1662.00,0.0580
1661.00,0.0594
1660.00,0.0607
1659.00,0.0619
1658.00,0.0631
1657.00,0.0641
1656.00,0.0650
1655.00,0.0661
1654.00,0.0683
1653.00,0.0718
1652.00,0.0746
1651.00,0.0757
1650.00,0.0761
1649.00,0.0766
1648.00,0.0780
1647.00,0.0803
1646.00,0.0828
1645.00,0.0848
1644.00,0.0862
1643.00,0.0875
1642.00,0.0888
1641.00,0.0904
1640.00,0.0920
1639.00,0.0935
1638.00,0.0950
1637.00,0.0971
1636.00,0.1004
1635.00,0.1040
1634.00,0.1067
1633.00,0.1084
1632.00,0.1099
1631.00,0.1115
1630.00,0.1133
1629.00,0.1154
1628.00,0.1177
1627.00,0.1199
1626.00,0.1215
1625.00,0.1229
1624.00,0.1246
1623.00,0.1265
1622.00,0.1279
1621.00,0.1284
1620.00,0.1282
1619.00,0.1277
1618.00,0.1272
1617.00,0.1268
1616.00,0.1263
1615.00,0.1251
1614.00,0.1232
1613.00,0.1209
1612.00,0.1184
1611.00,0.1160
1610.00,0.1134
1609.00,0.1106
1608.00,0.1076
1607.00,0.1046
1606.00,0.1014
1605.00,0.0983
1604.00,0.0952
1603.00,0.0922
1602.00,0.0894
1601.00,0.0868
1600.00,0.0843
1599.00,0.0820
1598.00,0.0800
1597.00,0.0781
1596.00,0.0761
1595.00,0.0743
1594.00,0.0725
1593.00,0.0707
1592.00,0.0689
1591.00,0.0671
1590.00,0.0655
1589.00,0.0641
1588.00,0.0628
1587.00,0.0616
1586.00,0.0605
1585.00,0.0596
1584.00,0.0588
1583.00,0.0581
1582.00,0.0576
1581.00,0.0572
1580.00,0.0568
1579.00,0.0564
1578.00,0.0563
1577.00,0.0565
1576.00,0.0571
1575.00,0.0576
1574.00,0.0578
1573.00,0.0577
1572.00,0.0577
1571.00,0.0580
1570.00,0.0590
1569.00,0.0603
1568.00,0.0614
1567.00,0.0622
1566.00,0.0630
1565.00,0.0641
1564.00,0.0651
1563.00,0.0659
1562.00,0.0664
1561.00,0.0670
1560.00,0.0683
1559.00,0.0712
1558.00,0.0741
1557.00,0.0753
1556.00,0.0758
1555.00,0.0764
1554.00,0.0773
1553.00,0.0783
1552.00,0.0792
1551.00,0.0801
1550.00,0.0813
1549.00,0.0825
1548.00,0.0835
1547.00,0.0843
1546.00,0.0852
1545.00,0.0864
1544.00,0.0877
1543.00,0.0888
1542.00,0.0901
1541.00,0.0921
1540.00,0.0949
1539.00,0.0975
1538.00,0.0989
1537.00,0.0994
1536.00,0.0995
1535.00,0.1001
1534.00,0.1017
1533.00,0.1039
1532.00,0.1058
1531.00,0.1070
1530.00,0.1079
1529.00,0.1089
1528.00,0.1102
1527.00,0.1117
1526.00,0.1134
1525.00,0.1148
1524.00,0.1158
1523.00,0.1171
1522.00,0.1192
1521.00,0.1220
1520.00,0.1242
1519.00,0.1257
1518.00,0.1272
1517.00,0.1292
1516.00,0.1314
1515.00,0.1329
1514.00,0.1335
1513.00,0.1336
1512.00,0.1335
1511.00,0.1331
1510.00,0.1324
1509.00,0.1315
1508.00,0.1308
1507.00,0.1310
1506.00,0.1312
1505.00,0.1305
1504.00,0.1289
1503.00,0.1270
1502.00,0.1250
1501.00,0.1231
1500.00,0.1212
1499.00,0.1193
1498.00,0.1176
1497.00,0.1159
1496.00,0.1142
1495.00,0.1123
1494.00,0.1101
1493.00,0.1078
1492.00,0.1054
1491.00,0.1032
1490.00,0.1012
1489.00,0.0993
1488.00,0.0974
1487.00,0.0954
1486.00,0.0933
1485.00,0.0913
1484.00,0.0893
1483.00,0.0874
1482.00,0.0855
1481.00,0.0838
1480.00,0.0822
1479.00,0.0806
1478.00,0.0791
1477.00,0.0776
1476.00,0.0762
1475.00,0.0749
1474.00,0.0738
1473.00,0.0729
1472.00,0.0723
1471.00,0.0718
1470.00,0.0711
1469.00,0.0702
1468.00,0.0694
1467.00,0.0687
1466.00,0.0682
1465.00,0.0680
1464.00,0.0680
1463.00,0.0679
1462.00,0.0677
1461.00,0.0675
1460.00,0.0674
1459.00,0.0678
1458.00,0.0689
1457.00,0.0709
1456.00,0.0731
1455.00,0.0746
1454.00,0.0757
1453.00,0.0768
1452.00,0.0782
1451.00,0.0796
1450.00,0.0808
1449.00,0.0821
1448.00,0.0833
1447.00,0.0843
1446.00,0.0849
1445.00,0.0852
1444.00,0.0853
1443.00,0.0853
1442.00,0.0852
1441.00,0.0850
1440.00,0.0845
1439.00,0.0837
1438.00,0.0828
1437.00,0.0819
1436.00,0.0809
1435.00,0.0797
1434.00,0.0782
1433.00,0.0765
1432.00,0.0748
1431.00,0.0732
1430.00,0.0718
1429.00,0.0705
1428.00,0.0693
1427.00,0.0683
1426.00,0.0674
1425.00,0.0666
1424.00,0.0661
1423.00,0.0657
1422.00,0.0653
1421.00,0.0649
1420.00,0.0648
1419.00,0.0652
1418.00,0.0658
1417.00,0.0661
1416.00,0.0663
1415.00,0.0664
1414.00,0.0666
1413.00,0.0668
1412.00,0.0670
1411.00,0.0672
1410.00,0.0675
1409.00,0.0676
1408.00,0.0676
1407.00,0.0676
1406.00,0.0676
1405.00,0.0676
1404.00,0.0675
1403.00,0.0673
1402.00,0.0670
1401.00,0.0665
1400.00,0.0661
1399.00,0.0659
1398.00,0.0657
1397.00,0.0654
1396.00,0.0651
1395.00,0.0650
1394.00,0.0649
1393.00,0.0647
1392.00,0.0644
1391.00,0.0641
1390.00,0.0638
1389.00,0.0635
1388.00,0.0634
1387.00,0.0633
1386.00,0.0632
1385.00,0.0630
1384.00,0.0627
1383.00,0.0625
1382.00,0.0622
1381.00,0.0620
1380.00,0.0619
1379.00,0.0617
1378.00,0.0616
1377.00,0.0615
1376.00,0.0614
1375.00,0.0615
1374.00,0.0617
1373.00,0.0619
1372.00,0.0620
1371.00,0.0621
1370.00,0.0622
1369.00,0.0622
1368.00,0.0622
1367.00,0.0620
1366.00,0.0617
1365.00,0.0611
1364.00,0.0605
1363.00,0.0599
1362.00,0.0593
1361.00,0.0587
1360.00,0.0581
1359.00,0.0575
1358.00,0.0570
1357.00,0.0565
1356.00,0.0561
1355.00,0.0558
1354.00,0.0555
1353.00,0.0553
1352.00,0.0550
1351.00,0.0549
1350.00,0.0547
1349.00,0.0546
1348.00,0.0546
1347.00,0.0546
1346.00,0.0546
1345.00,0.0546
1344.00,0.0546
1343.00,0.0546
1342.00,0.0547
1341.00,0.0547
1340.00,0.0548
1339.00,0.0550
1338.00,0.0551
1337.00,0.0552
1336.00,0.0551
1335.00,0.0551
1334.00,0.0550
1333.00,0.0548
1332.00,0.0546
1331.00,0.0544
1330.00,0.0542
1329.00,0.0540
1328.00,0.0538
1327.00,0.0535
1326.00,0.0533
1325.00,0.0530
1324.00,0.0527
1323.00,0.0524
1322.00,0.0522
1321.00,0.0519
1320.00,0.0517
1319.00,0.0516
1318.00,0.0514
1317.00,0.0513
1316.00,0.0512
1315.00,0.0511
1314.00,0.0511
1313.00,0.0511
1312.00,0.0511
1311.00,0.0510
1310.00,0.0510
1309.00,0.0510
1308.00,0.0509
1307.00,0.0508
1306.00,0.0508
1305.00,0.0507
1304.00,0.0506
1303.00,0.0504
1302.00,0.0503
1301.00,0.0501
1300.00,0.0499
1299.00,0.0496
1298.00,0.0494
1297.00,0.0491
1296.00,0.0488
1295.00,0.0486
1294.00,0.0484
1293.00,0.0482
1292.00,0.0480
1291.00,0.0480
1290.00,0.0480
1289.00,0.0480
1288.00,0.0481
1287.00,0.0482
1286.00,0.0484
1285.00,0.0486
1284.00,0.0489
1283.00,0.0492
1282.00,0.0495
1281.00,0.0498
1280.00,0.0502
1279.00,0.0506
1278.00,0.0511
1277.00,0.0517
1276.00,0.0523
1275.00,0.0530
1274.00,0.0539
1273.00,0.0548
1272.00,0.0558
1271.00,0.0569
1270.00,0.0580
1269.00,0.0591
1268.00,0.0602
1267.00,0.0613
1266.00,0.0623
1265.00,0.0632
1264.00,0.0640
1263.00,0.0646
1262.00,0.0651
1261.00,0.0654
1260.00,0.0656
1259.00,0.0657
1258.00,0.0658
1257.00,0.0657
1256.00,0.0656
1255.00,0.0656
1254.00,0.0655
1253.00,0.0655
1252.00,0.0655
1251.00,0.0656
1250.00,0.0658
1249.00,0.0660
1248.00,0.0662
1247.00,0.0665
1246.00,0.0669
1245.00,0.0673
1244.00,0.0678
1243.00,0.0683
1242.00,0.0688
1241.00,0.0694
1240.00,0.0701
1239.00,0.0709
1238.00,0.0717
1237.00,0.0726
1236.00,0.0736
1235.00,0.0745
1234.00,0.0754
1233.00,0.0763
1232.00,0.0770
1231.00,0.0776
1230.00,0.0780
1229.00,0.0783
1228.00,0.0784
1227.00,0.0784
1226.00,0.0783
1225.00,0.0780
1224.00,0.0776
1223.00,0.0771
1222.00,0.0766
1221.00,0.0760
1220.00,0.0753
1219.00,0.0747
1218.00,0.0740
1217.00,0.0733
1216.00,0.0725
1215.00,0.0717
1214.00,0.0708
1213.00,0.0698
1212.00,0.0687
1211.00,0.0677
1210.00,0.0665
1209.00,0.0654
1208.00,0.0642
1207.00,0.0630
1206.00,0.0618
1205.00,0.0607
1204.00,0.0595
1203.00,0.0583
1202.00,0.0572
1201.00,0.0561
1200.00,0.0550
1199.00,0.0540
1198.00,0.0531
1197.00,0.0523
1196.00,0.0515
1195.00,0.0507
1194.00,0.0501
1193.00,0.0495
1192.00,0.0490
1191.00,0.0485
1190.00,0.0480
1189.00,0.0476
1188.00,0.0472
1187.00,0.0468
1186.00,0.0465
1185.00,0.0462
1184.00,0.0460
1183.00,0.0459
1182.00,0.0459
1181.00,0.0459
1180.00,0.0461
1179.00,0.0465
1178.00,0.0470
1177.00,0.0476
1176.00,0.0482
1175.00,0.0489
1174.00,0.0497
1173.00,0.0504
1172.00,0.0510
1171.00,0.0515
1170.00,0.0520
1169.00,0.0524
1168.00,0.0527
1167.00,0.0529
1166.00,0.0530
1165.00,0.0531
1164.00,0.0532
1163.00,0.0532
1162.00,0.0533
1161.00,0.0532
1160.00,0.0530
1159.00,0.0528
1158.00,0.0526
1157.00,0.0522
1156.00,0.0518
1155.00,0.0514
1154.00,0.0510
1153.00,0.0505
1152.00,0.0500
1151.00,0.0494
1150.00,0.0489
1149.00,0.0483
1148.00,0.0477
1147.00,0.0471
1146.00,0.0466
1145.00,0.0461
1144.00,0.0456
1143.00,0.0452
1142.00,0.0448
1141.00,0.0444
1140.00,0.0440
1139.00,0.0436
1138.00,0.0433
1137.00,0.0430
1136.00,0.0427
1135.00,0.0424
1134.00,0.0422
1133.00,0.0419
1132.00,0.0417
1131.00,0.0414
1130.00,0.0412
1129.00,0.0410
1128.00,0.0409
1127.00,0.0407
1126.00,0.0406
1125.00,0.0405
1124.00,0.0404
1123.00,0.0403
1122.00,0.0402
1121.00,0.0400
1120.00,0.0399
1119.00,0.0397
1118.00,0.0397
1117.00,0.0396
1116.00,0.0395
1115.00,0.0394
1114.00,0.0393
1113.00,0.0393
1112.00,0.0392
1111.00,0.0392
1110.00,0.0392
1109.00,0.0393
1108.00,0.0393
1107.00,0.0394
1106.00,0.0395
1105.00,0.0396
1104.00,0.0396
1103.00,0.0396
1102.00,0.0396
1101.00,0.0395
1100.00,0.0394
1099.00,0.0392
1098.00,0.0391
1097.00,0.0389
1096.00,0.0388
1095.00,0.0387
1094.00,0.0387
1093.00,0.0387
1092.00,0.0388
1091.00,0.0389
1090.00,0.0392
1089.00,0.0395
1088.00,0.0398
1087.00,0.0401
1086.00,0.0406
1085.00,0.0410
1084.00,0.0415
1083.00,0.0421
1082.00,0.0427
1081.00,0.0434
1080.00,0.0440
1079.00,0.0447
1078.00,0.0455
1077.00,0.0462
1076.00,0.0469
1075.00,0.0477
1074.00,0.0484
1073.00,0.0490
1072.00,0.0495
1071.00,0.0500
1070.00,0.0505
1069.00,0.0508
1068.00,0.0510
1067.00,0.0512
1066.00,0.0513
1065.00,0.0514
1064.00,0.0513
1063.00,0.0513
1062.00,0.0512
1061.00,0.0511
1060.00,0.0508
1059.00,0.0506
1058.00,0.0503
1057.00,0.0499
1056.00,0.0495
1055.00,0.0491
1054.00,0.0487
1053.00,0.0484
1052.00,0.0480
1051.00,0.0477
1050.00,0.0474
1049.00,0.0472
1048.00,0.0469
1047.00,0.0468
1046.00,0.0467
1045.00,0.0466
1044.00,0.0464
1043.00,0.0462
1042.00,0.0461
1041.00,0.0459
1040.00,0.0457
1039.00,0.0454
1038.00,0.0452
1037.00,0.0450
1036.00,0.0447
1035.00,0.0444
1034.00,0.0441
1033.00,0.0438
1032.00,0.0434
1031.00,0.0430
1030.00,0.0427
1029.00,0.0423
1028.00,0.0419
1027.00,0.0416
1026.00,0.0413
1025.00,0.0410
1024.00,0.0407
1023.00,0.0405
1022.00,0.0405
1021.00,0.0405
1020.00,0.0405
1019.00,0.0406
1018.00,0.0408
1017.00,0.0410
1016.00,0.0412
1015.00,0.0413
1014.00,0.0415
1013.00,0.0416
1012.00,0.0416
1011.00,0.0417
1010.00,0.0418
1009.00,0.0419
1008.00,0.0421
1007.00,0.0423
1006.00,0.0426
1005.00,0.0430
1004.00,0.0434
1003.00,0.0439
1002.00,0.0444
1001.00,0.0449
1000.00,0.0454
999.00,0.0458
998.00,0.0461
997.00,0.0463
996.00,0.0464
995.00,0.0464
994.00,0.0463
993.00,0.0461
992.00,0.0457
991.00,0.0451
990.00,0.0445
989.00,0.0439
988.00,0.0433
987.00,0.0429
986.00,0.0426
985.00,0.0425
984.00,0.0425
983.00,0.0428
982.00,0.0431
981.00,0.0435
980.00,0.0440
979.00,0.0444
978.00,0.0450
977.00,0.0454
976.00,0.0457
975.00,0.0459
974.00,0.0459
973.00,0.0457
972.00,0.0454
971.00,0.0449
970.00,0.0445
969.00,0.0439
968.00,0.0433
967.00,0.0428
966.00,0.0423
965.00,0.0418
964.00,0.0414
963.00,0.0410
962.00,0.0407
961.00,0.0404
960.00,0.0400
959.00,0.0398
958.00,0.0396
957.00,0.0394
956.00,0.0392
955.00,0.0390
954.00,0.0389
953.00,0.0387
952.00,0.0385
951.00,0.0384
950.00,0.0383
949.00,0.0381
948.00,0.0380
947.00,0.0378
946.00,0.0378
945.00,0.0377
944.00,0.0375
943.00,0.0374
942.00,0.0374
941.00,0.0372
940.00,0.0371
939.00,0.0370
938.00,0.0369
937.00,0.0368
936.00,0.0368
935.00,0.0367
934.00,0.0367
933.00,0.0368
932.00,0.0368
931.00,0.0369
930.00,0.0370
929.00,0.0371
928.00,0.0371
927.00,0.0370
926.00,0.0370
925.00,0.0369
924.00,0.0368
923.00,0.0365
922.00,0.0362
921.00,0.0359
920.00,0.0356
919.00,0.0353
918.00,0.0351
917.00,0.0348
916.00,0.0345
915.00,0.0343
914.00,0.0341
913.00,0.0340
912.00,0.0338
911.00,0.0336
910.00,0.0336
909.00,0.0335
908.00,0.0333
907.00,0.0332
906.00,0.0332
905.00,0.0331
904.00,0.0331
903.00,0.0330
902.00,0.0330
901.00,0.0329
900.00,0.0327
899.00,0.0326
898.00,0.0326
897.00,0.0326
896.00,0.0326
895.00,0.0325
894.00,0.0325
893.00,0.0325
892.00,0.0324
891.00,0.0324
890.00,0.0324
889.00,0.0325
888.00,0.0324
887.00,0.0325
886.00,0.0325
885.00,0.0325
884.00,0.0325
883.00,0.0324
882.00,0.0325
881.00,0.0325
880.00,0.0325
879.00,0.0325
878.00,0.0325
877.00,0.0325
876.00,0.0325
875.00,0.0325
874.00,0.0325
873.00,0.0324
872.00,0.0323
871.00,0.0321
870.00,0.0320
869.00,0.0320
868.00,0.0318
867.00,0.0318
866.00,0.0318
865.00,0.0318
864.00,0.0318
863.00,0.0318
862.00,0.0319
861.00,0.0321
860.00,0.0322
859.00,0.0324
858.00,0.0327
857.00,0.0331
856.00,0.0333
855.00,0.0336
854.00,0.0338
853.00,0.0340
852.00,0.0341
851.00,0.0342
850.00,0.0343
849.00,0.0342
848.00,0.0341
847.00,0.0340
846.00,0.0340
845.00,0.0339
844.00,0.0338
843.00,0.0337
842.00,0.0338
841.00,0.0339
840.00,0.0339
839.00,0.0341
838.00,0.0343
837.00,0.0345
836.00,0.0346
835.00,0.0348
834.00,0.0352
833.00,0.0355
832.00,0.0358
831.00,0.0360
830.00,0.0363
829.00,0.0365
828.00,0.0367
827.00,0.0368
826.00,0.0368
825.00,0.0368
824.00,0.0368
823.00,0.0367
822.00,0.0367
821.00,0.0367
820.00,0.0366
819.00,0.0365
818.00,0.0366
817.00,0.0366
816.00,0.0366
815.00,0.0366
814.00,0.0367
813.00,0.0368
812.00,0.0368
811.00,0.0368
810.00,0.0370
809.00,0.0371
808.00,0.0371
807.00,0.0370
806.00,0.0370
805.00,0.0370
804.00,0.0369
803.00,0.0368
802.00,0.0369
801.00,0.0369
800.00,0.0369
799.00,0.0370
798.00,0.0370
797.00,0.0370
796.00,0.0370
795.00,0.0371
794.00,0.0372
793.00,0.0373
792.00,0.0374
791.00,0.0376
790.00,0.0378
789.00,0.0380
788.00,0.0381
787.00,0.0383
786.00,0.0385
785.00,0.0387
784.00,0.0389
783.00,0.0391
782.00,0.0394
781.00,0.0396
780.00,0.0398
779.00,0.0399
778.00,0.0402
777.00,0.0405
776.00,0.0407
775.00,0.0410
774.00,0.0414
773.00,0.0418
772.00,0.0422
771.00,0.0426
770.00,0.0430
769.00,0.0434
768.00,0.0438
767.00,0.0441
766.00,0.0445
765.00,0.0447
764.00,0.0449
763.00,0.0450
762.00,0.0452
761.00,0.0454
760.00,0.0456
759.00,0.0457
758.00,0.0460
757.00,0.0462
756.00,0.0464
755.00,0.0467
754.00,0.0470
753.00,0.0474
752.00,0.0477
751.00,0.0480
750.00,0.0484
749.00,0.0488
748.00,0.0492
747.00,0.0497
746.00,0.0503
745.00,0.0509
744.00,0.0515
743.00,0.0521
742.00,0.0528
741.00,0.0535
740.00,0.0542
739.00,0.0548
738.00,0.0556
737.00,0.0564
736.00,0.0571
735.00,0.0579
734.00,0.0587
733.00,0.0596
732.00,0.0604
731.00,0.0611
730.00,0.0620
729.00,0.0628
728.00,0.0635
727.00,0.0642
726.00,0.0649
725.00,0.0657
724.00,0.0664
723.00,0.0671
722.00,0.0678
721.00,0.0685
720.00,0.0691
719.00,0.0697
718.00,0.0703
717.00,0.0709
716.00,0.0715
715.00,0.0721
714.00,0.0727
713.00,0.0734
712.00,0.0739
711.00,0.0745
710.00,0.0752
709.00,0.0759
708.00,0.0765
707.00,0.0771
706.00,0.0778
705.00,0.0784
704.00,0.0790
703.00,0.0796
702.00,0.0802
701.00,0.0808
700.00,0.0813
699.00,0.0819
698.00,0.0825
697.00,0.0831
696.00,0.0836
695.00,0.0840
694.00,0.0844
693.00,0.0848
692.00,0.0850
691.00,0.0853
690.00,0.0856
689.00,0.0859
688.00,0.0860
687.00,0.0861
686.00,0.0863
685.00,0.0864
684.00,0.0865
683.00,0.0866
682.00,0.0868
681.00,0.0869
680.00,0.0870
679.00,0.0871
678.00,0.0873
677.00,0.0874
676.00,0.0874
675.00,0.0874
674.00,0.0875
673.00,0.0875
672.00,0.0873
671.00,0.0871
670.00,0.0870
669.00,0.0871
668.00,0.0875
667.00,0.0878
666.00,0.0880
665.00,0.0879
664.00,0.0878
663.00,0.0879
662.00,0.0882
661.00,0.0885
660.00,0.0886
659.00,0.0888
658.00,0.0890
657.00,0.0894
656.00,0.0897
655.00,0.0901
654.00,0.0907
653.00,0.0912
652.00,0.0916
651.00,0.0920
650.00,0.0925
649.00,0.0930
648.00,0.0934
647.00,0.0939
646.00,0.0943
645.00,0.0947
644.00,0.0950
643.00,0.0954
642.00,0.0959
641.00,0.0963
640.00,0.0966
639.00,0.0969
638.00,0.0973
637.00,0.0976
636.00,0.0979
635.00,0.0982
634.00,0.0987
633.00,0.0991
632.00,0.0993
631.00,0.0995
630.00,0.0998
629.00,0.1000
628.00,0.1002
627.00,0.1004
626.00,0.1006
625.00,0.1007
624.00,0.1005
623.00,0.1004
622.00,0.1003
621.00,0.1003
620.00,0.1003
619.00,0.1003
618.00,0.1005
617.00,0.1007
616.00,0.1009
615.00,0.1012
614.00,0.1015
613.00,0.1018
612.00,0.1019
611.00,0.1019
610.00,0.1019
609.00,0.1016
608.00,0.1010
607.00,0.1004
606.00,0.0999
605.00,0.0995
604.00,0.0990
603.00,0.0985
602.00,0.0980
601.00,0.0974
600.00,0.0968
599.00,0.0961
598.00,0.0956
597.00,0.0951
596.00,0.0945
595.00,0.0940
594.00,0.0936
593.00,0.0932
592.00,0.0928
591.00,0.0925
590.00,0.0923
589.00,0.0921
588.00,0.0918
587.00,0.0915
586.00,0.0914
585.00,0.0913
584.00,0.0911
583.00,0.0910
582.00,0.0910
581.00,0.0911
580.00,0.0910
579.00,0.0909
578.00,0.0910
577.00,0.0910
576.00,0.0909
575.00,0.0909
574.00,0.0911
573.00,0.0912
572.00,0.0913
571.00,0.0915
570.00,0.0919
569.00,0.0924
568.00,0.0928
567.00,0.0935
566.00,0.0946
565.00,0.0958
564.00,0.0969
563.00,0.0982
562.00,0.0998
561.00,0.1015
560.00,0.1031
559.00,0.1049
558.00,0.1068
557.00,0.1086
556.00,0.1101
555.00,0.1116
554.00,0.1130
553.00,0.1141
552.00,0.1147
551.00,0.1151
550.00,0.1154
549.00,0.1156
548.00,0.1156
547.00,0.1155
546.00,0.1154
545.00,0.1151
544.00,0.1144
543.00,0.1138
542.00,0.1133
541.00,0.1128
540.00,0.1120
539.00,0.1112
538.00,0.1106
537.00,0.1100
536.00,0.1092
535.00,0.1085
534.00,0.1079
533.00,0.1072
532.00,0.1064
531.00,0.1057
530.00,0.1054
529.00,0.1050
528.00,0.1045
527.00,0.1039
526.00,0.1036
525.00,0.1033
524.00,0.1028
523.00,0.1023
522.00,0.1020
521.00,0.1017
520.00,0.1012
519.00,0.1008
518.00,0.1009
517.00,0.1010
516.00,0.1009
515.00,0.1009
514.00,0.1010
513.00,0.1010
512.00,0.1006
511.00,0.1001
510.00,0.1000
509.00,0.0998
508.00,0.0994
507.00,0.0990
506.00,0.0987
505.00,0.0984
504.00,0.0978
503.00,0.0974
502.00,0.0973
501.00,0.0972
500.00,0.0967
499.00,0.0963
498.00,0.0963
497.00,0.0964
496.00,0.0962
495.00,0.0961
494.00,0.0964
493.00,0.0966
492.00,0.0965
491.00,0.0964
490.00,0.0965
489.00,0.0965
488.00,0.0962
487.00,0.0959
486.00,0.0958
485.00,0.0956
484.00,0.0951
483.00,0.0948
482.00,0.0948
481.00,0.0946
480.00,0.0940
479.00,0.0934
478.00,0.0934
477.00,0.0934
476.00,0.0929
475.00,0.0924
474.00,0.0922
473.00,0.0923
472.00,0.0920
471.00,0.0916
470.00,0.0915
469.00,0.0911
468.00,0.0903
467.00,0.0898
466.00,0.0898
465.00,0.0897
464.00,0.0892
463.00,0.0887
462.00,0.0887
461.00,0.0887
460.00,0.0880
459.00,0.0873
458.00,0.0874
457.00,0.0877
456.00,0.0875
455.00,0.0873
454.00,0.0875
453.00,0.0877
452.00,0.0875
451.00,0.0874
450.00,0.0875
449.00,0.0874
448.00,0.0867
447.00,0.0862
446.00,0.0865
445.00,0.0868
444.00,0.0865
443.00,0.0862
442.00,0.0865
441.00,0.0868
440.00,0.0868
439.00,0.0870
438.00,0.0878
437.00,0.0881
436.00,0.0877
435.00,0.0876
434.00,0.0886
433.00,0.0898
432.00,0.0908
431.00,0.0920
430.00,0.0939
429.00,0.0956
428.00,0.0963
427.00,0.0967
426.00,0.0973
425.00,0.0978
424.00,0.0975
423.00,0.0973
422.00,0.0977
421.00,0.0978
420.00,0.0966
419.00,0.0951
418.00,0.0944
417.00,0.0934
416.00,0.0918
415.00,0.0911
414.00,0.0917
413.00,0.0922
412.00,0.0914
411.00,0.0905
410.00,0.0905
409.00,0.0901
408.00,0.0882
407.00,0.0864
406.00,0.0862
405.00,0.0865
404.00,0.0857
403.00,0.0848
402.00,0.0850
401.00,0.0849
400.00,0.0836
