Created as New Dataset,Sample 646 By YargerLab Date Tuesday, June 10 2025
cm-1,A
4000.00,0.0205
3999.00,0.0205
3998.00,0.0205
3997.00,0.0204
3996.00,0.0204
3995.00,0.0204
3994.00,0.0205
3993.00,0.0205
3992.00,0.0205
3991.00,0.0205
3990.00,0.0204
3989.00,0.0204
3988.00,0.0204
3987.00,0.0204
3986.00,0.0204
3985.00,0.0205
3984.00,0.0205
3983.00,0.0204
3982.00,0.0204
3981.00,0.0204
3980.00,0.0203
3979.00,0.0203
3978.00,0.0203
3977.00,0.0203
3976.00,0.0203
3975.00,0.0203
3974.00,0.0203
3973.00,0.0203
3972.00,0.0204
3971.00,0.0204
3970.00,0.0204
3969.00,0.0204
3968.00,0.0204
3967.00,0.0204
3966.00,0.0204
3965.00,0.0204
3964.00,0.0204
3963.00,0.0203
3962.00,0.0203
3961.00,0.0203
3960.00,0.0204
3959.00,0.0204
3958.00,0.0204
3957.00,0.0204
3956.00,0.0204
3955.00,0.0204
3954.00,0.0203
3953.00,0.0203
3952.00,0.0203
3951.00,0.0203
3950.00,0.0203
3949.00,0.0203
3948.00,0.0203
3947.00,0.0203
3946.00,0.0203
3945.00,0.0203
3944.00,0.0202
3943.00,0.0202
3942.00,0.0202
3941.00,0.0202
3940.00,0.0202
3939.00,0.0202
3938.00,0.0202
3937.00,0.0202
3936.00,0.0202
3935.00,0.0202
3934.00,0.0202
3933.00,0.0202
3932.00,0.0201
3931.00,0.0201
3930.00,0.0201
3929.00,0.0201
3928.00,0.0201
3927.00,0.0201
3926.00,0.0201
3925.00,0.0201
3924.00,0.0201
3923.00,0.0201
3922.00,0.0201
3921.00,0.0201
3920.00,0.0201
3919.00,0.0201
3918.00,0.0200
3917.00,0.0200
3916.00,0.0200
3915.00,0.0200
3914.00,0.0199
3913.00,0.0199
3912.00,0.0199
3911.00,0.0199
3910.00,0.0199
3909.00,0.0199
3908.00,0.0199
3907.00,0.0200
3906.00,0.0200
3905.00,0.0200
3904.00,0.0200
3903.00,0.0200
3902.00,0.0201
3901.00,0.0201
3900.00,0.0201
3899.00,0.0201
3898.00,0.0201
3897.00,0.0201
3896.00,0.0201
3895.00,0.0200
3894.00,0.0200
3893.00,0.0199
3892.00,0.0199
3891.00,0.0199
3890.00,0.0199
3889.00,0.0199
3888.00,0.0199
3887.00,0.0199
3886.00,0.0199
3885.00,0.0198
3884.00,0.0198
3883.00,0.0198
3882.00,0.0198
3881.00,0.0198
3880.00,0.0198
3879.00,0.0198
3878.00,0.0198
3877.00,0.0198
3876.00,0.0198
3875.00,0.0198
3874.00,0.0197
3873.00,0.0197
3872.00,0.0197
3871.00,0.0198
3870.00,0.0197
3869.00,0.0197
3868.00,0.0197
3867.00,0.0197
3866.00,0.0197
3865.00,0.0198
3864.00,0.0197
3863.00,0.0197
3862.00,0.0197
3861.00,0.0196
3860.00,0.0196
3859.00,0.0196
3858.00,0.0196
3857.00,0.0195
3856.00,0.0195
3855.00,0.0194
3854.00,0.0194
3853.00,0.0195
3852.00,0.0195
3851.00,0.0195
3850.00,0.0196
3849.00,0.0196
3848.00,0.0196
3847.00,0.0196
3846.00,0.0196
3845.00,0.0196
3844.00,0.0195
3843.00,0.0195
3842.00,0.0195
3841.00,0.0195
3840.00,0.0194
3839.00,0.0194
3838.00,0.0194
3837.00,0.0194
3836.00,0.0194
3835.00,0.0194
3834.00,0.0194
3833.00,0.0194
3832.00,0.0194
3831.00,0.0194
3830.00,0.0194
3829.00,0.0194
3828.00,0.0194
3827.00,0.0194
3826.00,0.0194
3825.00,0.0193
3824.00,0.0193
3823.00,0.0193
3822.00,0.0193
3821.00,0.0192
3820.00,0.0192
3819.00,0.0192
3818.00,0.0192
3817.00,0.0192
3816.00,0.0192
3815.00,0.0192
3814.00,0.0192
3813.00,0.0192
3812.00,0.0192
3811.00,0.0192
3810.00,0.0192
3809.00,0.0192
3808.00,0.0192
3807.00,0.0192
3806.00,0.0192
3805.00,0.0192
3804.00,0.0192
3803.00,0.0192
3802.00,0.0192
3801.00,0.0192
3800.00,0.0191
3799.00,0.0191
3798.00,0.0192
3797.00,0.0192
3796.00,0.0192
3795.00,0.0192
3794.00,0.0192
3793.00,0.0192
3792.00,0.0192
3791.00,0.0191
3790.00,0.0191
3789.00,0.0191
3788.00,0.0190
3787.00,0.0190
3786.00,0.0189
3785.00,0.0189
3784.00,0.0189
3783.00,0.0189
3782.00,0.0189
3781.00,0.0190
3780.00,0.0190
3779.00,0.0190
3778.00,0.0190
3777.00,0.0190
3776.00,0.0190
3775.00,0.0190
3774.00,0.0190
3773.00,0.0190
3772.00,0.0190
3771.00,0.0190
3770.00,0.0190
3769.00,0.0190
3768.00,0.0190
3767.00,0.0190
3766.00,0.0190
3765.00,0.0190
3764.00,0.0189
3763.00,0.0189
3762.00,0.0189
3761.00,0.0189
3760.00,0.0189
3759.00,0.0189
3758.00,0.0189
3757.00,0.0188
3756.00,0.0188
3755.00,0.0188
3754.00,0.0188
3753.00,0.0188
3752.00,0.0187
3751.00,0.0187
3750.00,0.0187
3749.00,0.0188
3748.00,0.0188
3747.00,0.0188
3746.00,0.0188
3745.00,0.0188
3744.00,0.0188
3743.00,0.0188
3742.00,0.0187
3741.00,0.0187
3740.00,0.0187
3739.00,0.0187
3738.00,0.0187
3737.00,0.0187
3736.00,0.0187
3735.00,0.0188
3734.00,0.0188
3733.00,0.0188
3732.00,0.0188
3731.00,0.0187
3730.00,0.0187
3729.00,0.0187
3728.00,0.0186
3727.00,0.0186
3726.00,0.0186
3725.00,0.0186
3724.00,0.0186
3723.00,0.0186
3722.00,0.0186
3721.00,0.0186
3720.00,0.0186
3719.00,0.0185
3718.00,0.0185
3717.00,0.0184
3716.00,0.0184
3715.00,0.0184
3714.00,0.0184
3713.00,0.0185
3712.00,0.0185
3711.00,0.0185
3710.00,0.0185
3709.00,0.0185
3708.00,0.0185
3707.00,0.0185
3706.00,0.0185
3705.00,0.0185
3704.00,0.0184
3703.00,0.0184
3702.00,0.0184
3701.00,0.0184
3700.00,0.0184
3699.00,0.0184
3698.00,0.0184
3697.00,0.0184
3696.00,0.0184
3695.00,0.0184
3694.00,0.0184
3693.00,0.0184
3692.00,0.0184
3691.00,0.0184
3690.00,0.0183
3689.00,0.0183
3688.00,0.0183
3687.00,0.0183
3686.00,0.0183
3685.00,0.0183
3684.00,0.0184
3683.00,0.0184
3682.00,0.0184
3681.00,0.0184
3680.00,0.0185
3679.00,0.0186
3678.00,0.0186
3677.00,0.0187
3676.00,0.0187
3675.00,0.0187
3674.00,0.0187
3673.00,0.0187
3672.00,0.0187
3671.00,0.0187
3670.00,0.0187
3669.00,0.0187
3668.00,0.0188
3667.00,0.0188
3666.00,0.0188
3665.00,0.0189
3664.00,0.0189
3663.00,0.0189
3662.00,0.0189
3661.00,0.0190
3660.00,0.0190
3659.00,0.0191
3658.00,0.0191
3657.00,0.0191
3656.00,0.0192
3655.00,0.0193
3654.00,0.0193
3653.00,0.0194
3652.00,0.0194
3651.00,0.0195
3650.00,0.0195
3649.00,0.0195
3648.00,0.0195
3647.00,0.0195
3646.00,0.0196
3645.00,0.0195
3644.00,0.0196
3643.00,0.0196
3642.00,0.0197
3641.00,0.0197
3640.00,0.0198
3639.00,0.0199
3638.00,0.0199
3637.00,0.0199
3636.00,0.0200
3635.00,0.0200
3634.00,0.0201
3633.00,0.0201
3632.00,0.0202
3631.00,0.0203
3630.00,0.0204
3629.00,0.0205
3628.00,0.0206
3627.00,0.0207
3626.00,0.0207
3625.00,0.0208
3624.00,0.0208
3623.00,0.0209
3622.00,0.0209
3621.00,0.0210
3620.00,0.0210
3619.00,0.0210
3618.00,0.0211
3617.00,0.0212
3616.00,0.0213
3615.00,0.0213
3614.00,0.0214
3613.00,0.0215
3612.00,0.0216
3611.00,0.0217
3610.00,0.0218
3609.00,0.0219
3608.00,0.0219
3607.00,0.0220
3606.00,0.0220
3605.00,0.0220
3604.00,0.0221
3603.00,0.0221
3602.00,0.0222
3601.00,0.0224
3600.00,0.0225
3599.00,0.0226
3598.00,0.0227
3597.00,0.0227
3596.00,0.0228
3595.00,0.0229
3594.00,0.0229
3593.00,0.0230
3592.00,0.0231
3591.00,0.0232
3590.00,0.0233
3589.00,0.0234
3588.00,0.0235
3587.00,0.0236
3586.00,0.0237
3585.00,0.0238
3584.00,0.0239
3583.00,0.0240
3582.00,0.0240
3581.00,0.0241
3580.00,0.0241
3579.00,0.0241
3578.00,0.0242
3577.00,0.0243
3576.00,0.0244
3575.00,0.0245
3574.00,0.0246
3573.00,0.0247
3572.00,0.0249
3571.00,0.0250
3570.00,0.0252
3569.00,0.0253
3568.00,0.0255
3567.00,0.0255
3566.00,0.0256
3565.00,0.0256
3564.00,0.0257
3563.00,0.0258
3562.00,0.0259
3561.00,0.0260
3560.00,0.0261
3559.00,0.0262
3558.00,0.0263
3557.00,0.0263
3556.00,0.0264
3555.00,0.0265
3554.00,0.0266
3553.00,0.0267
3552.00,0.0267
3551.00,0.0268
3550.00,0.0270
3549.00,0.0271
3548.00,0.0273
3547.00,0.0274
3546.00,0.0276
3545.00,0.0277
3544.00,0.0278
3543.00,0.0278
3542.00,0.0279
3541.00,0.0280
3540.00,0.0280
3539.00,0.0281
3538.00,0.0282
3537.00,0.0284
3536.00,0.0285
3535.00,0.0285
3534.00,0.0286
3533.00,0.0287
3532.00,0.0288
3531.00,0.0289
3530.00,0.0290
3529.00,0.0291
3528.00,0.0292
3527.00,0.0293
3526.00,0.0294
3525.00,0.0295
3524.00,0.0297
3523.00,0.0298
3522.00,0.0299
3521.00,0.0301
3520.00,0.0302
3519.00,0.0303
3518.00,0.0303
3517.00,0.0304
3516.00,0.0304
3515.00,0.0305
3514.00,0.0305
3513.00,0.0306
3512.00,0.0307
3511.00,0.0308
3510.00,0.0308
3509.00,0.0309
3508.00,0.0310
3507.00,0.0311
3506.00,0.0312
3505.00,0.0314
3504.00,0.0315
3503.00,0.0315
3502.00,0.0316
3501.00,0.0317
3500.00,0.0318
3499.00,0.0319
3498.00,0.0321
3497.00,0.0322
3496.00,0.0322
3495.00,0.0323
3494.00,0.0324
3493.00,0.0324
3492.00,0.0325
3491.00,0.0326
3490.00,0.0327
3489.00,0.0328
3488.00,0.0329
3487.00,0.0330
3486.00,0.0331
3485.00,0.0332
3484.00,0.0333
3483.00,0.0334
3482.00,0.0335
3481.00,0.0336
3480.00,0.0337
3479.00,0.0338
3478.00,0.0339
3477.00,0.0340
3476.00,0.0340
3475.00,0.0341
3474.00,0.0341
3473.00,0.0342
3472.00,0.0343
3471.00,0.0344
3470.00,0.0346
3469.00,0.0347
3468.00,0.0348
3467.00,0.0348
3466.00,0.0349
3465.00,0.0349
3464.00,0.0350
3463.00,0.0351
3462.00,0.0353
3461.00,0.0354
3460.00,0.0355
3459.00,0.0357
3458.00,0.0359
3457.00,0.0361
3456.00,0.0362
3455.00,0.0362
3454.00,0.0362
3453.00,0.0362
3452.00,0.0362
3451.00,0.0363
3450.00,0.0364
3449.00,0.0366
3448.00,0.0367
3447.00,0.0368
3446.00,0.0369
3445.00,0.0369
3444.00,0.0371
3443.00,0.0372
3442.00,0.0373
3441.00,0.0375
3440.00,0.0376
3439.00,0.0377
3438.00,0.0379
3437.00,0.0380
3436.00,0.0381
3435.00,0.0382
3434.00,0.0384
3433.00,0.0385
3432.00,0.0387
3431.00,0.0388
3430.00,0.0390
3429.00,0.0392
3428.00,0.0394
3427.00,0.0395
3426.00,0.0397
3425.00,0.0398
3424.00,0.0400
3423.00,0.0401
3422.00,0.0403
3421.00,0.0406
3420.00,0.0408
3419.00,0.0410
3418.00,0.0412
3417.00,0.0413
3416.00,0.0415
3415.00,0.0417
3414.00,0.0419
3413.00,0.0420
3412.00,0.0422
3411.00,0.0424
3410.00,0.0426
3409.00,0.0427
3408.00,0.0429
3407.00,0.0431
3406.00,0.0433
3405.00,0.0435
3404.00,0.0436
3403.00,0.0438
3402.00,0.0440
3401.00,0.0442
3400.00,0.0444
3399.00,0.0446
3398.00,0.0448
3397.00,0.0450
3396.00,0.0452
3395.00,0.0453
3394.00,0.0454
3393.00,0.0456
3392.00,0.0458
3391.00,0.0460
3390.00,0.0462
3389.00,0.0464
3388.00,0.0466
3387.00,0.0468
3386.00,0.0470
3385.00,0.0472
3384.00,0.0474
3383.00,0.0477
3382.00,0.0479
3381.00,0.0481
3380.00,0.0483
3379.00,0.0485
3378.00,0.0488
3377.00,0.0490
3376.00,0.0493
3375.00,0.0495
3374.00,0.0497
3373.00,0.0499
3372.00,0.0501
3371.00,0.0504
3370.00,0.0506
3369.00,0.0509
3368.00,0.0512
3367.00,0.0515
3366.00,0.0518
3365.00,0.0522
3364.00,0.0525
3363.00,0.0529
3362.00,0.0532
3361.00,0.0535
3360.00,0.0539
3359.00,0.0542
3358.00,0.0545
3357.00,0.0548
3356.00,0.0552
3355.00,0.0556
3354.00,0.0559
3353.00,0.0563
3352.00,0.0566
3351.00,0.0571
3350.00,0.0575
3349.00,0.0580
3348.00,0.0584
3347.00,0.0589
3346.00,0.0594
3345.00,0.0598
3344.00,0.0602
3343.00,0.0607
3342.00,0.0611
3341.00,0.0616
3340.00,0.0621
3339.00,0.0627
3338.00,0.0632
3337.00,0.0638
3336.00,0.0643
3335.00,0.0649
3334.00,0.0654
3333.00,0.0659
3332.00,0.0665
3331.00,0.0671
3330.00,0.0677
3329.00,0.0683
3328.00,0.0689
3327.00,0.0694
3326.00,0.0700
3325.00,0.0707
3324.00,0.0713
3323.00,0.0720
3322.00,0.0727
3321.00,0.0733
3320.00,0.0740
3319.00,0.0747
3318.00,0.0753
3317.00,0.0760
3316.00,0.0766
3315.00,0.0773
3314.00,0.0780
3313.00,0.0787
3312.00,0.0793
3311.00,0.0799
3310.00,0.0805
3309.00,0.0811
3308.00,0.0817
3307.00,0.0824
3306.00,0.0830
3305.00,0.0838
3304.00,0.0845
3303.00,0.0852
3302.00,0.0860
3301.00,0.0866
3300.00,0.0872
3299.00,0.0877
3298.00,0.0882
3297.00,0.0887
3296.00,0.0892
3295.00,0.0896
3294.00,0.0901
3293.00,0.0905
3292.00,0.0908
3291.00,0.0912
3290.00,0.0915
3289.00,0.0918
3288.00,0.0920
3287.00,0.0921
3286.00,0.0922
3285.00,0.0922
3284.00,0.0922
3283.00,0.0922
3282.00,0.0920
3281.00,0.0918
3280.00,0.0916
3279.00,0.0913
3278.00,0.0910
3277.00,0.0906
3276.00,0.0902
3275.00,0.0897
3274.00,0.0891
3273.00,0.0886
3272.00,0.0880
3271.00,0.0874
3270.00,0.0869
3269.00,0.0863
3268.00,0.0858
3267.00,0.0852
3266.00,0.0846
3265.00,0.0840
3264.00,0.0833
3263.00,0.0826
3262.00,0.0819
3261.00,0.0813
3260.00,0.0806
3259.00,0.0799
3258.00,0.0792
3257.00,0.0785
3256.00,0.0779
3255.00,0.0773
3254.00,0.0767
3253.00,0.0762
3252.00,0.0756
3251.00,0.0751
3250.00,0.0745
3249.00,0.0739
3248.00,0.0734
3247.00,0.0729
3246.00,0.0724
3245.00,0.0720
3244.00,0.0715
3243.00,0.0711
3242.00,0.0706
3241.00,0.0702
3240.00,0.0697
3239.00,0.0693
3238.00,0.0688
3237.00,0.0684
3236.00,0.0679
3235.00,0.0675
3234.00,0.0670
3233.00,0.0667
3232.00,0.0664
3231.00,0.0661
3230.00,0.0658
3229.00,0.0654
3228.00,0.0651
3227.00,0.0647
3226.00,0.0644
3225.00,0.0640
3224.00,0.0637
3223.00,0.0633
3222.00,0.0630
3221.00,0.0626
3220.00,0.0623
3219.00,0.0620
3218.00,0.0617
3217.00,0.0615
3216.00,0.0612
3215.00,0.0609
3214.00,0.0606
3213.00,0.0603
3212.00,0.0600
3211.00,0.0597
3210.00,0.0594
3209.00,0.0591
3208.00,0.0588
3207.00,0.0585
3206.00,0.0582
3205.00,0.0579
3204.00,0.0576
3203.00,0.0573
3202.00,0.0571
3201.00,0.0568
3200.00,0.0565
3199.00,0.0561
3198.00,0.0558
3197.00,0.0555
3196.00,0.0552
3195.00,0.0549
3194.00,0.0546
3193.00,0.0543
3192.00,0.0540
3191.00,0.0537
3190.00,0.0534
3189.00,0.0531
3188.00,0.0528
3187.00,0.0525
3186.00,0.0522
3185.00,0.0519
3184.00,0.0516
3183.00,0.0513
3182.00,0.0510
3181.00,0.0507
3180.00,0.0504
3179.00,0.0502
3178.00,0.0499
3177.00,0.0496
3176.00,0.0494
3175.00,0.0491
3174.00,0.0488
3173.00,0.0485
3172.00,0.0482
3171.00,0.0479
3170.00,0.0476
3169.00,0.0474
3168.00,0.0471
3167.00,0.0469
3166.00,0.0466
3165.00,0.0463
3164.00,0.0461
3163.00,0.0458
3162.00,0.0455
3161.00,0.0453
3160.00,0.0451
3159.00,0.0449
3158.00,0.0447
3157.00,0.0444
3156.00,0.0442
3155.00,0.0440
3154.00,0.0438
3153.00,0.0436
3152.00,0.0434
3151.00,0.0433
3150.00,0.0431
3149.00,0.0430
3148.00,0.0428
3147.00,0.0427
3146.00,0.0425
3145.00,0.0424
3144.00,0.0422
3143.00,0.0421
3142.00,0.0419
3141.00,0.0417
3140.00,0.0415
3139.00,0.0414
3138.00,0.0413
3137.00,0.0412
3136.00,0.0411
3135.00,0.0410
3134.00,0.0409
3133.00,0.0408
3132.00,0.0407
3131.00,0.0406
3130.00,0.0406
3129.00,0.0405
3128.00,0.0404
3127.00,0.0404
3126.00,0.0403
3125.00,0.0402
3124.00,0.0402
3123.00,0.0401
3122.00,0.0400
3121.00,0.0400
3120.00,0.0399
3119.00,0.0399
3118.00,0.0399
3117.00,0.0399
3116.00,0.0400
3115.00,0.0400
3114.00,0.0401
3113.00,0.0402
3112.00,0.0402
3111.00,0.0402
3110.00,0.0403
3109.00,0.0404
3108.00,0.0404
3107.00,0.0406
3106.00,0.0407
3105.00,0.0408
3104.00,0.0409
3103.00,0.0409
3102.00,0.0410
3101.00,0.0410
3100.00,0.0411
3099.00,0.0412
3098.00,0.0413
3097.00,0.0414
3096.00,0.0415
3095.00,0.0415
3094.00,0.0416
3093.00,0.0417
3092.00,0.0417
3091.00,0.0418
3090.00,0.0419
3089.00,0.0420
3088.00,0.0420
3087.00,0.0421
3086.00,0.0422
3085.00,0.0423
3084.00,0.0423
3083.00,0.0424
3082.00,0.0424
3081.00,0.0424
3080.00,0.0424
3079.00,0.0425
3078.00,0.0426
3077.00,0.0427
3076.00,0.0429
3075.00,0.0430
3074.00,0.0430
3073.00,0.0431
3072.00,0.0431
3071.00,0.0430
3070.00,0.0429
3069.00,0.0429
3068.00,0.0428
3067.00,0.0427
3066.00,0.0427
3065.00,0.0427
3064.00,0.0427
3063.00,0.0427
3062.00,0.0427
3061.00,0.0426
3060.00,0.0425
3059.00,0.0423
3058.00,0.0421
3057.00,0.0420
3056.00,0.0418
3055.00,0.0416
3054.00,0.0414
3053.00,0.0413
3052.00,0.0411
3051.00,0.0409
3050.00,0.0408
3049.00,0.0407
3048.00,0.0406
3047.00,0.0404
3046.00,0.0401
3045.00,0.0399
3044.00,0.0397
3043.00,0.0394
3042.00,0.0393
3041.00,0.0392
3040.00,0.0391
3039.00,0.0389
3038.00,0.0388
3037.00,0.0385
3036.00,0.0383
3035.00,0.0381
3034.00,0.0379
3033.00,0.0378
3032.00,0.0377
3031.00,0.0376
3030.00,0.0375
3029.00,0.0375
3028.00,0.0374
3027.00,0.0372
3026.00,0.0371
3025.00,0.0369
3024.00,0.0368
3023.00,0.0366
3022.00,0.0365
3021.00,0.0362
3020.00,0.0360
3019.00,0.0358
3018.00,0.0356
3017.00,0.0355
3016.00,0.0354
3015.00,0.0353
3014.00,0.0353
3013.00,0.0352
3012.00,0.0352
3011.00,0.0353
3010.00,0.0354
3009.00,0.0355
3008.00,0.0355
3007.00,0.0355
3006.00,0.0354
3005.00,0.0354
3004.00,0.0354
3003.00,0.0355
3002.00,0.0355
3001.00,0.0355
3000.00,0.0356
2999.00,0.0356
2998.00,0.0357
2997.00,0.0358
2996.00,0.0360
2995.00,0.0361
2994.00,0.0362
2993.00,0.0364
2992.00,0.0366
2991.00,0.0369
2990.00,0.0372
2989.00,0.0374
2988.00,0.0377
2987.00,0.0380
2986.00,0.0382
2985.00,0.0385
2984.00,0.0387
2983.00,0.0389
2982.00,0.0392
2981.00,0.0394
2980.00,0.0397
2979.00,0.0400
2978.00,0.0402
2977.00,0.0405
2976.00,0.0407
2975.00,0.0409
2974.00,0.0411
2973.00,0.0414
2972.00,0.0417
2971.00,0.0419
2970.00,0.0422
2969.00,0.0425
2968.00,0.0428
2967.00,0.0430
2966.00,0.0432
2965.00,0.0434
2964.00,0.0436
2963.00,0.0438
2962.00,0.0439
2961.00,0.0440
2960.00,0.0441
2959.00,0.0442
2958.00,0.0442
2957.00,0.0441
2956.00,0.0440
2955.00,0.0439
2954.00,0.0438
2953.00,0.0437
2952.00,0.0436
2951.00,0.0435
2950.00,0.0435
2949.00,0.0435
2948.00,0.0436
2947.00,0.0438
2946.00,0.0441
2945.00,0.0445
2944.00,0.0449
2943.00,0.0455
2942.00,0.0462
2941.00,0.0469
2940.00,0.0476
2939.00,0.0484
2938.00,0.0493
2937.00,0.0501
2936.00,0.0510
2935.00,0.0520
2934.00,0.0529
2933.00,0.0538
2932.00,0.0546
2931.00,0.0555
2930.00,0.0563
2929.00,0.0572
2928.00,0.0580
2927.00,0.0587
2926.00,0.0594
2925.00,0.0600
2924.00,0.0606
2923.00,0.0610
2922.00,0.0614
2921.00,0.0617
2920.00,0.0618
2919.00,0.0618
2918.00,0.0615
2917.00,0.0608
2916.00,0.0598
2915.00,0.0584
2914.00,0.0568
2913.00,0.0550
2912.00,0.0533
2911.00,0.0517
2910.00,0.0503
2909.00,0.0491
2908.00,0.0481
2907.00,0.0473
2906.00,0.0465
2905.00,0.0459
2904.00,0.0453
2903.00,0.0448
2902.00,0.0443
2901.00,0.0438
2900.00,0.0434
2899.00,0.0430
2898.00,0.0425
2897.00,0.0422
2896.00,0.0418
2895.00,0.0415
2894.00,0.0412
2893.00,0.0408
2892.00,0.0405
2891.00,0.0402
2890.00,0.0399
2889.00,0.0397
2888.00,0.0394
2887.00,0.0392
2886.00,0.0391
2885.00,0.0389
2884.00,0.0388
2883.00,0.0387
2882.00,0.0387
2881.00,0.0387
2880.00,0.0387
2879.00,0.0387
2878.00,0.0388
2877.00,0.0389
2876.00,0.0389
2875.00,0.0390
2874.00,0.0390
2873.00,0.0389
2872.00,0.0389
2871.00,0.0388
2870.00,0.0386
2869.00,0.0385
2868.00,0.0383
2867.00,0.0382
2866.00,0.0381
2865.00,0.0381
2864.00,0.0382
2863.00,0.0384
2862.00,0.0387
2861.00,0.0392
2860.00,0.0397
2859.00,0.0404
2858.00,0.0412
2857.00,0.0420
2856.00,0.0429
2855.00,0.0437
2854.00,0.0446
2853.00,0.0453
2852.00,0.0459
2851.00,0.0462
2850.00,0.0461
2849.00,0.0454
2848.00,0.0442
2847.00,0.0426
2846.00,0.0410
2845.00,0.0394
2844.00,0.0379
2843.00,0.0366
2842.00,0.0356
2841.00,0.0347
2840.00,0.0340
2839.00,0.0334
2838.00,0.0330
2837.00,0.0326
2836.00,0.0322
2835.00,0.0319
2834.00,0.0317
2833.00,0.0315
2832.00,0.0313
2831.00,0.0311
2830.00,0.0309
2829.00,0.0308
2828.00,0.0307
2827.00,0.0305
2826.00,0.0304
2825.00,0.0303
2824.00,0.0301
2823.00,0.0300
2822.00,0.0299
2821.00,0.0299
2820.00,0.0298
2819.00,0.0297
2818.00,0.0296
2817.00,0.0295
2816.00,0.0294
2815.00,0.0293
2814.00,0.0292
2813.00,0.0291
2812.00,0.0291
2811.00,0.0290
2810.00,0.0289
2809.00,0.0289
2808.00,0.0288
2807.00,0.0287
2806.00,0.0287
2805.00,0.0286
2804.00,0.0286
2803.00,0.0285
2802.00,0.0284
2801.00,0.0284
2800.00,0.0283
2799.00,0.0282
2798.00,0.0281
2797.00,0.0280
2796.00,0.0279
2795.00,0.0279
2794.00,0.0278
2793.00,0.0277
2792.00,0.0277
2791.00,0.0276
2790.00,0.0276
2789.00,0.0275
2788.00,0.0275
2787.00,0.0275
2786.00,0.0274
2785.00,0.0274
2784.00,0.0273
2783.00,0.0272
2782.00,0.0272
2781.00,0.0271
2780.00,0.0271
2779.00,0.0270
2778.00,0.0270
2777.00,0.0269
2776.00,0.0268
2775.00,0.0268
2774.00,0.0267
2773.00,0.0266
2772.00,0.0266
2771.00,0.0265
2770.00,0.0265
2769.00,0.0265
2768.00,0.0264
2767.00,0.0264
2766.00,0.0263
2765.00,0.0262
2764.00,0.0261
2763.00,0.0261
2762.00,0.0261
2761.00,0.0261
2760.00,0.0261
2759.00,0.0260
2758.00,0.0260
2757.00,0.0259
2756.00,0.0259
2755.00,0.0258
2754.00,0.0258
2753.00,0.0257
2752.00,0.0257
2751.00,0.0256
2750.00,0.0255
2749.00,0.0255
2748.00,0.0255
2747.00,0.0254
2746.00,0.0254
2745.00,0.0253
2744.00,0.0253
2743.00,0.0253
2742.00,0.0252
2741.00,0.0252
2740.00,0.0252
2739.00,0.0252
2738.00,0.0251
2737.00,0.0250
2736.00,0.0249
2735.00,0.0249
2734.00,0.0248
2733.00,0.0248
2732.00,0.0247
2731.00,0.0247
2730.00,0.0247
2729.00,0.0246
2728.00,0.0246
2727.00,0.0245
2726.00,0.0245
2725.00,0.0245
2724.00,0.0245
2723.00,0.0244
2722.00,0.0244
2721.00,0.0244
2720.00,0.0243
2719.00,0.0243
2718.00,0.0242
2717.00,0.0242
2716.00,0.0241
2715.00,0.0241
2714.00,0.0241
2713.00,0.0240
2712.00,0.0240
2711.00,0.0240
2710.00,0.0239
2709.00,0.0239
2708.00,0.0239
2707.00,0.0239
2706.00,0.0238
2705.00,0.0238
2704.00,0.0237
2703.00,0.0237
2702.00,0.0236
2701.00,0.0236
2700.00,0.0236
2699.00,0.0236
2698.00,0.0236
2697.00,0.0235
2696.00,0.0235
2695.00,0.0235
2694.00,0.0234
2693.00,0.0234
2692.00,0.0234
2691.00,0.0234
2690.00,0.0233
2689.00,0.0233
2688.00,0.0233
2687.00,0.0233
2686.00,0.0232
2685.00,0.0232
2684.00,0.0232
2683.00,0.0232
2682.00,0.0232
2681.00,0.0231
2680.00,0.0231
2679.00,0.0231
2678.00,0.0231
2677.00,0.0230
2676.00,0.0230
2675.00,0.0229
2674.00,0.0229
2673.00,0.0229
2672.00,0.0228
2671.00,0.0228
2670.00,0.0228
2669.00,0.0228
2668.00,0.0228
2667.00,0.0229
2666.00,0.0229
2665.00,0.0229
2664.00,0.0229
2663.00,0.0229
2662.00,0.0229
2661.00,0.0230
2660.00,0.0230
2659.00,0.0229
2658.00,0.0229
2657.00,0.0229
2656.00,0.0229
2655.00,0.0229
2654.00,0.0229
2653.00,0.0229
2652.00,0.0228
2651.00,0.0228
2650.00,0.0227
2649.00,0.0227
2648.00,0.0227
2647.00,0.0227
2646.00,0.0227
2645.00,0.0226
2644.00,0.0226
2643.00,0.0226
2642.00,0.0225
2641.00,0.0225
2640.00,0.0225
2639.00,0.0224
2638.00,0.0224
2637.00,0.0225
2636.00,0.0225
2635.00,0.0225
2634.00,0.0224
2633.00,0.0224
2632.00,0.0224
2631.00,0.0223
2630.00,0.0223
2629.00,0.0223
2628.00,0.0223
2627.00,0.0222
2626.00,0.0222
2625.00,0.0222
2624.00,0.0222
2623.00,0.0222
2622.00,0.0222
2621.00,0.0222
2620.00,0.0222
2619.00,0.0221
2618.00,0.0221
2617.00,0.0221
2616.00,0.0220
2615.00,0.0220
2614.00,0.0219
2613.00,0.0220
2612.00,0.0220
2611.00,0.0219
2610.00,0.0219
2609.00,0.0219
2608.00,0.0219
2607.00,0.0218
2606.00,0.0218
2605.00,0.0218
2604.00,0.0217
2603.00,0.0216
2602.00,0.0216
2601.00,0.0215
2600.00,0.0215
2599.00,0.0215
2598.00,0.0215
2597.00,0.0214
2596.00,0.0214
2595.00,0.0214
2594.00,0.0213
2593.00,0.0213
2592.00,0.0213
2591.00,0.0212
2590.00,0.0212
2589.00,0.0212
2588.00,0.0212
2587.00,0.0212
2586.00,0.0211
2585.00,0.0211
2584.00,0.0210
2583.00,0.0210
2582.00,0.0209
2581.00,0.0209
2580.00,0.0209
2579.00,0.0208
2578.00,0.0207
2577.00,0.0206
2576.00,0.0206
2575.00,0.0206
2574.00,0.0206
2573.00,0.0206
2572.00,0.0206
2571.00,0.0206
2570.00,0.0206
2569.00,0.0206
2568.00,0.0206
2567.00,0.0206
2566.00,0.0205
2565.00,0.0205
2564.00,0.0205
2563.00,0.0204
2562.00,0.0204
2561.00,0.0204
2560.00,0.0203
2559.00,0.0203
2558.00,0.0203
2557.00,0.0202
2556.00,0.0202
2555.00,0.0201
2554.00,0.0201
2553.00,0.0201
2552.00,0.0201
2551.00,0.0201
2550.00,0.0200
2549.00,0.0200
2548.00,0.0200
2547.00,0.0200
2546.00,0.0199
2545.00,0.0199
2544.00,0.0198
2543.00,0.0198
2542.00,0.0198
2541.00,0.0199
2540.00,0.0199
2539.00,0.0198
2538.00,0.0198
2537.00,0.0198
2536.00,0.0198
2535.00,0.0197
2534.00,0.0197
2533.00,0.0197
2532.00,0.0197
2531.00,0.0197
2530.00,0.0197
2529.00,0.0197
2528.00,0.0197
2527.00,0.0197
2526.00,0.0197
2525.00,0.0197
2524.00,0.0196
2523.00,0.0196
2522.00,0.0195
2521.00,0.0195
2520.00,0.0196
2519.00,0.0196
2518.00,0.0196
2517.00,0.0196
2516.00,0.0196
2515.00,0.0195
2514.00,0.0194
2513.00,0.0194
2512.00,0.0194
2511.00,0.0194
2510.00,0.0194
2509.00,0.0194
2508.00,0.0194
2507.00,0.0193
2506.00,0.0193
2505.00,0.0193
2504.00,0.0193
2503.00,0.0193
2502.00,0.0193
2501.00,0.0193
2500.00,0.0192
2499.00,0.0192
2498.00,0.0192
2497.00,0.0191
2496.00,0.0191
2495.00,0.0191
2494.00,0.0191
2493.00,0.0191
2492.00,0.0191
2491.00,0.0191
2490.00,0.0191
2489.00,0.0191
2488.00,0.0192
2487.00,0.0192
2486.00,0.0191
2485.00,0.0191
2484.00,0.0191
2483.00,0.0191
2482.00,0.0190
2481.00,0.0189
2480.00,0.0189
2479.00,0.0189
2478.00,0.0189
2477.00,0.0189
2476.00,0.0189
2475.00,0.0189
2474.00,0.0189
2473.00,0.0189
2472.00,0.0188
2471.00,0.0188
2470.00,0.0188
2469.00,0.0188
2468.00,0.0188
2467.00,0.0187
2466.00,0.0187
2465.00,0.0187
2464.00,0.0187
2463.00,0.0187
2462.00,0.0187
2461.00,0.0187
2460.00,0.0187
2459.00,0.0187
2458.00,0.0187
2457.00,0.0187
2456.00,0.0187
2455.00,0.0187
2454.00,0.0186
2453.00,0.0186
2452.00,0.0185
2451.00,0.0185
2450.00,0.0184
2449.00,0.0184
2448.00,0.0184
2447.00,0.0184
2446.00,0.0184
2445.00,0.0184
2444.00,0.0184
2443.00,0.0183
2442.00,0.0183
2441.00,0.0183
2440.00,0.0182
2439.00,0.0182
2438.00,0.0182
2437.00,0.0182
2436.00,0.0182
2435.00,0.0181
2434.00,0.0181
2433.00,0.0180
2432.00,0.0180
2431.00,0.0180
2430.00,0.0180
2429.00,0.0179
2428.00,0.0179
2427.00,0.0179
2426.00,0.0179
2425.00,0.0179
2424.00,0.0179
2423.00,0.0179
2422.00,0.0178
2421.00,0.0178
2420.00,0.0178
2419.00,0.0177
2418.00,0.0177
2417.00,0.0177
2416.00,0.0177
2415.00,0.0176
2414.00,0.0176
2413.00,0.0176
2412.00,0.0176
2411.00,0.0176
2410.00,0.0176
2409.00,0.0175
2408.00,0.0175
2407.00,0.0174
2406.00,0.0174
2405.00,0.0173
2404.00,0.0173
2403.00,0.0173
2402.00,0.0173
2401.00,0.0173
2400.00,0.0173
2399.00,0.0172
2398.00,0.0172
2397.00,0.0172
2396.00,0.0171
2395.00,0.0171
2394.00,0.0171
2393.00,0.0171
2392.00,0.0171
2391.00,0.0170
2390.00,0.0170
2389.00,0.0170
2388.00,0.0169
2387.00,0.0169
2386.00,0.0169
2385.00,0.0168
2384.00,0.0168
2383.00,0.0167
2382.00,0.0167
2381.00,0.0167
2380.00,0.0167
2379.00,0.0167
2378.00,0.0168
2377.00,0.0168
2376.00,0.0168
2375.00,0.0168
2374.00,0.0167
2373.00,0.0167
2372.00,0.0167
2371.00,0.0167
2370.00,0.0167
2369.00,0.0166
2368.00,0.0166
2367.00,0.0165
2366.00,0.0165
2365.00,0.0165
2364.00,0.0166
2363.00,0.0167
2362.00,0.0167
2361.00,0.0167
2360.00,0.0167
2359.00,0.0167
2358.00,0.0166
2357.00,0.0166
2356.00,0.0165
2355.00,0.0166
2354.00,0.0166
2353.00,0.0166
2352.00,0.0166
2351.00,0.0166
2350.00,0.0166
2349.00,0.0166
2348.00,0.0167
2347.00,0.0167
2346.00,0.0167
2345.00,0.0167
2344.00,0.0167
2343.00,0.0167
2342.00,0.0168
2341.00,0.0168
2340.00,0.0168
2339.00,0.0168
2338.00,0.0168
2337.00,0.0167
2336.00,0.0167
2335.00,0.0167
2334.00,0.0166
2333.00,0.0167
2332.00,0.0167
2331.00,0.0167
2330.00,0.0168
2329.00,0.0169
2328.00,0.0172
2327.00,0.0174
2326.00,0.0176
2325.00,0.0176
2324.00,0.0175
2323.00,0.0174
2322.00,0.0174
2321.00,0.0173
2320.00,0.0172
2319.00,0.0171
2318.00,0.0170
2317.00,0.0170
2316.00,0.0169
2315.00,0.0168
2314.00,0.0168
2313.00,0.0167
2312.00,0.0167
2311.00,0.0167
2310.00,0.0166
2309.00,0.0166
2308.00,0.0166
2307.00,0.0166
2306.00,0.0166
2305.00,0.0165
2304.00,0.0165
2303.00,0.0165
2302.00,0.0165
2301.00,0.0166
2300.00,0.0166
2299.00,0.0166
2298.00,0.0166
2297.00,0.0167
2296.00,0.0168
2295.00,0.0170
2294.00,0.0171
2293.00,0.0171
2292.00,0.0170
2291.00,0.0170
2290.00,0.0169
2289.00,0.0170
2288.00,0.0170
2287.00,0.0170
2286.00,0.0170
2285.00,0.0169
2284.00,0.0168
2283.00,0.0167
2282.00,0.0166
2281.00,0.0166
2280.00,0.0165
2279.00,0.0165
2278.00,0.0165
2277.00,0.0165
2276.00,0.0165
2275.00,0.0164
2274.00,0.0164
2273.00,0.0163
2272.00,0.0163
2271.00,0.0163
2270.00,0.0163
2269.00,0.0163
2268.00,0.0162
2267.00,0.0162
2266.00,0.0161
2265.00,0.0161
2264.00,0.0162
2263.00,0.0162
2262.00,0.0162
2261.00,0.0162
2260.00,0.0162
2259.00,0.0161
2258.00,0.0160
2257.00,0.0159
2256.00,0.0158
2255.00,0.0158
2254.00,0.0158
2253.00,0.0158
2252.00,0.0159
2251.00,0.0159
2250.00,0.0159
2249.00,0.0159
2248.00,0.0159
2247.00,0.0159
2246.00,0.0159
2245.00,0.0158
2244.00,0.0158
2243.00,0.0158
2242.00,0.0157
2241.00,0.0157
2240.00,0.0157
2239.00,0.0157
2238.00,0.0157
2237.00,0.0158
2236.00,0.0159
2235.00,0.0158
2234.00,0.0158
2233.00,0.0158
2232.00,0.0158
2231.00,0.0158
2230.00,0.0158
2229.00,0.0157
2228.00,0.0156
2227.00,0.0156
2226.00,0.0156
2225.00,0.0156
2224.00,0.0156
2223.00,0.0156
2222.00,0.0156
2221.00,0.0156
2220.00,0.0156
2219.00,0.0157
2218.00,0.0157
2217.00,0.0157
2216.00,0.0157
2215.00,0.0156
2214.00,0.0155
2213.00,0.0154
2212.00,0.0153
2211.00,0.0153
2210.00,0.0153
2209.00,0.0154
2208.00,0.0156
2207.00,0.0157
2206.00,0.0157
2205.00,0.0157
2204.00,0.0156
2203.00,0.0157
2202.00,0.0157
2201.00,0.0158
2200.00,0.0159
2199.00,0.0159
2198.00,0.0157
2197.00,0.0156
2196.00,0.0155
2195.00,0.0155
2194.00,0.0155
2193.00,0.0155
2192.00,0.0155
2191.00,0.0155
2190.00,0.0156
2189.00,0.0157
2188.00,0.0158
2187.00,0.0158
2186.00,0.0157
2185.00,0.0157
2184.00,0.0156
2183.00,0.0153
2182.00,0.0151
2181.00,0.0149
2180.00,0.0149
2179.00,0.0149
2178.00,0.0148
2177.00,0.0146
2176.00,0.0145
2175.00,0.0146
2174.00,0.0148
2173.00,0.0150
2172.00,0.0153
2171.00,0.0156
2170.00,0.0158
2169.00,0.0160
2168.00,0.0162
2167.00,0.0161
2166.00,0.0160
2165.00,0.0159
2164.00,0.0160
2163.00,0.0160
2162.00,0.0155
2161.00,0.0146
2160.00,0.0134
2159.00,0.0124
2158.00,0.0119
2157.00,0.0119
2156.00,0.0122
2155.00,0.0125
2154.00,0.0127
2153.00,0.0130
2152.00,0.0133
2151.00,0.0134
2150.00,0.0135
2149.00,0.0135
2148.00,0.0134
2147.00,0.0134
2146.00,0.0133
2145.00,0.0133
2144.00,0.0133
2143.00,0.0134
2142.00,0.0134
2141.00,0.0134
2140.00,0.0133
2139.00,0.0132
2138.00,0.0130
2137.00,0.0128
2136.00,0.0127
2135.00,0.0126
2134.00,0.0125
2133.00,0.0126
2132.00,0.0129
2131.00,0.0131
2130.00,0.0134
2129.00,0.0136
2128.00,0.0137
2127.00,0.0138
2126.00,0.0139
2125.00,0.0139
2124.00,0.0140
2123.00,0.0141
2122.00,0.0141
2121.00,0.0141
2120.00,0.0143
2119.00,0.0144
2118.00,0.0145
2117.00,0.0146
2116.00,0.0146
2115.00,0.0146
2114.00,0.0145
2113.00,0.0145
2112.00,0.0144
2111.00,0.0144
2110.00,0.0143
2109.00,0.0144
2108.00,0.0145
2107.00,0.0146
2106.00,0.0146
2105.00,0.0146
2104.00,0.0146
2103.00,0.0145
2102.00,0.0144
2101.00,0.0144
2100.00,0.0144
2099.00,0.0143
2098.00,0.0142
2097.00,0.0140
2096.00,0.0138
2095.00,0.0137
2094.00,0.0137
2093.00,0.0138
2092.00,0.0140
2091.00,0.0141
2090.00,0.0142
2089.00,0.0142
2088.00,0.0142
2087.00,0.0142
2086.00,0.0142
2085.00,0.0142
2084.00,0.0143
2083.00,0.0144
2082.00,0.0143
2081.00,0.0143
2080.00,0.0144
2079.00,0.0145
2078.00,0.0145
2077.00,0.0146
2076.00,0.0147
2075.00,0.0147
2074.00,0.0147
2073.00,0.0146
2072.00,0.0145
2071.00,0.0144
2070.00,0.0143
2069.00,0.0142
2068.00,0.0141
2067.00,0.0140
2066.00,0.0138
2065.00,0.0137
2064.00,0.0137
2063.00,0.0137
2062.00,0.0137
2061.00,0.0138
2060.00,0.0138
2059.00,0.0139
2058.00,0.0139
2057.00,0.0139
2056.00,0.0139
2055.00,0.0139
2054.00,0.0142
2053.00,0.0146
2052.00,0.0149
2051.00,0.0148
2050.00,0.0144
2049.00,0.0140
2048.00,0.0138
2047.00,0.0137
2046.00,0.0136
2045.00,0.0136
2044.00,0.0138
2043.00,0.0140
2042.00,0.0141
2041.00,0.0142
2040.00,0.0141
2039.00,0.0138
2038.00,0.0134
2037.00,0.0131
2036.00,0.0130
2035.00,0.0129
2034.00,0.0128
2033.00,0.0128
2032.00,0.0127
2031.00,0.0125
2030.00,0.0123
2029.00,0.0123
2028.00,0.0125
2027.00,0.0126
2026.00,0.0125
2025.00,0.0126
2024.00,0.0127
2023.00,0.0127
2022.00,0.0127
2021.00,0.0126
2020.00,0.0124
2019.00,0.0122
2018.00,0.0121
2017.00,0.0124
2016.00,0.0127
2015.00,0.0127
2014.00,0.0121
2013.00,0.0113
2012.00,0.0106
2011.00,0.0104
2010.00,0.0107
2009.00,0.0112
2008.00,0.0117
2007.00,0.0119
2006.00,0.0120
2005.00,0.0123
2004.00,0.0125
2003.00,0.0127
2002.00,0.0127
2001.00,0.0127
2000.00,0.0126
1999.00,0.0125
1998.00,0.0123
1997.00,0.0122
1996.00,0.0122
1995.00,0.0123
1994.00,0.0123
1993.00,0.0126
1992.00,0.0128
1991.00,0.0129
1990.00,0.0129
1989.00,0.0129
1988.00,0.0131
1987.00,0.0132
1986.00,0.0133
1985.00,0.0134
1984.00,0.0136
1983.00,0.0137
1982.00,0.0140
1981.00,0.0143
1980.00,0.0144
1979.00,0.0140
1978.00,0.0131
1977.00,0.0124
1976.00,0.0120
1975.00,0.0118
1974.00,0.0117
1973.00,0.0117
1972.00,0.0118
1971.00,0.0119
1970.00,0.0119
1969.00,0.0120
1968.00,0.0121
1967.00,0.0120
1966.00,0.0118
1965.00,0.0118
1964.00,0.0119
1963.00,0.0118
1962.00,0.0117
1961.00,0.0115
1960.00,0.0114
1959.00,0.0114
1958.00,0.0114
1957.00,0.0116
1956.00,0.0117
1955.00,0.0117
1954.00,0.0116
1953.00,0.0115
1952.00,0.0117
1951.00,0.0118
1950.00,0.0119
1949.00,0.0119
1948.00,0.0120
1947.00,0.0118
1946.00,0.0116
1945.00,0.0115
1944.00,0.0115
1943.00,0.0115
1942.00,0.0116
1941.00,0.0116
1940.00,0.0116
1939.00,0.0116
1938.00,0.0115
1937.00,0.0115
1936.00,0.0117
1935.00,0.0117
1934.00,0.0117
1933.00,0.0116
1932.00,0.0116
1931.00,0.0115
1930.00,0.0115
1929.00,0.0116
1928.00,0.0115
1927.00,0.0114
1926.00,0.0113
1925.00,0.0113
1924.00,0.0114
1923.00,0.0115
1922.00,0.0115
1921.00,0.0115
1920.00,0.0115
1919.00,0.0116
1918.00,0.0116
1917.00,0.0116
1916.00,0.0116
1915.00,0.0116
1914.00,0.0115
1913.00,0.0116
1912.00,0.0117
1911.00,0.0117
1910.00,0.0118
1909.00,0.0118
1908.00,0.0117
1907.00,0.0117
1906.00,0.0116
1905.00,0.0116
1904.00,0.0116
1903.00,0.0116
1902.00,0.0115
1901.00,0.0115
1900.00,0.0115
1899.00,0.0115
1898.00,0.0115
1897.00,0.0116
1896.00,0.0116
1895.00,0.0116
1894.00,0.0115
1893.00,0.0114
1892.00,0.0113
1891.00,0.0113
1890.00,0.0114
1889.00,0.0114
1888.00,0.0115
1887.00,0.0116
1886.00,0.0116
1885.00,0.0116
1884.00,0.0116
1883.00,0.0115
1882.00,0.0114
1881.00,0.0113
1880.00,0.0113
1879.00,0.0114
1878.00,0.0113
1877.00,0.0114
1876.00,0.0114
1875.00,0.0113
1874.00,0.0112
1873.00,0.0110
1872.00,0.0109
1871.00,0.0108
1870.00,0.0108
1869.00,0.0109
1868.00,0.0111
1867.00,0.0112
1866.00,0.0112
1865.00,0.0111
1864.00,0.0111
1863.00,0.0110
1862.00,0.0110
1861.00,0.0110
1860.00,0.0110
1859.00,0.0111
1858.00,0.0111
1857.00,0.0111
1856.00,0.0111
1855.00,0.0112
1854.00,0.0112
1853.00,0.0112
1852.00,0.0111
1851.00,0.0109
1850.00,0.0108
1849.00,0.0107
1848.00,0.0107
1847.00,0.0107
1846.00,0.0108
1845.00,0.0109
1844.00,0.0110
1843.00,0.0110
1842.00,0.0109
1841.00,0.0108
1840.00,0.0108
1839.00,0.0108
1838.00,0.0108
1837.00,0.0108
1836.00,0.0108
1835.00,0.0107
1834.00,0.0106
1833.00,0.0104
1832.00,0.0104
1831.00,0.0104
1830.00,0.0105
1829.00,0.0105
1828.00,0.0104
1827.00,0.0103
1826.00,0.0102
1825.00,0.0103
1824.00,0.0105
1823.00,0.0107
1822.00,0.0107
1821.00,0.0107
1820.00,0.0106
1819.00,0.0105
1818.00,0.0104
1817.00,0.0104
1816.00,0.0105
1815.00,0.0105
1814.00,0.0105
1813.00,0.0105
1812.00,0.0106
1811.00,0.0106
1810.00,0.0106
1809.00,0.0107
1808.00,0.0108
1807.00,0.0108
1806.00,0.0107
1805.00,0.0106
1804.00,0.0105
1803.00,0.0104
1802.00,0.0104
1801.00,0.0105
1800.00,0.0107
1799.00,0.0108
1798.00,0.0108
1797.00,0.0108
1796.00,0.0108
1795.00,0.0108
1794.00,0.0108
1793.00,0.0108
1792.00,0.0109
1791.00,0.0110
1790.00,0.0109
1789.00,0.0109
1788.00,0.0109
1787.00,0.0108
1786.00,0.0108
1785.00,0.0108
1784.00,0.0109
1783.00,0.0109
1782.00,0.0109
1781.00,0.0110
1780.00,0.0110
1779.00,0.0110
1778.00,0.0110
1777.00,0.0110
1776.00,0.0112
1775.00,0.0115
1774.00,0.0119
1773.00,0.0121
1772.00,0.0119
1771.00,0.0114
1770.00,0.0110
1769.00,0.0110
1768.00,0.0111
1767.00,0.0112
1766.00,0.0112
1765.00,0.0111
1764.00,0.0111
1763.00,0.0111
1762.00,0.0112
1761.00,0.0112
1760.00,0.0112
1759.00,0.0111
1758.00,0.0112
1757.00,0.0113
1756.00,0.0115
1755.00,0.0117
1754.00,0.0119
1753.00,0.0121
1752.00,0.0124
1751.00,0.0125
1750.00,0.0125
1749.00,0.0126
1748.00,0.0128
1747.00,0.0131
1746.00,0.0133
1745.00,0.0135
1744.00,0.0138
1743.00,0.0141
1742.00,0.0144
1741.00,0.0147
1740.00,0.0152
1739.00,0.0154
1738.00,0.0156
1737.00,0.0160
1736.00,0.0168
1735.00,0.0176
1734.00,0.0181
1733.00,0.0180
1732.00,0.0174
1731.00,0.0169
1730.00,0.0168
1729.00,0.0169
1728.00,0.0171
1727.00,0.0173
1726.00,0.0175
1725.00,0.0177
1724.00,0.0181
1723.00,0.0184
1722.00,0.0185
1721.00,0.0188
1720.00,0.0196
1719.00,0.0209
1718.00,0.0223
1717.00,0.0231
1716.00,0.0235
1715.00,0.0239
1714.00,0.0244
1713.00,0.0255
1712.00,0.0269
1711.00,0.0284
1710.00,0.0300
1709.00,0.0318
1708.00,0.0340
1707.00,0.0367
1706.00,0.0401
1705.00,0.0439
1704.00,0.0476
1703.00,0.0513
1702.00,0.0551
1701.00,0.0597
1700.00,0.0646
1699.00,0.0684
1698.00,0.0711
1697.00,0.0732
1696.00,0.0748
1695.00,0.0755
1694.00,0.0757
1693.00,0.0762
1692.00,0.0773
1691.00,0.0789
1690.00,0.0806
1689.00,0.0826
1688.00,0.0849
1687.00,0.0876
1686.00,0.0902
1685.00,0.0928
1684.00,0.0951
1683.00,0.0968
1682.00,0.0986
1681.00,0.1008
1680.00,0.1033
1679.00,0.1058
1678.00,0.1082
1677.00,0.1107
1676.00,0.1137
1675.00,0.1168
1674.00,0.1197
1673.00,0.1223
1672.00,0.1249
1671.00,0.1279
1670.00,0.1312
1669.00,0.1347
1668.00,0.1381
1667.00,0.1411
1666.00,0.1439
1665.00,0.1469
1664.00,0.1504
1663.00,0.1541
1662.00,0.1578
1661.00,0.1612
1660.00,0.1646
1659.00,0.1679
1658.00,0.1709
1657.00,0.1739
1656.00,0.1774
1655.00,0.1815
1654.00,0.1861
1653.00,0.1903
1652.00,0.1927
1651.00,0.1933
1650.00,0.1936
1649.00,0.1949
1648.00,0.1973
1647.00,0.1998
1646.00,0.2017
1645.00,0.2030
1644.00,0.2041
1643.00,0.2053
1642.00,0.2065
1641.00,0.2079
1640.00,0.2093
1639.00,0.2109
1638.00,0.2127
1637.00,0.2146
1636.00,0.2165
1635.00,0.2180
1634.00,0.2191
1633.00,0.2200
1632.00,0.2210
1631.00,0.2220
1630.00,0.2229
1629.00,0.2234
1628.00,0.2235
1627.00,0.2233
1626.00,0.2226
1625.00,0.2212
1624.00,0.2190
1623.00,0.2159
1622.00,0.2120
1621.00,0.2079
1620.00,0.2042
1619.00,0.2005
1618.00,0.1958
1617.00,0.1895
1616.00,0.1820
1615.00,0.1749
1614.00,0.1686
1613.00,0.1629
1612.00,0.1572
1611.00,0.1512
1610.00,0.1452
1609.00,0.1393
1608.00,0.1334
1607.00,0.1278
1606.00,0.1226
1605.00,0.1179
1604.00,0.1134
1603.00,0.1093
1602.00,0.1056
1601.00,0.1023
1600.00,0.0993
1599.00,0.0966
1598.00,0.0944
1597.00,0.0923
1596.00,0.0903
1595.00,0.0883
1594.00,0.0865
1593.00,0.0848
1592.00,0.0831
1591.00,0.0816
1590.00,0.0802
1589.00,0.0790
1588.00,0.0779
1587.00,0.0770
1586.00,0.0765
1585.00,0.0761
1584.00,0.0759
1583.00,0.0758
1582.00,0.0760
1581.00,0.0764
1580.00,0.0770
1579.00,0.0782
1578.00,0.0800
1577.00,0.0820
1576.00,0.0833
1575.00,0.0837
1574.00,0.0838
1573.00,0.0844
1572.00,0.0854
1571.00,0.0870
1570.00,0.0892
1569.00,0.0914
1568.00,0.0935
1567.00,0.0955
1566.00,0.0977
1565.00,0.1002
1564.00,0.1027
1563.00,0.1053
1562.00,0.1080
1561.00,0.1106
1560.00,0.1140
1559.00,0.1180
1558.00,0.1214
1557.00,0.1238
1556.00,0.1260
1555.00,0.1285
1554.00,0.1313
1553.00,0.1340
1552.00,0.1364
1551.00,0.1390
1550.00,0.1419
1549.00,0.1448
1548.00,0.1475
1547.00,0.1499
1546.00,0.1524
1545.00,0.1551
1544.00,0.1580
1543.00,0.1610
1542.00,0.1644
1541.00,0.1683
1540.00,0.1717
1539.00,0.1739
1538.00,0.1751
1537.00,0.1757
1536.00,0.1766
1535.00,0.1782
1534.00,0.1805
1533.00,0.1830
1532.00,0.1853
1531.00,0.1874
1530.00,0.1893
1529.00,0.1912
1528.00,0.1932
1527.00,0.1952
1526.00,0.1973
1525.00,0.1994
1524.00,0.2016
1523.00,0.2041
1522.00,0.2070
1521.00,0.2098
1520.00,0.2121
1519.00,0.2143
1518.00,0.2169
1517.00,0.2198
1516.00,0.2221
1515.00,0.2236
1514.00,0.2242
1513.00,0.2237
1512.00,0.2224
1511.00,0.2206
1510.00,0.2189
1509.00,0.2175
1508.00,0.2157
1507.00,0.2126
1506.00,0.2082
1505.00,0.2039
1504.00,0.1999
1503.00,0.1961
1502.00,0.1924
1501.00,0.1885
1500.00,0.1843
1499.00,0.1801
1498.00,0.1759
1497.00,0.1710
1496.00,0.1655
1495.00,0.1600
1494.00,0.1548
1493.00,0.1499
1492.00,0.1450
1491.00,0.1399
1490.00,0.1348
1489.00,0.1300
1488.00,0.1256
1487.00,0.1216
1486.00,0.1179
1485.00,0.1145
1484.00,0.1113
1483.00,0.1083
1482.00,0.1054
1481.00,0.1028
1480.00,0.1004
1479.00,0.0983
1478.00,0.0965
1477.00,0.0951
1476.00,0.0942
1475.00,0.0938
1474.00,0.0938
1473.00,0.0940
1472.00,0.0942
1471.00,0.0944
1470.00,0.0945
1469.00,0.0946
1468.00,0.0948
1467.00,0.0949
1466.00,0.0951
1465.00,0.0952
1464.00,0.0955
1463.00,0.0957
1462.00,0.0958
1461.00,0.0961
1460.00,0.0968
1459.00,0.0982
1458.00,0.1001
1457.00,0.1023
1456.00,0.1043
1455.00,0.1056
1454.00,0.1067
1453.00,0.1079
1452.00,0.1092
1451.00,0.1103
1450.00,0.1112
1449.00,0.1118
1448.00,0.1122
1447.00,0.1123
1446.00,0.1121
1445.00,0.1116
1444.00,0.1109
1443.00,0.1099
1442.00,0.1088
1441.00,0.1074
1440.00,0.1060
1439.00,0.1045
1438.00,0.1026
1437.00,0.1006
1436.00,0.0986
1435.00,0.0967
1434.00,0.0950
1433.00,0.0933
1432.00,0.0916
1431.00,0.0900
1430.00,0.0886
1429.00,0.0874
1428.00,0.0864
1427.00,0.0856
1426.00,0.0851
1425.00,0.0848
1424.00,0.0847
1423.00,0.0847
1422.00,0.0850
1421.00,0.0852
1420.00,0.0856
1419.00,0.0861
1418.00,0.0866
1417.00,0.0871
1416.00,0.0876
1415.00,0.0881
1414.00,0.0886
1413.00,0.0890
1412.00,0.0893
1411.00,0.0896
1410.00,0.0897
1409.00,0.0897
1408.00,0.0896
1407.00,0.0893
1406.00,0.0890
1405.00,0.0886
1404.00,0.0882
1403.00,0.0877
1402.00,0.0872
1401.00,0.0865
1400.00,0.0859
1399.00,0.0854
1398.00,0.0850
1397.00,0.0847
1396.00,0.0845
1395.00,0.0845
1394.00,0.0846
1393.00,0.0847
1392.00,0.0847
1391.00,0.0847
1390.00,0.0846
1389.00,0.0846
1388.00,0.0846
1387.00,0.0846
1386.00,0.0845
1385.00,0.0844
1384.00,0.0843
1383.00,0.0842
1382.00,0.0840
1381.00,0.0839
1380.00,0.0837
1379.00,0.0836
1378.00,0.0834
1377.00,0.0831
1376.00,0.0828
1375.00,0.0826
1374.00,0.0823
1373.00,0.0821
1372.00,0.0820
1371.00,0.0819
1370.00,0.0817
1369.00,0.0812
1368.00,0.0806
1367.00,0.0798
1366.00,0.0787
1365.00,0.0774
1364.00,0.0761
1363.00,0.0748
1362.00,0.0738
1361.00,0.0729
1360.00,0.0722
1359.00,0.0716
1358.00,0.0712
1357.00,0.0708
1356.00,0.0705
1355.00,0.0703
1354.00,0.0702
1353.00,0.0703
1352.00,0.0704
1351.00,0.0706
1350.00,0.0708
1349.00,0.0710
1348.00,0.0711
1347.00,0.0712
1346.00,0.0713
1345.00,0.0714
1344.00,0.0715
1343.00,0.0717
1342.00,0.0719
1341.00,0.0721
1340.00,0.0722
1339.00,0.0724
1338.00,0.0726
1337.00,0.0727
1336.00,0.0727
1335.00,0.0727
1334.00,0.0725
1333.00,0.0722
1332.00,0.0718
1331.00,0.0714
1330.00,0.0710
1329.00,0.0706
1328.00,0.0701
1327.00,0.0698
1326.00,0.0694
1325.00,0.0691
1324.00,0.0688
1323.00,0.0687
1322.00,0.0686
1321.00,0.0685
1320.00,0.0685
1319.00,0.0686
1318.00,0.0688
1317.00,0.0689
1316.00,0.0691
1315.00,0.0693
1314.00,0.0695
1313.00,0.0697
1312.00,0.0699
1311.00,0.0700
1310.00,0.0702
1309.00,0.0703
1308.00,0.0704
1307.00,0.0704
1306.00,0.0704
1305.00,0.0705
1304.00,0.0705
1303.00,0.0704
1302.00,0.0704
1301.00,0.0704
1300.00,0.0704
1299.00,0.0704
1298.00,0.0705
1297.00,0.0705
1296.00,0.0707
1295.00,0.0708
1294.00,0.0710
1293.00,0.0712
1292.00,0.0715
1291.00,0.0718
1290.00,0.0721
1289.00,0.0724
1288.00,0.0728
1287.00,0.0732
1286.00,0.0736
1285.00,0.0740
1284.00,0.0744
1283.00,0.0748
1282.00,0.0753
1281.00,0.0759
1280.00,0.0765
1279.00,0.0772
1278.00,0.0780
1277.00,0.0788
1276.00,0.0798
1275.00,0.0808
1274.00,0.0819
1273.00,0.0830
1272.00,0.0843
1271.00,0.0855
1270.00,0.0868
1269.00,0.0880
1268.00,0.0892
1267.00,0.0903
1266.00,0.0913
1265.00,0.0922
1264.00,0.0931
1263.00,0.0938
1262.00,0.0944
1261.00,0.0949
1260.00,0.0952
1259.00,0.0955
1258.00,0.0957
1257.00,0.0959
1256.00,0.0961
1255.00,0.0964
1254.00,0.0968
1253.00,0.0973
1252.00,0.0978
1251.00,0.0983
1250.00,0.0989
1249.00,0.0996
1248.00,0.1003
1247.00,0.1011
1246.00,0.1019
1245.00,0.1028
1244.00,0.1037
1243.00,0.1047
1242.00,0.1057
1241.00,0.1067
1240.00,0.1079
1239.00,0.1090
1238.00,0.1101
1237.00,0.1112
1236.00,0.1124
1235.00,0.1135
1234.00,0.1145
1233.00,0.1155
1232.00,0.1164
1231.00,0.1171
1230.00,0.1175
1229.00,0.1177
1228.00,0.1176
1227.00,0.1172
1226.00,0.1165
1225.00,0.1155
1224.00,0.1143
1223.00,0.1129
1222.00,0.1115
1221.00,0.1099
1220.00,0.1083
1219.00,0.1065
1218.00,0.1047
1217.00,0.1028
1216.00,0.1008
1215.00,0.0988
1214.00,0.0967
1213.00,0.0946
1212.00,0.0925
1211.00,0.0903
1210.00,0.0882
1209.00,0.0861
1208.00,0.0840
1207.00,0.0819
1206.00,0.0799
1205.00,0.0779
1204.00,0.0760
1203.00,0.0742
1202.00,0.0725
1201.00,0.0709
1200.00,0.0694
1199.00,0.0681
1198.00,0.0669
1197.00,0.0658
1196.00,0.0648
1195.00,0.0640
1194.00,0.0633
1193.00,0.0628
1192.00,0.0622
1191.00,0.0618
1190.00,0.0614
1189.00,0.0611
1188.00,0.0608
1187.00,0.0605
1186.00,0.0604
1185.00,0.0603
1184.00,0.0603
1183.00,0.0604
1182.00,0.0608
1181.00,0.0612
1180.00,0.0619
1179.00,0.0628
1178.00,0.0638
1177.00,0.0649
1176.00,0.0661
1175.00,0.0673
1174.00,0.0686
1173.00,0.0697
1172.00,0.0706
1171.00,0.0713
1170.00,0.0719
1169.00,0.0722
1168.00,0.0725
1167.00,0.0726
1166.00,0.0727
1165.00,0.0726
1164.00,0.0724
1163.00,0.0721
1162.00,0.0717
1161.00,0.0711
1160.00,0.0705
1159.00,0.0698
1158.00,0.0691
1157.00,0.0683
1156.00,0.0675
1155.00,0.0666
1154.00,0.0658
1153.00,0.0649
1152.00,0.0639
1151.00,0.0629
1150.00,0.0619
1149.00,0.0610
1148.00,0.0600
1147.00,0.0591
1146.00,0.0583
1145.00,0.0575
1144.00,0.0568
1143.00,0.0563
1142.00,0.0558
1141.00,0.0554
1140.00,0.0550
1139.00,0.0548
1138.00,0.0546
1137.00,0.0544
1136.00,0.0543
1135.00,0.0543
1134.00,0.0543
1133.00,0.0544
1132.00,0.0545
1131.00,0.0547
1130.00,0.0548
1129.00,0.0550
1128.00,0.0553
1127.00,0.0556
1126.00,0.0559
1125.00,0.0563
1124.00,0.0566
1123.00,0.0568
1122.00,0.0571
1121.00,0.0572
1120.00,0.0572
1119.00,0.0572
1118.00,0.0571
1117.00,0.0571
1116.00,0.0570
1115.00,0.0570
1114.00,0.0570
1113.00,0.0570
1112.00,0.0570
1111.00,0.0570
1110.00,0.0571
1109.00,0.0573
1108.00,0.0575
1107.00,0.0578
1106.00,0.0581
1105.00,0.0583
1104.00,0.0586
1103.00,0.0587
1102.00,0.0587
1101.00,0.0586
1100.00,0.0584
1099.00,0.0581
1098.00,0.0579
1097.00,0.0576
1096.00,0.0575
1095.00,0.0574
1094.00,0.0574
1093.00,0.0574
1092.00,0.0576
1091.00,0.0578
1090.00,0.0581
1089.00,0.0584
1088.00,0.0589
1087.00,0.0594
1086.00,0.0599
1085.00,0.0605
1084.00,0.0611
1083.00,0.0616
1082.00,0.0622
1081.00,0.0627
1080.00,0.0633
1079.00,0.0638
1078.00,0.0642
1077.00,0.0647
1076.00,0.0650
1075.00,0.0654
1074.00,0.0657
1073.00,0.0659
1072.00,0.0661
1071.00,0.0663
1070.00,0.0664
1069.00,0.0665
1068.00,0.0665
1067.00,0.0667
1066.00,0.0669
1065.00,0.0670
1064.00,0.0671
1063.00,0.0671
1062.00,0.0671
1061.00,0.0670
1060.00,0.0670
1059.00,0.0669
1058.00,0.0668
1057.00,0.0666
1056.00,0.0663
1055.00,0.0660
1054.00,0.0656
1053.00,0.0652
1052.00,0.0648
1051.00,0.0643
1050.00,0.0637
1049.00,0.0631
1048.00,0.0625
1047.00,0.0619
1046.00,0.0613
1045.00,0.0608
1044.00,0.0603
1043.00,0.0598
1042.00,0.0592
1041.00,0.0587
1040.00,0.0581
1039.00,0.0576
1038.00,0.0572
1037.00,0.0569
1036.00,0.0566
1035.00,0.0563
1034.00,0.0561
1033.00,0.0559
1032.00,0.0556
1031.00,0.0554
1030.00,0.0553
1029.00,0.0551
1028.00,0.0549
1027.00,0.0548
1026.00,0.0548
1025.00,0.0548
1024.00,0.0549
1023.00,0.0551
1022.00,0.0554
1021.00,0.0558
1020.00,0.0563
1019.00,0.0567
1018.00,0.0570
1017.00,0.0573
1016.00,0.0575
1015.00,0.0575
1014.00,0.0575
1013.00,0.0573
1012.00,0.0571
1011.00,0.0569
1010.00,0.0566
1009.00,0.0563
1008.00,0.0560
1007.00,0.0557
1006.00,0.0554
1005.00,0.0553
1004.00,0.0552
1003.00,0.0551
1002.00,0.0551
1001.00,0.0550
1000.00,0.0548
999.00,0.0545
998.00,0.0541
997.00,0.0534
996.00,0.0526
995.00,0.0517
994.00,0.0507
993.00,0.0498
992.00,0.0488
991.00,0.0479
990.00,0.0471
989.00,0.0465
988.00,0.0460
987.00,0.0457
986.00,0.0455
985.00,0.0455
984.00,0.0455
983.00,0.0457
982.00,0.0460
981.00,0.0464
980.00,0.0467
979.00,0.0470
978.00,0.0472
977.00,0.0473
976.00,0.0473
975.00,0.0472
974.00,0.0469
973.00,0.0466
972.00,0.0461
971.00,0.0456
970.00,0.0451
969.00,0.0445
968.00,0.0440
967.00,0.0435
966.00,0.0430
965.00,0.0426
964.00,0.0422
963.00,0.0420
962.00,0.0417
961.00,0.0415
960.00,0.0413
959.00,0.0412
958.00,0.0410
957.00,0.0409
956.00,0.0407
955.00,0.0406
954.00,0.0405
953.00,0.0404
952.00,0.0403
951.00,0.0402
950.00,0.0400
949.00,0.0399
948.00,0.0397
947.00,0.0395
946.00,0.0394
945.00,0.0393
944.00,0.0392
943.00,0.0391
942.00,0.0391
941.00,0.0391
940.00,0.0391
939.00,0.0391
938.00,0.0392
937.00,0.0392
936.00,0.0391
935.00,0.0391
934.00,0.0391
933.00,0.0390
932.00,0.0390
931.00,0.0390
930.00,0.0389
929.00,0.0388
928.00,0.0387
927.00,0.0385
926.00,0.0382
925.00,0.0380
924.00,0.0377
923.00,0.0373
922.00,0.0370
921.00,0.0366
920.00,0.0362
919.00,0.0358
918.00,0.0355
917.00,0.0352
916.00,0.0349
915.00,0.0347
914.00,0.0344
913.00,0.0342
912.00,0.0340
911.00,0.0339
910.00,0.0337
909.00,0.0336
908.00,0.0335
907.00,0.0335
906.00,0.0334
905.00,0.0334
904.00,0.0333
903.00,0.0333
902.00,0.0333
901.00,0.0333
900.00,0.0333
899.00,0.0332
898.00,0.0330
897.00,0.0330
896.00,0.0329
895.00,0.0328
894.00,0.0327
893.00,0.0326
892.00,0.0325
891.00,0.0324
890.00,0.0323
889.00,0.0322
888.00,0.0321
887.00,0.0321
886.00,0.0321
885.00,0.0321
884.00,0.0321
883.00,0.0321
882.00,0.0321
881.00,0.0321
880.00,0.0321
879.00,0.0321
878.00,0.0321
877.00,0.0322
876.00,0.0322
875.00,0.0323
874.00,0.0323
873.00,0.0322
872.00,0.0321
871.00,0.0320
870.00,0.0320
869.00,0.0320
868.00,0.0320
867.00,0.0321
866.00,0.0323
865.00,0.0324
864.00,0.0326
863.00,0.0329
862.00,0.0332
861.00,0.0336
860.00,0.0341
859.00,0.0345
858.00,0.0350
857.00,0.0354
856.00,0.0358
855.00,0.0361
854.00,0.0365
853.00,0.0369
852.00,0.0372
851.00,0.0374
850.00,0.0373
849.00,0.0373
848.00,0.0372
847.00,0.0371
846.00,0.0372
845.00,0.0372
844.00,0.0373
843.00,0.0374
842.00,0.0376
841.00,0.0378
840.00,0.0381
839.00,0.0384
838.00,0.0387
837.00,0.0391
836.00,0.0395
835.00,0.0399
834.00,0.0404
833.00,0.0409
832.00,0.0413
831.00,0.0417
830.00,0.0421
829.00,0.0424
828.00,0.0425
827.00,0.0425
826.00,0.0424
825.00,0.0423
824.00,0.0421
823.00,0.0419
822.00,0.0418
821.00,0.0416
820.00,0.0416
819.00,0.0416
818.00,0.0417
817.00,0.0419
816.00,0.0421
815.00,0.0423
814.00,0.0425
813.00,0.0427
812.00,0.0429
811.00,0.0432
810.00,0.0435
809.00,0.0438
808.00,0.0440
807.00,0.0443
806.00,0.0446
805.00,0.0448
804.00,0.0451
803.00,0.0453
802.00,0.0455
801.00,0.0456
800.00,0.0457
799.00,0.0459
798.00,0.0462
797.00,0.0466
796.00,0.0470
795.00,0.0474
794.00,0.0478
793.00,0.0480
792.00,0.0482
791.00,0.0485
790.00,0.0488
789.00,0.0491
788.00,0.0495
787.00,0.0499
786.00,0.0503
785.00,0.0507
784.00,0.0512
783.00,0.0516
782.00,0.0520
781.00,0.0524
780.00,0.0528
779.00,0.0532
778.00,0.0537
777.00,0.0542
776.00,0.0548
775.00,0.0553
774.00,0.0558
773.00,0.0562
772.00,0.0567
771.00,0.0572
770.00,0.0577
769.00,0.0581
768.00,0.0586
767.00,0.0590
766.00,0.0595
765.00,0.0600
764.00,0.0605
763.00,0.0609
762.00,0.0613
761.00,0.0616
760.00,0.0620
759.00,0.0624
758.00,0.0628
757.00,0.0632
756.00,0.0637
755.00,0.0642
754.00,0.0648
753.00,0.0653
752.00,0.0659
751.00,0.0666
750.00,0.0673
749.00,0.0680
748.00,0.0687
747.00,0.0695
746.00,0.0703
745.00,0.0711
744.00,0.0719
743.00,0.0726
742.00,0.0733
741.00,0.0741
740.00,0.0749
739.00,0.0758
738.00,0.0768
737.00,0.0778
736.00,0.0788
735.00,0.0798
734.00,0.0807
733.00,0.0818
732.00,0.0829
731.00,0.0841
730.00,0.0854
729.00,0.0866
728.00,0.0878
727.00,0.0890
726.00,0.0902
725.00,0.0914
724.00,0.0926
723.00,0.0939
722.00,0.0950
721.00,0.0962
720.00,0.0972
719.00,0.0980
718.00,0.0986
717.00,0.0991
716.00,0.0997
715.00,0.1003
714.00,0.1010
713.00,0.1018
712.00,0.1026
711.00,0.1033
710.00,0.1041
709.00,0.1049
708.00,0.1058
707.00,0.1067
706.00,0.1077
705.00,0.1086
704.00,0.1095
703.00,0.1104
702.00,0.1112
701.00,0.1120
700.00,0.1127
699.00,0.1133
698.00,0.1138
697.00,0.1144
696.00,0.1149
695.00,0.1154
694.00,0.1158
693.00,0.1162
692.00,0.1166
691.00,0.1170
690.00,0.1174
689.00,0.1178
688.00,0.1182
687.00,0.1186
686.00,0.1189
685.00,0.1192
684.00,0.1195
683.00,0.1199
682.00,0.1202
681.00,0.1205
680.00,0.1209
679.00,0.1212
678.00,0.1215
677.00,0.1217
676.00,0.1220
675.00,0.1223
674.00,0.1227
673.00,0.1231
672.00,0.1234
671.00,0.1239
670.00,0.1243
669.00,0.1249
668.00,0.1254
667.00,0.1257
666.00,0.1258
665.00,0.1260
664.00,0.1262
663.00,0.1266
662.00,0.1269
661.00,0.1273
660.00,0.1277
659.00,0.1280
658.00,0.1284
657.00,0.1288
656.00,0.1292
655.00,0.1296
654.00,0.1300
653.00,0.1304
652.00,0.1308
651.00,0.1312
650.00,0.1315
649.00,0.1320
648.00,0.1326
647.00,0.1331
646.00,0.1335
645.00,0.1339
644.00,0.1343
643.00,0.1346
642.00,0.1350
641.00,0.1353
640.00,0.1355
639.00,0.1357
638.00,0.1358
637.00,0.1359
636.00,0.1361
635.00,0.1362
634.00,0.1363
633.00,0.1365
632.00,0.1366
631.00,0.1367
630.00,0.1368
629.00,0.1369
628.00,0.1370
627.00,0.1371
626.00,0.1371
625.00,0.1373
624.00,0.1375
623.00,0.1378
622.00,0.1381
621.00,0.1384
620.00,0.1389
619.00,0.1395
618.00,0.1402
617.00,0.1409
616.00,0.1415
615.00,0.1420
614.00,0.1423
613.00,0.1425
612.00,0.1427
611.00,0.1428
610.00,0.1428
609.00,0.1426
608.00,0.1423
607.00,0.1419
606.00,0.1414
605.00,0.1409
604.00,0.1404
603.00,0.1399
602.00,0.1393
601.00,0.1388
600.00,0.1384
599.00,0.1381
598.00,0.1378
597.00,0.1375
596.00,0.1374
595.00,0.1373
594.00,0.1373
593.00,0.1373
592.00,0.1374
591.00,0.1374
590.00,0.1373
589.00,0.1374
588.00,0.1375
587.00,0.1377
586.00,0.1379
585.00,0.1382
584.00,0.1386
583.00,0.1389
582.00,0.1392
581.00,0.1393
580.00,0.1396
579.00,0.1400
578.00,0.1404
577.00,0.1407
576.00,0.1411
575.00,0.1416
574.00,0.1422
573.00,0.1429
572.00,0.1436
571.00,0.1441
570.00,0.1445
569.00,0.1449
568.00,0.1454
567.00,0.1462
566.00,0.1472
565.00,0.1483
564.00,0.1497
563.00,0.1511
562.00,0.1524
561.00,0.1539
560.00,0.1553
559.00,0.1567
558.00,0.1580
557.00,0.1593
556.00,0.1607
555.00,0.1618
554.00,0.1628
553.00,0.1635
552.00,0.1641
551.00,0.1644
550.00,0.1644
549.00,0.1643
548.00,0.1643
547.00,0.1643
546.00,0.1641
545.00,0.1638
544.00,0.1636
543.00,0.1633
542.00,0.1628
541.00,0.1624
540.00,0.1620
539.00,0.1616
538.00,0.1611
537.00,0.1606
536.00,0.1602
535.00,0.1598
534.00,0.1594
533.00,0.1590
532.00,0.1586
531.00,0.1581
530.00,0.1576
529.00,0.1571
528.00,0.1565
527.00,0.1559
526.00,0.1554
525.00,0.1552
524.00,0.1552
523.00,0.1550
522.00,0.1547
521.00,0.1542
520.00,0.1539
519.00,0.1537
518.00,0.1536
517.00,0.1535
516.00,0.1536
515.00,0.1536
514.00,0.1534
513.00,0.1530
512.00,0.1527
511.00,0.1524
510.00,0.1519
509.00,0.1513
508.00,0.1505
507.00,0.1496
506.00,0.1489
505.00,0.1484
504.00,0.1482
503.00,0.1478
502.00,0.1473
501.00,0.1467
500.00,0.1464
499.00,0.1461
498.00,0.1458
497.00,0.1456
496.00,0.1455
495.00,0.1454
494.00,0.1452
493.00,0.1450
492.00,0.1449
491.00,0.1448
490.00,0.1446
489.00,0.1444
488.00,0.1442
487.00,0.1439
486.00,0.1434
485.00,0.1429
484.00,0.1425
483.00,0.1421
482.00,0.1416
481.00,0.1410
480.00,0.1404
479.00,0.1398
478.00,0.1393
477.00,0.1388
476.00,0.1385
475.00,0.1380
474.00,0.1376
473.00,0.1374
472.00,0.1376
471.00,0.1379
470.00,0.1378
469.00,0.1374
468.00,0.1369
467.00,0.1366
466.00,0.1365
465.00,0.1363
464.00,0.1362
463.00,0.1359
462.00,0.1355
461.00,0.1350
460.00,0.1345
459.00,0.1339
458.00,0.1335
457.00,0.1333
456.00,0.1331
455.00,0.1326
454.00,0.1317
453.00,0.1309
452.00,0.1307
451.00,0.1306
450.00,0.1304
449.00,0.1300
448.00,0.1296
447.00,0.1293
446.00,0.1290
445.00,0.1289
444.00,0.1289
443.00,0.1288
442.00,0.1285
441.00,0.1281
440.00,0.1278
439.00,0.1274
438.00,0.1269
437.00,0.1266
436.00,0.1266
435.00,0.1268
434.00,0.1270
433.00,0.1273
432.00,0.1277
431.00,0.1282
430.00,0.1288
429.00,0.1296
428.00,0.1305
427.00,0.1309
426.00,0.1305
425.00,0.1298
424.00,0.1294
423.00,0.1293
422.00,0.1289
421.00,0.1280
420.00,0.1266
419.00,0.1252
418.00,0.1243
417.00,0.1240
416.00,0.1241
415.00,0.1238
414.00,0.1230
413.00,0.1220
412.00,0.1214
411.00,0.1210
410.00,0.1203
409.00,0.1192
408.00,0.1179
407.00,0.1166
406.00,0.1157
405.00,0.1154
404.00,0.1151
403.00,0.1139
402.00,0.1115
401.00,0.1087
400.00,0.1065
