Created as New Dataset,Sample 384 By YargerLab Date Tuesday, December 02 2025
cm-1,A
4000.00,0.0005
3999.00,0.0005
3998.00,0.0005
3997.00,0.0005
3996.00,0.0005
3995.00,0.0005
3994.00,0.0005
3993.00,0.0005
3992.00,0.0005
3991.00,0.0005
3990.00,0.0005
3989.00,0.0005
3988.00,0.0006
3987.00,0.0006
3986.00,0.0006
3985.00,0.0006
3984.00,0.0006
3983.00,0.0005
3982.00,0.0005
3981.00,0.0005
3980.00,0.0005
3979.00,0.0005
3978.00,0.0005
3977.00,0.0005
3976.00,0.0005
3975.00,0.0005
3974.00,0.0005
3973.00,0.0005
3972.00,0.0005
3971.00,0.0005
3970.00,0.0005
3969.00,0.0005
3968.00,0.0005
3967.00,0.0006
3966.00,0.0006
3965.00,0.0006
3964.00,0.0006
3963.00,0.0005
3962.00,0.0005
3961.00,0.0005
3960.00,0.0005
3959.00,0.0005
3958.00,0.0005
3957.00,0.0005
3956.00,0.0005
3955.00,0.0005
3954.00,0.0005
3953.00,0.0005
3952.00,0.0005
3951.00,0.0005
3950.00,0.0005
3949.00,0.0005
3948.00,0.0005
3947.00,0.0005
3946.00,0.0005
3945.00,0.0005
3944.00,0.0005
3943.00,0.0005
3942.00,0.0005
3941.00,0.0005
3940.00,0.0005
3939.00,0.0005
3938.00,0.0005
3937.00,0.0005
3936.00,0.0005
3935.00,0.0005
3934.00,0.0005
3933.00,0.0005
3932.00,0.0005
3931.00,0.0005
3930.00,0.0005
3929.00,0.0005
3928.00,0.0005
3927.00,0.0005
3926.00,0.0005
3925.00,0.0005
3924.00,0.0005
3923.00,0.0005
3922.00,0.0005
3921.00,0.0005
3920.00,0.0005
3919.00,0.0004
3918.00,0.0004
3917.00,0.0004
3916.00,0.0004
3915.00,0.0004
3914.00,0.0004
3913.00,0.0004
3912.00,0.0004
3911.00,0.0004
3910.00,0.0005
3909.00,0.0005
3908.00,0.0005
3907.00,0.0005
3906.00,0.0005
3905.00,0.0005
3904.00,0.0005
3903.00,0.0005
3902.00,0.0004
3901.00,0.0004
3900.00,0.0004
3899.00,0.0004
3898.00,0.0004
3897.00,0.0004
3896.00,0.0004
3895.00,0.0004
3894.00,0.0004
3893.00,0.0004
3892.00,0.0004
3891.00,0.0005
3890.00,0.0005
3889.00,0.0005
3888.00,0.0004
3887.00,0.0004
3886.00,0.0005
3885.00,0.0005
3884.00,0.0004
3883.00,0.0004
3882.00,0.0004
3881.00,0.0004
3880.00,0.0004
3879.00,0.0004
3878.00,0.0004
3877.00,0.0004
3876.00,0.0004
3875.00,0.0005
3874.00,0.0006
3873.00,0.0006
3872.00,0.0005
3871.00,0.0005
3870.00,0.0005
3869.00,0.0005
3868.00,0.0005
3867.00,0.0005
3866.00,0.0005
3865.00,0.0005
3864.00,0.0005
3863.00,0.0005
3862.00,0.0005
3861.00,0.0005
3860.00,0.0005
3859.00,0.0006
3858.00,0.0006
3857.00,0.0006
3856.00,0.0005
3855.00,0.0005
3854.00,0.0005
3853.00,0.0005
3852.00,0.0004
3851.00,0.0003
3850.00,0.0003
3849.00,0.0003
3848.00,0.0004
3847.00,0.0004
3846.00,0.0005
3845.00,0.0005
3844.00,0.0006
3843.00,0.0006
3842.00,0.0006
3841.00,0.0005
3840.00,0.0005
3839.00,0.0004
3838.00,0.0004
3837.00,0.0004
3836.00,0.0004
3835.00,0.0005
3834.00,0.0005
3833.00,0.0005
3832.00,0.0005
3831.00,0.0005
3830.00,0.0005
3829.00,0.0004
3828.00,0.0004
3827.00,0.0005
3826.00,0.0005
3825.00,0.0005
3824.00,0.0005
3823.00,0.0004
3822.00,0.0005
3821.00,0.0005
3820.00,0.0006
3819.00,0.0005
3818.00,0.0005
3817.00,0.0004
3816.00,0.0005
3815.00,0.0005
3814.00,0.0005
3813.00,0.0005
3812.00,0.0005
3811.00,0.0005
3810.00,0.0005
3809.00,0.0005
3808.00,0.0005
3807.00,0.0006
3806.00,0.0006
3805.00,0.0006
3804.00,0.0005
3803.00,0.0005
3802.00,0.0006
3801.00,0.0006
3800.00,0.0006
3799.00,0.0005
3798.00,0.0005
3797.00,0.0004
3796.00,0.0004
3795.00,0.0004
3794.00,0.0004
3793.00,0.0004
3792.00,0.0005
3791.00,0.0005
3790.00,0.0006
3789.00,0.0006
3788.00,0.0006
3787.00,0.0006
3786.00,0.0005
3785.00,0.0005
3784.00,0.0005
3783.00,0.0005
3782.00,0.0005
3781.00,0.0005
3780.00,0.0005
3779.00,0.0005
3778.00,0.0005
3777.00,0.0006
3776.00,0.0006
3775.00,0.0006
3774.00,0.0006
3773.00,0.0006
3772.00,0.0005
3771.00,0.0005
3770.00,0.0005
3769.00,0.0005
3768.00,0.0004
3767.00,0.0004
3766.00,0.0005
3765.00,0.0005
3764.00,0.0005
3763.00,0.0005
3762.00,0.0005
3761.00,0.0005
3760.00,0.0005
3759.00,0.0005
3758.00,0.0005
3757.00,0.0005
3756.00,0.0005
3755.00,0.0006
3754.00,0.0006
3753.00,0.0006
3752.00,0.0006
3751.00,0.0006
3750.00,0.0006
3749.00,0.0006
3748.00,0.0005
3747.00,0.0004
3746.00,0.0004
3745.00,0.0004
3744.00,0.0005
3743.00,0.0004
3742.00,0.0004
3741.00,0.0005
3740.00,0.0005
3739.00,0.0005
3738.00,0.0005
3737.00,0.0005
3736.00,0.0005
3735.00,0.0005
3734.00,0.0004
3733.00,0.0004
3732.00,0.0004
3731.00,0.0005
3730.00,0.0005
3729.00,0.0005
3728.00,0.0005
3727.00,0.0005
3726.00,0.0005
3725.00,0.0005
3724.00,0.0005
3723.00,0.0005
3722.00,0.0005
3721.00,0.0005
3720.00,0.0005
3719.00,0.0005
3718.00,0.0005
3717.00,0.0005
3716.00,0.0005
3715.00,0.0005
3714.00,0.0005
3713.00,0.0005
3712.00,0.0005
3711.00,0.0004
3710.00,0.0003
3709.00,0.0003
3708.00,0.0003
3707.00,0.0003
3706.00,0.0003
3705.00,0.0003
3704.00,0.0003
3703.00,0.0004
3702.00,0.0004
3701.00,0.0004
3700.00,0.0004
3699.00,0.0004
3698.00,0.0004
3697.00,0.0004
3696.00,0.0004
3695.00,0.0004
3694.00,0.0004
3693.00,0.0004
3692.00,0.0004
3691.00,0.0004
3690.00,0.0004
3689.00,0.0004
3688.00,0.0004
3687.00,0.0004
3686.00,0.0004
3685.00,0.0004
3684.00,0.0004
3683.00,0.0004
3682.00,0.0005
3681.00,0.0005
3680.00,0.0005
3679.00,0.0005
3678.00,0.0005
3677.00,0.0005
3676.00,0.0005
3675.00,0.0006
3674.00,0.0005
3673.00,0.0004
3672.00,0.0004
3671.00,0.0004
3670.00,0.0004
3669.00,0.0004
3668.00,0.0004
3667.00,0.0004
3666.00,0.0004
3665.00,0.0004
3664.00,0.0004
3663.00,0.0004
3662.00,0.0005
3661.00,0.0005
3660.00,0.0005
3659.00,0.0005
3658.00,0.0005
3657.00,0.0005
3656.00,0.0005
3655.00,0.0005
3654.00,0.0005
3653.00,0.0005
3652.00,0.0005
3651.00,0.0005
3650.00,0.0005
3649.00,0.0005
3648.00,0.0004
3647.00,0.0004
3646.00,0.0004
3645.00,0.0004
3644.00,0.0004
3643.00,0.0005
3642.00,0.0005
3641.00,0.0005
3640.00,0.0006
3639.00,0.0006
3638.00,0.0005
3637.00,0.0005
3636.00,0.0005
3635.00,0.0005
3634.00,0.0006
3633.00,0.0006
3632.00,0.0006
3631.00,0.0006
3630.00,0.0005
3629.00,0.0006
3628.00,0.0006
3627.00,0.0005
3626.00,0.0005
3625.00,0.0005
3624.00,0.0006
3623.00,0.0006
3622.00,0.0006
3621.00,0.0006
3620.00,0.0006
3619.00,0.0006
3618.00,0.0006
3617.00,0.0006
3616.00,0.0006
3615.00,0.0006
3614.00,0.0005
3613.00,0.0005
3612.00,0.0005
3611.00,0.0005
3610.00,0.0005
3609.00,0.0005
3608.00,0.0005
3607.00,0.0005
3606.00,0.0005
3605.00,0.0005
3604.00,0.0005
3603.00,0.0006
3602.00,0.0006
3601.00,0.0006
3600.00,0.0006
3599.00,0.0007
3598.00,0.0007
3597.00,0.0007
3596.00,0.0007
3595.00,0.0007
3594.00,0.0007
3593.00,0.0008
3592.00,0.0008
3591.00,0.0008
3590.00,0.0007
3589.00,0.0007
3588.00,0.0007
3587.00,0.0007
3586.00,0.0007
3585.00,0.0007
3584.00,0.0007
3583.00,0.0007
3582.00,0.0007
3581.00,0.0007
3580.00,0.0007
3579.00,0.0007
3578.00,0.0007
3577.00,0.0007
3576.00,0.0007
3575.00,0.0007
3574.00,0.0008
3573.00,0.0008
3572.00,0.0009
3571.00,0.0009
3570.00,0.0009
3569.00,0.0009
3568.00,0.0008
3567.00,0.0008
3566.00,0.0008
3565.00,0.0007
3564.00,0.0007
3563.00,0.0008
3562.00,0.0008
3561.00,0.0008
3560.00,0.0008
3559.00,0.0009
3558.00,0.0009
3557.00,0.0009
3556.00,0.0010
3555.00,0.0010
3554.00,0.0010
3553.00,0.0010
3552.00,0.0010
3551.00,0.0010
3550.00,0.0010
3549.00,0.0010
3548.00,0.0010
3547.00,0.0010
3546.00,0.0010
3545.00,0.0010
3544.00,0.0010
3543.00,0.0010
3542.00,0.0010
3541.00,0.0010
3540.00,0.0011
3539.00,0.0011
3538.00,0.0011
3537.00,0.0012
3536.00,0.0011
3535.00,0.0011
3534.00,0.0011
3533.00,0.0011
3532.00,0.0011
3531.00,0.0011
3530.00,0.0011
3529.00,0.0011
3528.00,0.0012
3527.00,0.0012
3526.00,0.0012
3525.00,0.0012
3524.00,0.0012
3523.00,0.0012
3522.00,0.0012
3521.00,0.0011
3520.00,0.0011
3519.00,0.0012
3518.00,0.0012
3517.00,0.0012
3516.00,0.0012
3515.00,0.0012
3514.00,0.0012
3513.00,0.0012
3512.00,0.0013
3511.00,0.0013
3510.00,0.0013
3509.00,0.0013
3508.00,0.0013
3507.00,0.0013
3506.00,0.0013
3505.00,0.0013
3504.00,0.0014
3503.00,0.0014
3502.00,0.0014
3501.00,0.0014
3500.00,0.0014
3499.00,0.0014
3498.00,0.0014
3497.00,0.0014
3496.00,0.0014
3495.00,0.0014
3494.00,0.0014
3493.00,0.0014
3492.00,0.0014
3491.00,0.0014
3490.00,0.0014
3489.00,0.0014
3488.00,0.0014
3487.00,0.0015
3486.00,0.0015
3485.00,0.0015
3484.00,0.0015
3483.00,0.0015
3482.00,0.0015
3481.00,0.0016
3480.00,0.0016
3479.00,0.0016
3478.00,0.0016
3477.00,0.0016
3476.00,0.0016
3475.00,0.0016
3474.00,0.0016
3473.00,0.0016
3472.00,0.0016
3471.00,0.0016
3470.00,0.0016
3469.00,0.0016
3468.00,0.0016
3467.00,0.0016
3466.00,0.0016
3465.00,0.0016
3464.00,0.0016
3463.00,0.0015
3462.00,0.0016
3461.00,0.0016
3460.00,0.0016
3459.00,0.0016
3458.00,0.0016
3457.00,0.0016
3456.00,0.0017
3455.00,0.0017
3454.00,0.0017
3453.00,0.0017
3452.00,0.0017
3451.00,0.0017
3450.00,0.0017
3449.00,0.0017
3448.00,0.0017
3447.00,0.0017
3446.00,0.0017
3445.00,0.0017
3444.00,0.0017
3443.00,0.0017
3442.00,0.0017
3441.00,0.0017
3440.00,0.0017
3439.00,0.0018
3438.00,0.0018
3437.00,0.0018
3436.00,0.0018
3435.00,0.0018
3434.00,0.0018
3433.00,0.0017
3432.00,0.0017
3431.00,0.0018
3430.00,0.0018
3429.00,0.0018
3428.00,0.0018
3427.00,0.0018
3426.00,0.0018
3425.00,0.0019
3424.00,0.0018
3423.00,0.0018
3422.00,0.0018
3421.00,0.0018
3420.00,0.0018
3419.00,0.0018
3418.00,0.0018
3417.00,0.0018
3416.00,0.0018
3415.00,0.0018
3414.00,0.0018
3413.00,0.0018
3412.00,0.0018
3411.00,0.0018
3410.00,0.0018
3409.00,0.0018
3408.00,0.0018
3407.00,0.0018
3406.00,0.0018
3405.00,0.0018
3404.00,0.0018
3403.00,0.0019
3402.00,0.0019
3401.00,0.0019
3400.00,0.0019
3399.00,0.0018
3398.00,0.0018
3397.00,0.0018
3396.00,0.0019
3395.00,0.0019
3394.00,0.0019
3393.00,0.0019
3392.00,0.0019
3391.00,0.0018
3390.00,0.0018
3389.00,0.0018
3388.00,0.0019
3387.00,0.0019
3386.00,0.0019
3385.00,0.0019
3384.00,0.0019
3383.00,0.0018
3382.00,0.0018
3381.00,0.0018
3380.00,0.0019
3379.00,0.0019
3378.00,0.0019
3377.00,0.0019
3376.00,0.0019
3375.00,0.0019
3374.00,0.0019
3373.00,0.0019
3372.00,0.0019
3371.00,0.0019
3370.00,0.0019
3369.00,0.0019
3368.00,0.0019
3367.00,0.0019
3366.00,0.0019
3365.00,0.0019
3364.00,0.0019
3363.00,0.0019
3362.00,0.0019
3361.00,0.0020
3360.00,0.0020
3359.00,0.0020
3358.00,0.0020
3357.00,0.0020
3356.00,0.0020
3355.00,0.0020
3354.00,0.0020
3353.00,0.0020
3352.00,0.0020
3351.00,0.0020
3350.00,0.0020
3349.00,0.0020
3348.00,0.0020
3347.00,0.0020
3346.00,0.0020
3345.00,0.0020
3344.00,0.0020
3343.00,0.0020
3342.00,0.0020
3341.00,0.0020
3340.00,0.0020
3339.00,0.0020
3338.00,0.0020
3337.00,0.0020
3336.00,0.0020
3335.00,0.0020
3334.00,0.0021
3333.00,0.0021
3332.00,0.0021
3331.00,0.0021
3330.00,0.0021
3329.00,0.0021
3328.00,0.0021
3327.00,0.0021
3326.00,0.0021
3325.00,0.0021
3324.00,0.0021
3323.00,0.0021
3322.00,0.0021
3321.00,0.0020
3320.00,0.0020
3319.00,0.0021
3318.00,0.0021
3317.00,0.0021
3316.00,0.0021
3315.00,0.0021
3314.00,0.0021
3313.00,0.0021
3312.00,0.0021
3311.00,0.0021
3310.00,0.0021
3309.00,0.0021
3308.00,0.0020
3307.00,0.0020
3306.00,0.0020
3305.00,0.0021
3304.00,0.0021
3303.00,0.0021
3302.00,0.0021
3301.00,0.0021
3300.00,0.0021
3299.00,0.0021
3298.00,0.0021
3297.00,0.0021
3296.00,0.0021
3295.00,0.0021
3294.00,0.0021
3293.00,0.0021
3292.00,0.0021
3291.00,0.0021
3290.00,0.0021
3289.00,0.0021
3288.00,0.0021
3287.00,0.0021
3286.00,0.0021
3285.00,0.0021
3284.00,0.0021
3283.00,0.0021
3282.00,0.0021
3281.00,0.0021
3280.00,0.0021
3279.00,0.0021
3278.00,0.0020
3277.00,0.0020
3276.00,0.0020
3275.00,0.0020
3274.00,0.0020
3273.00,0.0020
3272.00,0.0020
3271.00,0.0020
3270.00,0.0021
3269.00,0.0021
3268.00,0.0021
3267.00,0.0020
3266.00,0.0020
3265.00,0.0020
3264.00,0.0020
3263.00,0.0020
3262.00,0.0020
3261.00,0.0020
3260.00,0.0020
3259.00,0.0020
3258.00,0.0020
3257.00,0.0020
3256.00,0.0020
3255.00,0.0020
3254.00,0.0020
3253.00,0.0020
3252.00,0.0020
3251.00,0.0020
3250.00,0.0020
3249.00,0.0020
3248.00,0.0020
3247.00,0.0020
3246.00,0.0020
3245.00,0.0019
3244.00,0.0019
3243.00,0.0019
3242.00,0.0019
3241.00,0.0019
3240.00,0.0020
3239.00,0.0020
3238.00,0.0020
3237.00,0.0020
3236.00,0.0019
3235.00,0.0019
3234.00,0.0019
3233.00,0.0019
3232.00,0.0019
3231.00,0.0019
3230.00,0.0019
3229.00,0.0019
3228.00,0.0019
3227.00,0.0019
3226.00,0.0019
3225.00,0.0019
3224.00,0.0019
3223.00,0.0020
3222.00,0.0020
3221.00,0.0019
3220.00,0.0019
3219.00,0.0019
3218.00,0.0019
3217.00,0.0019
3216.00,0.0019
3215.00,0.0019
3214.00,0.0019
3213.00,0.0020
3212.00,0.0020
3211.00,0.0020
3210.00,0.0020
3209.00,0.0020
3208.00,0.0020
3207.00,0.0020
3206.00,0.0020
3205.00,0.0019
3204.00,0.0019
3203.00,0.0019
3202.00,0.0019
3201.00,0.0019
3200.00,0.0019
3199.00,0.0019
3198.00,0.0019
3197.00,0.0019
3196.00,0.0019
3195.00,0.0019
3194.00,0.0018
3193.00,0.0018
3192.00,0.0018
3191.00,0.0018
3190.00,0.0018
3189.00,0.0019
3188.00,0.0019
3187.00,0.0019
3186.00,0.0019
3185.00,0.0018
3184.00,0.0018
3183.00,0.0018
3182.00,0.0018
3181.00,0.0018
3180.00,0.0018
3179.00,0.0018
3178.00,0.0018
3177.00,0.0017
3176.00,0.0017
3175.00,0.0017
3174.00,0.0017
3173.00,0.0017
3172.00,0.0017
3171.00,0.0018
3170.00,0.0018
3169.00,0.0018
3168.00,0.0018
3167.00,0.0018
3166.00,0.0018
3165.00,0.0019
3164.00,0.0019
3163.00,0.0019
3162.00,0.0019
3161.00,0.0018
3160.00,0.0018
3159.00,0.0018
3158.00,0.0018
3157.00,0.0018
3156.00,0.0018
3155.00,0.0018
3154.00,0.0018
3153.00,0.0018
3152.00,0.0018
3151.00,0.0018
3150.00,0.0018
3149.00,0.0017
3148.00,0.0017
3147.00,0.0017
3146.00,0.0017
3145.00,0.0017
3144.00,0.0017
3143.00,0.0017
3142.00,0.0017
3141.00,0.0017
3140.00,0.0018
3139.00,0.0018
3138.00,0.0018
3137.00,0.0018
3136.00,0.0018
3135.00,0.0018
3134.00,0.0018
3133.00,0.0018
3132.00,0.0017
3131.00,0.0017
3130.00,0.0017
3129.00,0.0017
3128.00,0.0018
3127.00,0.0018
3126.00,0.0018
3125.00,0.0018
3124.00,0.0018
3123.00,0.0018
3122.00,0.0018
3121.00,0.0018
3120.00,0.0018
3119.00,0.0019
3118.00,0.0019
3117.00,0.0019
3116.00,0.0019
3115.00,0.0020
3114.00,0.0020
3113.00,0.0020
3112.00,0.0021
3111.00,0.0022
3110.00,0.0023
3109.00,0.0023
3108.00,0.0024
3107.00,0.0025
3106.00,0.0026
3105.00,0.0027
3104.00,0.0028
3103.00,0.0028
3102.00,0.0028
3101.00,0.0028
3100.00,0.0028
3099.00,0.0027
3098.00,0.0027
3097.00,0.0027
3096.00,0.0027
3095.00,0.0027
3094.00,0.0028
3093.00,0.0028
3092.00,0.0029
3091.00,0.0031
3090.00,0.0033
3089.00,0.0035
3088.00,0.0038
3087.00,0.0041
3086.00,0.0045
3085.00,0.0048
3084.00,0.0050
3083.00,0.0052
3082.00,0.0053
3081.00,0.0052
3080.00,0.0051
3079.00,0.0049
3078.00,0.0048
3077.00,0.0046
3076.00,0.0044
3075.00,0.0043
3074.00,0.0042
3073.00,0.0042
3072.00,0.0043
3071.00,0.0043
3070.00,0.0044
3069.00,0.0046
3068.00,0.0047
3067.00,0.0050
3066.00,0.0053
3065.00,0.0056
3064.00,0.0059
3063.00,0.0063
3062.00,0.0065
3061.00,0.0068
3060.00,0.0069
3059.00,0.0069
3058.00,0.0069
3057.00,0.0067
3056.00,0.0064
3055.00,0.0061
3054.00,0.0057
3053.00,0.0054
3052.00,0.0051
3051.00,0.0048
3050.00,0.0046
3049.00,0.0044
3048.00,0.0042
3047.00,0.0041
3046.00,0.0041
3045.00,0.0041
3044.00,0.0041
3043.00,0.0041
3042.00,0.0042
3041.00,0.0043
3040.00,0.0045
3039.00,0.0047
3038.00,0.0049
3037.00,0.0052
3036.00,0.0056
3035.00,0.0060
3034.00,0.0065
3033.00,0.0071
3032.00,0.0078
3031.00,0.0086
3030.00,0.0095
3029.00,0.0103
3028.00,0.0111
3027.00,0.0117
3026.00,0.0122
3025.00,0.0123
3024.00,0.0122
3023.00,0.0118
3022.00,0.0112
3021.00,0.0103
3020.00,0.0094
3019.00,0.0085
3018.00,0.0076
3017.00,0.0069
3016.00,0.0062
3015.00,0.0055
3014.00,0.0050
3013.00,0.0045
3012.00,0.0043
3011.00,0.0041
3010.00,0.0039
3009.00,0.0038
3008.00,0.0038
3007.00,0.0038
3006.00,0.0038
3005.00,0.0039
3004.00,0.0040
3003.00,0.0041
3002.00,0.0042
3001.00,0.0042
3000.00,0.0042
2999.00,0.0041
2998.00,0.0039
2997.00,0.0038
2996.00,0.0036
2995.00,0.0034
2994.00,0.0032
2993.00,0.0031
2992.00,0.0030
2991.00,0.0029
2990.00,0.0028
2989.00,0.0028
2988.00,0.0027
2987.00,0.0027
2986.00,0.0027
2985.00,0.0027
2984.00,0.0028
2983.00,0.0028
2982.00,0.0029
2981.00,0.0029
2980.00,0.0029
2979.00,0.0030
2978.00,0.0031
2977.00,0.0031
2976.00,0.0032
2975.00,0.0032
2974.00,0.0033
2973.00,0.0033
2972.00,0.0034
2971.00,0.0034
2970.00,0.0035
2969.00,0.0036
2968.00,0.0037
2967.00,0.0038
2966.00,0.0039
2965.00,0.0040
2964.00,0.0041
2963.00,0.0042
2962.00,0.0044
2961.00,0.0045
2960.00,0.0046
2959.00,0.0048
2958.00,0.0049
2957.00,0.0050
2956.00,0.0052
2955.00,0.0053
2954.00,0.0055
2953.00,0.0057
2952.00,0.0059
2951.00,0.0060
2950.00,0.0062
2949.00,0.0064
2948.00,0.0066
2947.00,0.0069
2946.00,0.0072
2945.00,0.0075
2944.00,0.0078
2943.00,0.0082
2942.00,0.0086
2941.00,0.0090
2940.00,0.0095
2939.00,0.0099
2938.00,0.0104
2937.00,0.0109
2936.00,0.0115
2935.00,0.0120
2934.00,0.0126
2933.00,0.0132
2932.00,0.0138
2931.00,0.0144
2930.00,0.0149
2929.00,0.0154
2928.00,0.0159
2927.00,0.0163
2926.00,0.0167
2925.00,0.0170
2924.00,0.0172
2923.00,0.0173
2922.00,0.0174
2921.00,0.0173
2920.00,0.0173
2919.00,0.0171
2918.00,0.0169
2917.00,0.0167
2916.00,0.0164
2915.00,0.0160
2914.00,0.0156
2913.00,0.0152
2912.00,0.0148
2911.00,0.0143
2910.00,0.0139
2909.00,0.0134
2908.00,0.0130
2907.00,0.0125
2906.00,0.0121
2905.00,0.0117
2904.00,0.0113
2903.00,0.0109
2902.00,0.0105
2901.00,0.0101
2900.00,0.0097
2899.00,0.0093
2898.00,0.0090
2897.00,0.0086
2896.00,0.0083
2895.00,0.0080
2894.00,0.0078
2893.00,0.0076
2892.00,0.0074
2891.00,0.0072
2890.00,0.0070
2889.00,0.0068
2888.00,0.0066
2887.00,0.0064
2886.00,0.0063
2885.00,0.0061
2884.00,0.0060
2883.00,0.0059
2882.00,0.0058
2881.00,0.0057
2880.00,0.0055
2879.00,0.0054
2878.00,0.0053
2877.00,0.0052
2876.00,0.0052
2875.00,0.0051
2874.00,0.0051
2873.00,0.0050
2872.00,0.0050
2871.00,0.0050
2870.00,0.0050
2869.00,0.0050
2868.00,0.0051
2867.00,0.0051
2866.00,0.0052
2865.00,0.0053
2864.00,0.0054
2863.00,0.0056
2862.00,0.0058
2861.00,0.0060
2860.00,0.0063
2859.00,0.0066
2858.00,0.0069
2857.00,0.0072
2856.00,0.0075
2855.00,0.0078
2854.00,0.0080
2853.00,0.0082
2852.00,0.0084
2851.00,0.0085
2850.00,0.0085
2849.00,0.0084
2848.00,0.0082
2847.00,0.0080
2846.00,0.0077
2845.00,0.0073
2844.00,0.0069
2843.00,0.0065
2842.00,0.0060
2841.00,0.0055
2840.00,0.0051
2839.00,0.0047
2838.00,0.0043
2837.00,0.0039
2836.00,0.0036
2835.00,0.0033
2834.00,0.0031
2833.00,0.0029
2832.00,0.0028
2831.00,0.0026
2830.00,0.0025
2829.00,0.0024
2828.00,0.0023
2827.00,0.0023
2826.00,0.0022
2825.00,0.0021
2824.00,0.0021
2823.00,0.0021
2822.00,0.0020
2821.00,0.0020
2820.00,0.0020
2819.00,0.0020
2818.00,0.0019
2817.00,0.0019
2816.00,0.0019
2815.00,0.0019
2814.00,0.0019
2813.00,0.0019
2812.00,0.0019
2811.00,0.0019
2810.00,0.0019
2809.00,0.0019
2808.00,0.0018
2807.00,0.0018
2806.00,0.0018
2805.00,0.0018
2804.00,0.0018
2803.00,0.0017
2802.00,0.0017
2801.00,0.0017
2800.00,0.0017
2799.00,0.0017
2798.00,0.0016
2797.00,0.0016
2796.00,0.0016
2795.00,0.0016
2794.00,0.0016
2793.00,0.0016
2792.00,0.0016
2791.00,0.0016
2790.00,0.0016
2789.00,0.0016
2788.00,0.0016
2787.00,0.0015
2786.00,0.0015
2785.00,0.0015
2784.00,0.0015
2783.00,0.0015
2782.00,0.0015
2781.00,0.0015
2780.00,0.0015
2779.00,0.0015
2778.00,0.0015
2777.00,0.0015
2776.00,0.0014
2775.00,0.0014
2774.00,0.0014
2773.00,0.0014
2772.00,0.0014
2771.00,0.0014
2770.00,0.0014
2769.00,0.0014
2768.00,0.0014
2767.00,0.0014
2766.00,0.0014
2765.00,0.0014
2764.00,0.0014
2763.00,0.0014
2762.00,0.0014
2761.00,0.0014
2760.00,0.0013
2759.00,0.0013
2758.00,0.0013
2757.00,0.0013
2756.00,0.0013
2755.00,0.0013
2754.00,0.0013
2753.00,0.0013
2752.00,0.0013
2751.00,0.0013
2750.00,0.0013
2749.00,0.0013
2748.00,0.0013
2747.00,0.0013
2746.00,0.0013
2745.00,0.0013
2744.00,0.0013
2743.00,0.0013
2742.00,0.0013
2741.00,0.0013
2740.00,0.0013
2739.00,0.0013
2738.00,0.0013
2737.00,0.0013
2736.00,0.0012
2735.00,0.0012
2734.00,0.0013
2733.00,0.0013
2732.00,0.0013
2731.00,0.0013
2730.00,0.0013
2729.00,0.0013
2728.00,0.0013
2727.00,0.0013
2726.00,0.0013
2725.00,0.0013
2724.00,0.0013
2723.00,0.0013
2722.00,0.0013
2721.00,0.0013
2720.00,0.0013
2719.00,0.0013
2718.00,0.0013
2717.00,0.0013
2716.00,0.0013
2715.00,0.0013
2714.00,0.0013
2713.00,0.0013
2712.00,0.0013
2711.00,0.0012
2710.00,0.0012
2709.00,0.0012
2708.00,0.0012
2707.00,0.0012
2706.00,0.0012
2705.00,0.0013
2704.00,0.0013
2703.00,0.0013
2702.00,0.0013
2701.00,0.0013
2700.00,0.0013
2699.00,0.0012
2698.00,0.0012
2697.00,0.0012
2696.00,0.0012
2695.00,0.0012
2694.00,0.0012
2693.00,0.0012
2692.00,0.0012
2691.00,0.0012
2690.00,0.0012
2689.00,0.0012
2688.00,0.0012
2687.00,0.0012
2686.00,0.0012
2685.00,0.0012
2684.00,0.0013
2683.00,0.0013
2682.00,0.0013
2681.00,0.0013
2680.00,0.0013
2679.00,0.0012
2678.00,0.0012
2677.00,0.0012
2676.00,0.0012
2675.00,0.0012
2674.00,0.0012
2673.00,0.0012
2672.00,0.0012
2671.00,0.0012
2670.00,0.0012
2669.00,0.0012
2668.00,0.0012
2667.00,0.0013
2666.00,0.0013
2665.00,0.0013
2664.00,0.0014
2663.00,0.0014
2662.00,0.0015
2661.00,0.0015
2660.00,0.0015
2659.00,0.0015
2658.00,0.0015
2657.00,0.0015
2656.00,0.0015
2655.00,0.0015
2654.00,0.0015
2653.00,0.0016
2652.00,0.0016
2651.00,0.0016
2650.00,0.0016
2649.00,0.0016
2648.00,0.0016
2647.00,0.0016
2646.00,0.0016
2645.00,0.0016
2644.00,0.0016
2643.00,0.0016
2642.00,0.0016
2641.00,0.0016
2640.00,0.0016
2639.00,0.0016
2638.00,0.0016
2637.00,0.0016
2636.00,0.0016
2635.00,0.0016
2634.00,0.0016
2633.00,0.0016
2632.00,0.0016
2631.00,0.0016
2630.00,0.0016
2629.00,0.0016
2628.00,0.0015
2627.00,0.0015
2626.00,0.0015
2625.00,0.0015
2624.00,0.0014
2623.00,0.0014
2622.00,0.0014
2621.00,0.0014
2620.00,0.0014
2619.00,0.0014
2618.00,0.0014
2617.00,0.0014
2616.00,0.0013
2615.00,0.0013
2614.00,0.0013
2613.00,0.0013
2612.00,0.0013
2611.00,0.0013
2610.00,0.0013
2609.00,0.0013
2608.00,0.0013
2607.00,0.0014
2606.00,0.0014
2605.00,0.0014
2604.00,0.0014
2603.00,0.0014
2602.00,0.0014
2601.00,0.0013
2600.00,0.0013
2599.00,0.0013
2598.00,0.0012
2597.00,0.0012
2596.00,0.0012
2595.00,0.0012
2594.00,0.0012
2593.00,0.0012
2592.00,0.0012
2591.00,0.0011
2590.00,0.0011
2589.00,0.0011
2588.00,0.0011
2587.00,0.0011
2586.00,0.0011
2585.00,0.0012
2584.00,0.0012
2583.00,0.0012
2582.00,0.0012
2581.00,0.0012
2580.00,0.0012
2579.00,0.0012
2578.00,0.0012
2577.00,0.0012
2576.00,0.0011
2575.00,0.0011
2574.00,0.0011
2573.00,0.0011
2572.00,0.0011
2571.00,0.0011
2570.00,0.0011
2569.00,0.0011
2568.00,0.0011
2567.00,0.0011
2566.00,0.0010
2565.00,0.0010
2564.00,0.0010
2563.00,0.0010
2562.00,0.0010
2561.00,0.0010
2560.00,0.0010
2559.00,0.0010
2558.00,0.0010
2557.00,0.0010
2556.00,0.0010
2555.00,0.0010
2554.00,0.0010
2553.00,0.0010
2552.00,0.0010
2551.00,0.0009
2550.00,0.0009
2549.00,0.0009
2548.00,0.0009
2547.00,0.0009
2546.00,0.0009
2545.00,0.0009
2544.00,0.0010
2543.00,0.0010
2542.00,0.0009
2541.00,0.0009
2540.00,0.0009
2539.00,0.0009
2538.00,0.0009
2537.00,0.0009
2536.00,0.0009
2535.00,0.0009
2534.00,0.0009
2533.00,0.0009
2532.00,0.0008
2531.00,0.0008
2530.00,0.0008
2529.00,0.0009
2528.00,0.0009
2527.00,0.0009
2526.00,0.0009
2525.00,0.0009
2524.00,0.0008
2523.00,0.0008
2522.00,0.0008
2521.00,0.0008
2520.00,0.0008
2519.00,0.0008
2518.00,0.0008
2517.00,0.0008
2516.00,0.0009
2515.00,0.0009
2514.00,0.0009
2513.00,0.0008
2512.00,0.0008
2511.00,0.0008
2510.00,0.0007
2509.00,0.0007
2508.00,0.0008
2507.00,0.0008
2506.00,0.0008
2505.00,0.0008
2504.00,0.0008
2503.00,0.0008
2502.00,0.0008
2501.00,0.0008
2500.00,0.0008
2499.00,0.0008
2498.00,0.0008
2497.00,0.0008
2496.00,0.0008
2495.00,0.0008
2494.00,0.0007
2493.00,0.0007
2492.00,0.0007
2491.00,0.0007
2490.00,0.0007
2489.00,0.0008
2488.00,0.0008
2487.00,0.0008
2486.00,0.0007
2485.00,0.0007
2484.00,0.0007
2483.00,0.0007
2482.00,0.0008
2481.00,0.0007
2480.00,0.0007
2479.00,0.0007
2478.00,0.0007
2477.00,0.0007
2476.00,0.0007
2475.00,0.0007
2474.00,0.0007
2473.00,0.0007
2472.00,0.0007
2471.00,0.0007
2470.00,0.0007
2469.00,0.0007
2468.00,0.0007
2467.00,0.0006
2466.00,0.0006
2465.00,0.0007
2464.00,0.0007
2463.00,0.0008
2462.00,0.0008
2461.00,0.0008
2460.00,0.0008
2459.00,0.0008
2458.00,0.0008
2457.00,0.0008
2456.00,0.0008
2455.00,0.0008
2454.00,0.0008
2453.00,0.0008
2452.00,0.0008
2451.00,0.0008
2450.00,0.0007
2449.00,0.0007
2448.00,0.0007
2447.00,0.0007
2446.00,0.0007
2445.00,0.0006
2444.00,0.0006
2443.00,0.0006
2442.00,0.0007
2441.00,0.0007
2440.00,0.0007
2439.00,0.0007
2438.00,0.0006
2437.00,0.0006
2436.00,0.0005
2435.00,0.0005
2434.00,0.0005
2433.00,0.0005
2432.00,0.0005
2431.00,0.0006
2430.00,0.0006
2429.00,0.0006
2428.00,0.0005
2427.00,0.0005
2426.00,0.0005
2425.00,0.0005
2424.00,0.0005
2423.00,0.0005
2422.00,0.0004
2421.00,0.0004
2420.00,0.0004
2419.00,0.0004
2418.00,0.0005
2417.00,0.0005
2416.00,0.0005
2415.00,0.0005
2414.00,0.0005
2413.00,0.0004
2412.00,0.0004
2411.00,0.0004
2410.00,0.0004
2409.00,0.0003
2408.00,0.0003
2407.00,0.0003
2406.00,0.0003
2405.00,0.0003
2404.00,0.0003
2403.00,0.0003
2402.00,0.0003
2401.00,0.0004
2400.00,0.0003
2399.00,0.0003
2398.00,0.0003
2397.00,0.0003
2396.00,0.0003
2395.00,0.0003
2394.00,0.0003
2393.00,0.0003
2392.00,0.0003
2391.00,0.0004
2390.00,0.0004
2389.00,0.0003
2388.00,0.0003
2387.00,0.0003
2386.00,0.0003
2385.00,0.0003
2384.00,0.0003
2383.00,0.0003
2382.00,0.0003
2381.00,0.0003
2380.00,0.0003
2379.00,0.0003
2378.00,0.0003
2377.00,0.0003
2376.00,0.0003
2375.00,0.0003
2374.00,0.0003
2373.00,0.0002
2372.00,0.0002
2371.00,0.0002
2370.00,0.0002
2369.00,0.0003
2368.00,0.0003
2367.00,0.0003
2366.00,0.0003
2365.00,0.0004
2364.00,0.0004
2363.00,0.0005
2362.00,0.0005
2361.00,0.0006
2360.00,0.0006
2359.00,0.0006
2358.00,0.0006
2357.00,0.0005
2356.00,0.0004
2355.00,0.0003
2354.00,0.0003
2353.00,0.0003
2352.00,0.0004
2351.00,0.0005
2350.00,0.0006
2349.00,0.0006
2348.00,0.0006
2347.00,0.0006
2346.00,0.0007
2345.00,0.0007
2344.00,0.0008
2343.00,0.0008
2342.00,0.0008
2341.00,0.0008
2340.00,0.0008
2339.00,0.0008
2338.00,0.0009
2337.00,0.0009
2336.00,0.0009
2335.00,0.0009
2334.00,0.0008
2333.00,0.0008
2332.00,0.0007
2331.00,0.0007
2330.00,0.0008
2329.00,0.0010
2328.00,0.0012
2327.00,0.0015
2326.00,0.0017
2325.00,0.0018
2324.00,0.0017
2323.00,0.0015
2322.00,0.0014
2321.00,0.0012
2320.00,0.0012
2319.00,0.0012
2318.00,0.0012
2317.00,0.0012
2316.00,0.0012
2315.00,0.0012
2314.00,0.0012
2313.00,0.0012
2312.00,0.0012
2311.00,0.0011
2310.00,0.0011
2309.00,0.0011
2308.00,0.0011
2307.00,0.0011
2306.00,0.0011
2305.00,0.0010
2304.00,0.0010
2303.00,0.0009
2302.00,0.0009
2301.00,0.0009
2300.00,0.0009
2299.00,0.0009
2298.00,0.0010
2297.00,0.0010
2296.00,0.0011
2295.00,0.0011
2294.00,0.0012
2293.00,0.0013
2292.00,0.0014
2291.00,0.0014
2290.00,0.0015
2289.00,0.0015
2288.00,0.0015
2287.00,0.0015
2286.00,0.0014
2285.00,0.0013
2284.00,0.0013
2283.00,0.0012
2282.00,0.0012
2281.00,0.0011
2280.00,0.0011
2279.00,0.0010
2278.00,0.0010
2277.00,0.0009
2276.00,0.0009
2275.00,0.0009
2274.00,0.0009
2273.00,0.0009
2272.00,0.0009
2271.00,0.0009
2270.00,0.0008
2269.00,0.0008
2268.00,0.0008
2267.00,0.0008
2266.00,0.0007
2265.00,0.0007
2264.00,0.0006
2263.00,0.0007
2262.00,0.0007
2261.00,0.0008
2260.00,0.0008
2259.00,0.0008
2258.00,0.0007
2257.00,0.0007
2256.00,0.0007
2255.00,0.0006
2254.00,0.0006
2253.00,0.0007
2252.00,0.0007
2251.00,0.0008
2250.00,0.0008
2249.00,0.0008
2248.00,0.0008
2247.00,0.0008
2246.00,0.0007
2245.00,0.0007
2244.00,0.0006
2243.00,0.0007
2242.00,0.0007
2241.00,0.0007
2240.00,0.0007
2239.00,0.0007
2238.00,0.0007
2237.00,0.0007
2236.00,0.0007
2235.00,0.0006
2234.00,0.0006
2233.00,0.0006
2232.00,0.0005
2231.00,0.0005
2230.00,0.0006
2229.00,0.0006
2228.00,0.0007
2227.00,0.0007
2226.00,0.0006
2225.00,0.0006
2224.00,0.0006
2223.00,0.0005
2222.00,0.0005
2221.00,0.0004
2220.00,0.0004
2219.00,0.0004
2218.00,0.0004
2217.00,0.0004
2216.00,0.0004
2215.00,0.0004
2214.00,0.0006
2213.00,0.0007
2212.00,0.0007
2211.00,0.0008
2210.00,0.0007
2209.00,0.0007
2208.00,0.0006
2207.00,0.0005
2206.00,0.0005
2205.00,0.0006
2204.00,0.0007
2203.00,0.0008
2202.00,0.0008
2201.00,0.0007
2200.00,0.0006
2199.00,0.0006
2198.00,0.0006
2197.00,0.0006
2196.00,0.0007
2195.00,0.0007
2194.00,0.0007
2193.00,0.0008
2192.00,0.0008
2191.00,0.0009
2190.00,0.0009
2189.00,0.0009
2188.00,0.0009
2187.00,0.0008
2186.00,0.0006
2185.00,0.0005
2184.00,0.0003
2183.00,0.0001
2182.00,0.0000
2181.00,-0.0000
2180.00,-0.0000
2179.00,-0.0000
2178.00,-0.0000
2177.00,0.0000
2176.00,0.0001
2175.00,0.0002
2174.00,0.0003
2173.00,0.0005
2172.00,0.0006
2171.00,0.0008
2170.00,0.0010
2169.00,0.0012
2168.00,0.0014
2167.00,0.0015
2166.00,0.0015
2165.00,0.0015
2164.00,0.0014
2163.00,0.0014
2162.00,0.0010
2161.00,0.0003
2160.00,-0.0006
2159.00,-0.0014
2158.00,-0.0018
2157.00,-0.0018
2156.00,-0.0016
2155.00,-0.0015
2154.00,-0.0013
2153.00,-0.0012
2152.00,-0.0010
2151.00,-0.0009
2150.00,-0.0008
2149.00,-0.0009
2148.00,-0.0009
2147.00,-0.0010
2146.00,-0.0010
2145.00,-0.0010
2144.00,-0.0010
2143.00,-0.0010
2142.00,-0.0010
2141.00,-0.0009
2140.00,-0.0009
2139.00,-0.0009
2138.00,-0.0010
2137.00,-0.0012
2136.00,-0.0014
2135.00,-0.0015
2134.00,-0.0015
2133.00,-0.0014
2132.00,-0.0012
2131.00,-0.0011
2130.00,-0.0009
2129.00,-0.0008
2128.00,-0.0007
2127.00,-0.0007
2126.00,-0.0007
2125.00,-0.0006
2124.00,-0.0005
2123.00,-0.0003
2122.00,-0.0003
2121.00,-0.0002
2120.00,-0.0001
2119.00,-0.0000
2118.00,0.0000
2117.00,0.0001
2116.00,0.0002
2115.00,0.0002
2114.00,0.0002
2113.00,0.0002
2112.00,0.0002
2111.00,0.0002
2110.00,0.0002
2109.00,0.0003
2108.00,0.0003
2107.00,0.0003
2106.00,0.0003
2105.00,0.0002
2104.00,0.0002
2103.00,0.0002
2102.00,0.0002
2101.00,0.0002
2100.00,0.0002
2099.00,0.0001
2098.00,-0.0000
2097.00,-0.0001
2096.00,-0.0002
2095.00,-0.0003
2094.00,-0.0002
2093.00,-0.0001
2092.00,0.0001
2091.00,0.0002
2090.00,0.0002
2089.00,0.0003
2088.00,0.0003
2087.00,0.0003
2086.00,0.0004
2085.00,0.0005
2084.00,0.0005
2083.00,0.0006
2082.00,0.0006
2081.00,0.0006
2080.00,0.0005
2079.00,0.0005
2078.00,0.0005
2077.00,0.0004
2076.00,0.0004
2075.00,0.0005
2074.00,0.0004
2073.00,0.0004
2072.00,0.0004
2071.00,0.0003
2070.00,0.0003
2069.00,0.0003
2068.00,0.0003
2067.00,0.0003
2066.00,0.0004
2065.00,0.0005
2064.00,0.0005
2063.00,0.0005
2062.00,0.0004
2061.00,0.0004
2060.00,0.0003
2059.00,0.0002
2058.00,0.0002
2057.00,0.0002
2056.00,0.0003
2055.00,0.0005
2054.00,0.0007
2053.00,0.0010
2052.00,0.0012
2051.00,0.0012
2050.00,0.0010
2049.00,0.0008
2048.00,0.0007
2047.00,0.0007
2046.00,0.0006
2045.00,0.0005
2044.00,0.0004
2043.00,0.0005
2042.00,0.0006
2041.00,0.0007
2040.00,0.0009
2039.00,0.0009
2038.00,0.0009
2037.00,0.0007
2036.00,0.0006
2035.00,0.0004
2034.00,0.0003
2033.00,0.0002
2032.00,0.0001
2031.00,0.0000
2030.00,0.0000
2029.00,0.0000
2028.00,-0.0000
2027.00,-0.0001
2026.00,-0.0002
2025.00,-0.0003
2024.00,-0.0003
2023.00,-0.0004
2022.00,-0.0004
2021.00,-0.0006
2020.00,-0.0007
2019.00,-0.0008
2018.00,-0.0008
2017.00,-0.0007
2016.00,-0.0007
2015.00,-0.0008
2014.00,-0.0012
2013.00,-0.0018
2012.00,-0.0024
2011.00,-0.0023
2010.00,-0.0018
2009.00,-0.0011
2008.00,-0.0008
2007.00,-0.0008
2006.00,-0.0009
2005.00,-0.0009
2004.00,-0.0007
2003.00,-0.0006
2002.00,-0.0006
2001.00,-0.0005
2000.00,-0.0004
1999.00,-0.0003
1998.00,-0.0002
1997.00,-0.0001
1996.00,0.0001
1995.00,0.0003
1994.00,0.0003
1993.00,0.0002
1992.00,0.0001
1991.00,0.0001
1990.00,0.0002
1989.00,0.0004
1988.00,0.0007
1987.00,0.0008
1986.00,0.0007
1985.00,0.0007
1984.00,0.0007
1983.00,0.0009
1982.00,0.0012
1981.00,0.0014
1980.00,0.0014
1979.00,0.0012
1978.00,0.0008
1977.00,0.0005
1976.00,0.0004
1975.00,0.0003
1974.00,0.0001
1973.00,-0.0001
1972.00,-0.0002
1971.00,-0.0001
1970.00,-0.0000
1969.00,0.0001
1968.00,0.0001
1967.00,0.0001
1966.00,0.0002
1965.00,0.0003
1964.00,0.0004
1963.00,0.0003
1962.00,0.0002
1961.00,0.0001
1960.00,0.0001
1959.00,0.0002
1958.00,0.0004
1957.00,0.0006
1956.00,0.0008
1955.00,0.0008
1954.00,0.0008
1953.00,0.0007
1952.00,0.0007
1951.00,0.0007
1950.00,0.0008
1949.00,0.0009
1948.00,0.0010
1947.00,0.0011
1946.00,0.0013
1945.00,0.0014
1944.00,0.0015
1943.00,0.0014
1942.00,0.0013
1941.00,0.0012
1940.00,0.0011
1939.00,0.0010
1938.00,0.0010
1937.00,0.0009
1936.00,0.0009
1935.00,0.0009
1934.00,0.0008
1933.00,0.0007
1932.00,0.0006
1931.00,0.0005
1930.00,0.0005
1929.00,0.0004
1928.00,0.0003
1927.00,0.0003
1926.00,0.0002
1925.00,0.0002
1924.00,0.0002
1923.00,0.0003
1922.00,0.0003
1921.00,0.0002
1920.00,0.0002
1919.00,0.0002
1918.00,0.0003
1917.00,0.0003
1916.00,0.0003
1915.00,0.0003
1914.00,0.0002
1913.00,0.0002
1912.00,0.0002
1911.00,0.0002
1910.00,0.0002
1909.00,0.0002
1908.00,0.0001
1907.00,0.0001
1906.00,0.0001
1905.00,0.0001
1904.00,0.0001
1903.00,0.0001
1902.00,0.0001
1901.00,0.0001
1900.00,0.0002
1899.00,0.0003
1898.00,0.0003
1897.00,0.0003
1896.00,0.0004
1895.00,0.0004
1894.00,0.0005
1893.00,0.0005
1892.00,0.0006
1891.00,0.0006
1890.00,0.0007
1889.00,0.0007
1888.00,0.0008
1887.00,0.0008
1886.00,0.0008
1885.00,0.0008
1884.00,0.0009
1883.00,0.0010
1882.00,0.0011
1881.00,0.0011
1880.00,0.0011
1879.00,0.0012
1878.00,0.0012
1877.00,0.0012
1876.00,0.0012
1875.00,0.0012
1874.00,0.0012
1873.00,0.0013
1872.00,0.0013
1871.00,0.0014
1870.00,0.0014
1869.00,0.0014
1868.00,0.0014
1867.00,0.0014
1866.00,0.0013
1865.00,0.0012
1864.00,0.0012
1863.00,0.0011
1862.00,0.0010
1861.00,0.0009
1860.00,0.0008
1859.00,0.0008
1858.00,0.0008
1857.00,0.0007
1856.00,0.0007
1855.00,0.0007
1854.00,0.0006
1853.00,0.0006
1852.00,0.0005
1851.00,0.0004
1850.00,0.0004
1849.00,0.0004
1848.00,0.0004
1847.00,0.0004
1846.00,0.0003
1845.00,0.0003
1844.00,0.0004
1843.00,0.0004
1842.00,0.0004
1841.00,0.0004
1840.00,0.0003
1839.00,0.0003
1838.00,0.0003
1837.00,0.0003
1836.00,0.0003
1835.00,0.0004
1834.00,0.0004
1833.00,0.0004
1832.00,0.0005
1831.00,0.0005
1830.00,0.0005
1829.00,0.0006
1828.00,0.0006
1827.00,0.0007
1826.00,0.0007
1825.00,0.0008
1824.00,0.0009
1823.00,0.0009
1822.00,0.0009
1821.00,0.0009
1820.00,0.0009
1819.00,0.0009
1818.00,0.0009
1817.00,0.0009
1816.00,0.0010
1815.00,0.0011
1814.00,0.0012
1813.00,0.0013
1812.00,0.0014
1811.00,0.0015
1810.00,0.0015
1809.00,0.0016
1808.00,0.0017
1807.00,0.0017
1806.00,0.0018
1805.00,0.0018
1804.00,0.0019
1803.00,0.0019
1802.00,0.0019
1801.00,0.0019
1800.00,0.0019
1799.00,0.0019
1798.00,0.0019
1797.00,0.0018
1796.00,0.0018
1795.00,0.0017
1794.00,0.0016
1793.00,0.0015
1792.00,0.0015
1791.00,0.0014
1790.00,0.0014
1789.00,0.0014
1788.00,0.0014
1787.00,0.0014
1786.00,0.0014
1785.00,0.0013
1784.00,0.0013
1783.00,0.0013
1782.00,0.0014
1781.00,0.0014
1780.00,0.0015
1779.00,0.0015
1778.00,0.0015
1777.00,0.0015
1776.00,0.0015
1775.00,0.0015
1774.00,0.0015
1773.00,0.0016
1772.00,0.0017
1771.00,0.0017
1770.00,0.0018
1769.00,0.0018
1768.00,0.0019
1767.00,0.0019
1766.00,0.0019
1765.00,0.0019
1764.00,0.0020
1763.00,0.0021
1762.00,0.0022
1761.00,0.0023
1760.00,0.0024
1759.00,0.0025
1758.00,0.0026
1757.00,0.0028
1756.00,0.0030
1755.00,0.0033
1754.00,0.0035
1753.00,0.0038
1752.00,0.0040
1751.00,0.0043
1750.00,0.0045
1749.00,0.0047
1748.00,0.0049
1747.00,0.0051
1746.00,0.0053
1745.00,0.0054
1744.00,0.0056
1743.00,0.0057
1742.00,0.0057
1741.00,0.0058
1740.00,0.0058
1739.00,0.0058
1738.00,0.0057
1737.00,0.0058
1736.00,0.0058
1735.00,0.0057
1734.00,0.0056
1733.00,0.0054
1732.00,0.0052
1731.00,0.0051
1730.00,0.0050
1729.00,0.0049
1728.00,0.0048
1727.00,0.0047
1726.00,0.0046
1725.00,0.0045
1724.00,0.0045
1723.00,0.0044
1722.00,0.0043
1721.00,0.0042
1720.00,0.0042
1719.00,0.0042
1718.00,0.0042
1717.00,0.0041
1716.00,0.0039
1715.00,0.0038
1714.00,0.0038
1713.00,0.0038
1712.00,0.0038
1711.00,0.0038
1710.00,0.0037
1709.00,0.0037
1708.00,0.0037
1707.00,0.0037
1706.00,0.0037
1705.00,0.0037
1704.00,0.0037
1703.00,0.0037
1702.00,0.0037
1701.00,0.0037
1700.00,0.0037
1699.00,0.0037
1698.00,0.0037
1697.00,0.0037
1696.00,0.0037
1695.00,0.0038
1694.00,0.0039
1693.00,0.0039
1692.00,0.0040
1691.00,0.0042
1690.00,0.0043
1689.00,0.0044
1688.00,0.0045
1687.00,0.0046
1686.00,0.0047
1685.00,0.0047
1684.00,0.0048
1683.00,0.0048
1682.00,0.0048
1681.00,0.0049
1680.00,0.0050
1679.00,0.0050
1678.00,0.0051
1677.00,0.0051
1676.00,0.0052
1675.00,0.0052
1674.00,0.0052
1673.00,0.0053
1672.00,0.0053
1671.00,0.0053
1670.00,0.0054
1669.00,0.0054
1668.00,0.0054
1667.00,0.0054
1666.00,0.0054
1665.00,0.0054
1664.00,0.0055
1663.00,0.0055
1662.00,0.0054
1661.00,0.0054
1660.00,0.0054
1659.00,0.0054
1658.00,0.0054
1657.00,0.0054
1656.00,0.0055
1655.00,0.0054
1654.00,0.0053
1653.00,0.0052
1652.00,0.0050
1651.00,0.0049
1650.00,0.0049
1649.00,0.0049
1648.00,0.0049
1647.00,0.0049
1646.00,0.0048
1645.00,0.0047
1644.00,0.0047
1643.00,0.0047
1642.00,0.0047
1641.00,0.0046
1640.00,0.0045
1639.00,0.0045
1638.00,0.0044
1637.00,0.0043
1636.00,0.0043
1635.00,0.0042
1634.00,0.0042
1633.00,0.0042
1632.00,0.0042
1631.00,0.0042
1630.00,0.0042
1629.00,0.0042
1628.00,0.0042
1627.00,0.0042
1626.00,0.0042
1625.00,0.0041
1624.00,0.0041
1623.00,0.0041
1622.00,0.0041
1621.00,0.0041
1620.00,0.0041
1619.00,0.0041
1618.00,0.0042
1617.00,0.0042
1616.00,0.0042
1615.00,0.0042
1614.00,0.0043
1613.00,0.0044
1612.00,0.0046
1611.00,0.0049
1610.00,0.0053
1609.00,0.0057
1608.00,0.0064
1607.00,0.0073
1606.00,0.0083
1605.00,0.0095
1604.00,0.0107
1603.00,0.0119
1602.00,0.0127
1601.00,0.0131
1600.00,0.0129
1599.00,0.0123
1598.00,0.0112
1597.00,0.0101
1596.00,0.0089
1595.00,0.0079
1594.00,0.0071
1593.00,0.0065
1592.00,0.0061
1591.00,0.0057
1590.00,0.0054
1589.00,0.0052
1588.00,0.0052
1587.00,0.0053
1586.00,0.0056
1585.00,0.0060
1584.00,0.0063
1583.00,0.0064
1582.00,0.0063
1581.00,0.0059
1580.00,0.0054
1579.00,0.0049
1578.00,0.0044
1577.00,0.0040
1576.00,0.0037
1575.00,0.0035
1574.00,0.0033
1573.00,0.0032
1572.00,0.0031
1571.00,0.0031
1570.00,0.0030
1569.00,0.0029
1568.00,0.0029
1567.00,0.0029
1566.00,0.0029
1565.00,0.0029
1564.00,0.0029
1563.00,0.0029
1562.00,0.0029
1561.00,0.0028
1560.00,0.0028
1559.00,0.0028
1558.00,0.0028
1557.00,0.0029
1556.00,0.0029
1555.00,0.0030
1554.00,0.0031
1553.00,0.0032
1552.00,0.0033
1551.00,0.0034
1550.00,0.0034
1549.00,0.0035
1548.00,0.0035
1547.00,0.0036
1546.00,0.0037
1545.00,0.0037
1544.00,0.0038
1543.00,0.0037
1542.00,0.0037
1541.00,0.0037
1540.00,0.0036
1539.00,0.0035
1538.00,0.0035
1537.00,0.0035
1536.00,0.0035
1535.00,0.0034
1534.00,0.0034
1533.00,0.0034
1532.00,0.0033
1531.00,0.0032
1530.00,0.0032
1529.00,0.0032
1528.00,0.0031
1527.00,0.0031
1526.00,0.0031
1525.00,0.0030
1524.00,0.0030
1523.00,0.0030
1522.00,0.0030
1521.00,0.0030
1520.00,0.0030
1519.00,0.0030
1518.00,0.0030
1517.00,0.0031
1516.00,0.0031
1515.00,0.0031
1514.00,0.0031
1513.00,0.0031
1512.00,0.0032
1511.00,0.0032
1510.00,0.0032
1509.00,0.0033
1508.00,0.0033
1507.00,0.0033
1506.00,0.0034
1505.00,0.0035
1504.00,0.0038
1503.00,0.0041
1502.00,0.0045
1501.00,0.0051
1500.00,0.0060
1499.00,0.0073
1498.00,0.0094
1497.00,0.0125
1496.00,0.0166
1495.00,0.0212
1494.00,0.0253
1493.00,0.0281
1492.00,0.0289
1491.00,0.0271
1490.00,0.0232
1489.00,0.0188
1488.00,0.0150
1487.00,0.0122
1486.00,0.0102
1485.00,0.0088
1484.00,0.0077
1483.00,0.0068
1482.00,0.0061
1481.00,0.0056
1480.00,0.0052
1479.00,0.0050
1478.00,0.0048
1477.00,0.0047
1476.00,0.0046
1475.00,0.0046
1474.00,0.0045
1473.00,0.0045
1472.00,0.0045
1471.00,0.0046
1470.00,0.0048
1469.00,0.0049
1468.00,0.0051
1467.00,0.0053
1466.00,0.0054
1465.00,0.0056
1464.00,0.0057
1463.00,0.0060
1462.00,0.0063
1461.00,0.0067
1460.00,0.0073
1459.00,0.0082
1458.00,0.0098
1457.00,0.0126
1456.00,0.0163
1455.00,0.0204
1454.00,0.0242
1453.00,0.0274
1452.00,0.0292
1451.00,0.0294
1450.00,0.0282
1449.00,0.0262
1448.00,0.0239
1447.00,0.0219
1446.00,0.0202
1445.00,0.0188
1444.00,0.0176
1443.00,0.0163
1442.00,0.0152
1441.00,0.0141
1440.00,0.0133
1439.00,0.0125
1438.00,0.0116
1437.00,0.0106
1436.00,0.0095
1435.00,0.0086
1434.00,0.0080
1433.00,0.0075
1432.00,0.0070
1431.00,0.0066
1430.00,0.0062
1429.00,0.0059
1428.00,0.0056
1427.00,0.0054
1426.00,0.0053
1425.00,0.0052
1424.00,0.0051
1423.00,0.0050
1422.00,0.0050
1421.00,0.0050
1420.00,0.0049
1419.00,0.0049
1418.00,0.0049
1417.00,0.0048
1416.00,0.0048
1415.00,0.0048
1414.00,0.0048
1413.00,0.0048
1412.00,0.0047
1411.00,0.0047
1410.00,0.0047
1409.00,0.0047
1408.00,0.0047
1407.00,0.0047
1406.00,0.0047
1405.00,0.0048
1404.00,0.0048
1403.00,0.0048
1402.00,0.0048
1401.00,0.0048
1400.00,0.0049
1399.00,0.0049
1398.00,0.0049
1397.00,0.0049
1396.00,0.0050
1395.00,0.0051
1394.00,0.0052
1393.00,0.0053
1392.00,0.0054
1391.00,0.0056
1390.00,0.0058
1389.00,0.0060
1388.00,0.0062
1387.00,0.0064
1386.00,0.0065
1385.00,0.0067
1384.00,0.0069
1383.00,0.0071
1382.00,0.0073
1381.00,0.0075
1380.00,0.0077
1379.00,0.0079
1378.00,0.0080
1377.00,0.0082
1376.00,0.0084
1375.00,0.0085
1374.00,0.0085
1373.00,0.0085
1372.00,0.0085
1371.00,0.0085
1370.00,0.0085
1369.00,0.0085
1368.00,0.0084
1367.00,0.0084
1366.00,0.0084
1365.00,0.0084
1364.00,0.0084
1363.00,0.0083
1362.00,0.0082
1361.00,0.0081
1360.00,0.0079
1359.00,0.0078
1358.00,0.0078
1357.00,0.0077
1356.00,0.0076
1355.00,0.0076
1354.00,0.0075
1353.00,0.0075
1352.00,0.0075
1351.00,0.0075
1350.00,0.0074
1349.00,0.0073
1348.00,0.0073
1347.00,0.0072
1346.00,0.0071
1345.00,0.0071
1344.00,0.0070
1343.00,0.0070
1342.00,0.0069
1341.00,0.0069
1340.00,0.0068
1339.00,0.0067
1338.00,0.0066
1337.00,0.0066
1336.00,0.0067
1335.00,0.0068
1334.00,0.0069
1333.00,0.0071
1332.00,0.0072
1331.00,0.0074
1330.00,0.0075
1329.00,0.0076
1328.00,0.0076
1327.00,0.0076
1326.00,0.0075
1325.00,0.0075
1324.00,0.0074
1323.00,0.0073
1322.00,0.0073
1321.00,0.0072
1320.00,0.0072
1319.00,0.0072
1318.00,0.0072
1317.00,0.0072
1316.00,0.0072
1315.00,0.0073
1314.00,0.0073
1313.00,0.0073
1312.00,0.0073
1311.00,0.0073
1310.00,0.0073
1309.00,0.0072
1308.00,0.0071
1307.00,0.0070
1306.00,0.0069
1305.00,0.0068
1304.00,0.0067
1303.00,0.0066
1302.00,0.0065
1301.00,0.0064
1300.00,0.0064
1299.00,0.0063
1298.00,0.0063
1297.00,0.0064
1296.00,0.0064
1295.00,0.0064
1294.00,0.0064
1293.00,0.0064
1292.00,0.0063
1291.00,0.0063
1290.00,0.0063
1289.00,0.0062
1288.00,0.0062
1287.00,0.0062
1286.00,0.0061
1285.00,0.0061
1284.00,0.0061
1283.00,0.0060
1282.00,0.0060
1281.00,0.0059
1280.00,0.0059
1279.00,0.0059
1278.00,0.0059
1277.00,0.0058
1276.00,0.0057
1275.00,0.0057
1274.00,0.0056
1273.00,0.0055
1272.00,0.0055
1271.00,0.0054
1270.00,0.0054
1269.00,0.0053
1268.00,0.0053
1267.00,0.0053
1266.00,0.0052
1265.00,0.0052
1264.00,0.0051
1263.00,0.0051
1262.00,0.0051
1261.00,0.0051
1260.00,0.0051
1259.00,0.0051
1258.00,0.0051
1257.00,0.0051
1256.00,0.0051
1255.00,0.0051
1254.00,0.0052
1253.00,0.0052
1252.00,0.0052
1251.00,0.0052
1250.00,0.0053
1249.00,0.0053
1248.00,0.0053
1247.00,0.0054
1246.00,0.0054
1245.00,0.0054
1244.00,0.0054
1243.00,0.0054
1242.00,0.0054
1241.00,0.0054
1240.00,0.0054
1239.00,0.0054
1238.00,0.0054
1237.00,0.0055
1236.00,0.0055
1235.00,0.0055
1234.00,0.0055
1233.00,0.0055
1232.00,0.0055
1231.00,0.0055
1230.00,0.0055
1229.00,0.0056
1228.00,0.0056
1227.00,0.0056
1226.00,0.0056
1225.00,0.0056
1224.00,0.0056
1223.00,0.0056
1222.00,0.0056
1221.00,0.0056
1220.00,0.0056
1219.00,0.0056
1218.00,0.0055
1217.00,0.0056
1216.00,0.0056
1215.00,0.0056
1214.00,0.0056
1213.00,0.0056
1212.00,0.0057
1211.00,0.0057
1210.00,0.0057
1209.00,0.0058
1208.00,0.0059
1207.00,0.0060
1206.00,0.0061
1205.00,0.0062
1204.00,0.0063
1203.00,0.0064
1202.00,0.0065
1201.00,0.0066
1200.00,0.0068
1199.00,0.0069
1198.00,0.0069
1197.00,0.0070
1196.00,0.0070
1195.00,0.0071
1194.00,0.0071
1193.00,0.0071
1192.00,0.0072
1191.00,0.0072
1190.00,0.0072
1189.00,0.0073
1188.00,0.0074
1187.00,0.0076
1186.00,0.0079
1185.00,0.0082
1184.00,0.0085
1183.00,0.0088
1182.00,0.0091
1181.00,0.0092
1180.00,0.0091
1179.00,0.0089
1178.00,0.0085
1177.00,0.0081
1176.00,0.0077
1175.00,0.0074
1174.00,0.0072
1173.00,0.0070
1172.00,0.0069
1171.00,0.0068
1170.00,0.0067
1169.00,0.0067
1168.00,0.0067
1167.00,0.0067
1166.00,0.0067
1165.00,0.0067
1164.00,0.0067
1163.00,0.0067
1162.00,0.0068
1161.00,0.0070
1160.00,0.0073
1159.00,0.0076
1158.00,0.0081
1157.00,0.0085
1156.00,0.0089
1155.00,0.0091
1154.00,0.0091
1153.00,0.0089
1152.00,0.0085
1151.00,0.0080
1150.00,0.0075
1149.00,0.0070
1148.00,0.0067
1147.00,0.0064
1146.00,0.0061
1145.00,0.0059
1144.00,0.0058
1143.00,0.0056
1142.00,0.0054
1141.00,0.0053
1140.00,0.0052
1139.00,0.0051
1138.00,0.0051
1137.00,0.0050
1136.00,0.0050
1135.00,0.0049
1134.00,0.0049
1133.00,0.0048
1132.00,0.0048
1131.00,0.0048
1130.00,0.0048
1129.00,0.0048
1128.00,0.0048
1127.00,0.0048
1126.00,0.0048
1125.00,0.0049
1124.00,0.0049
1123.00,0.0050
1122.00,0.0051
1121.00,0.0052
1120.00,0.0053
1119.00,0.0054
1118.00,0.0056
1117.00,0.0057
1116.00,0.0058
1115.00,0.0058
1114.00,0.0059
1113.00,0.0059
1112.00,0.0060
1111.00,0.0060
1110.00,0.0060
1109.00,0.0060
1108.00,0.0060
1107.00,0.0060
1106.00,0.0060
1105.00,0.0060
1104.00,0.0060
1103.00,0.0061
1102.00,0.0061
1101.00,0.0061
1100.00,0.0061
1099.00,0.0062
1098.00,0.0062
1097.00,0.0063
1096.00,0.0063
1095.00,0.0064
1094.00,0.0065
1093.00,0.0065
1092.00,0.0066
1091.00,0.0067
1090.00,0.0068
1089.00,0.0069
1088.00,0.0070
1087.00,0.0072
1086.00,0.0073
1085.00,0.0074
1084.00,0.0075
1083.00,0.0076
1082.00,0.0078
1081.00,0.0080
1080.00,0.0082
1079.00,0.0084
1078.00,0.0086
1077.00,0.0089
1076.00,0.0092
1075.00,0.0095
1074.00,0.0100
1073.00,0.0104
1072.00,0.0107
1071.00,0.0110
1070.00,0.0112
1069.00,0.0113
1068.00,0.0113
1067.00,0.0111
1066.00,0.0108
1065.00,0.0105
1064.00,0.0102
1063.00,0.0098
1062.00,0.0095
1061.00,0.0092
1060.00,0.0089
1059.00,0.0086
1058.00,0.0084
1057.00,0.0082
1056.00,0.0080
1055.00,0.0078
1054.00,0.0076
1053.00,0.0075
1052.00,0.0073
1051.00,0.0072
1050.00,0.0071
1049.00,0.0070
1048.00,0.0068
1047.00,0.0068
1046.00,0.0067
1045.00,0.0067
1044.00,0.0067
1043.00,0.0066
1042.00,0.0066
1041.00,0.0066
1040.00,0.0066
1039.00,0.0068
1038.00,0.0072
1037.00,0.0077
1036.00,0.0084
1035.00,0.0093
1034.00,0.0105
1033.00,0.0119
1032.00,0.0134
1031.00,0.0148
1030.00,0.0159
1029.00,0.0167
1028.00,0.0170
1027.00,0.0167
1026.00,0.0160
1025.00,0.0151
1024.00,0.0140
1023.00,0.0130
1022.00,0.0122
1021.00,0.0115
1020.00,0.0109
1019.00,0.0103
1018.00,0.0098
1017.00,0.0094
1016.00,0.0090
1015.00,0.0087
1014.00,0.0084
1013.00,0.0082
1012.00,0.0079
1011.00,0.0077
1010.00,0.0077
1009.00,0.0077
1008.00,0.0077
1007.00,0.0078
1006.00,0.0079
1005.00,0.0079
1004.00,0.0080
1003.00,0.0081
1002.00,0.0080
1001.00,0.0077
1000.00,0.0073
999.00,0.0069
998.00,0.0066
997.00,0.0064
996.00,0.0063
995.00,0.0062
994.00,0.0062
993.00,0.0061
992.00,0.0061
991.00,0.0062
990.00,0.0062
989.00,0.0063
988.00,0.0064
987.00,0.0065
986.00,0.0066
985.00,0.0067
984.00,0.0069
983.00,0.0071
982.00,0.0072
981.00,0.0073
980.00,0.0074
979.00,0.0074
978.00,0.0072
977.00,0.0071
976.00,0.0069
975.00,0.0068
974.00,0.0067
973.00,0.0067
972.00,0.0067
971.00,0.0068
970.00,0.0070
969.00,0.0072
968.00,0.0074
967.00,0.0076
966.00,0.0077
965.00,0.0078
964.00,0.0077
963.00,0.0076
962.00,0.0075
961.00,0.0073
960.00,0.0070
959.00,0.0068
958.00,0.0065
957.00,0.0063
956.00,0.0061
955.00,0.0060
954.00,0.0059
953.00,0.0059
952.00,0.0059
951.00,0.0059
950.00,0.0059
949.00,0.0059
948.00,0.0060
947.00,0.0061
946.00,0.0062
945.00,0.0063
944.00,0.0064
943.00,0.0065
942.00,0.0064
941.00,0.0064
940.00,0.0062
939.00,0.0061
938.00,0.0059
937.00,0.0058
936.00,0.0056
935.00,0.0054
934.00,0.0053
933.00,0.0051
932.00,0.0050
931.00,0.0050
930.00,0.0049
929.00,0.0049
928.00,0.0049
927.00,0.0049
926.00,0.0049
925.00,0.0049
924.00,0.0050
923.00,0.0050
922.00,0.0051
921.00,0.0052
920.00,0.0053
919.00,0.0055
918.00,0.0057
917.00,0.0060
916.00,0.0064
915.00,0.0069
914.00,0.0075
913.00,0.0081
912.00,0.0087
911.00,0.0093
910.00,0.0099
909.00,0.0105
908.00,0.0110
907.00,0.0113
906.00,0.0114
905.00,0.0112
904.00,0.0108
903.00,0.0102
902.00,0.0095
901.00,0.0088
900.00,0.0080
899.00,0.0073
898.00,0.0067
897.00,0.0061
896.00,0.0057
895.00,0.0054
894.00,0.0051
893.00,0.0049
892.00,0.0047
891.00,0.0046
890.00,0.0045
889.00,0.0044
888.00,0.0043
887.00,0.0042
886.00,0.0041
885.00,0.0040
884.00,0.0040
883.00,0.0039
882.00,0.0039
881.00,0.0039
880.00,0.0038
879.00,0.0037
878.00,0.0036
877.00,0.0036
876.00,0.0035
875.00,0.0035
874.00,0.0036
873.00,0.0036
872.00,0.0036
871.00,0.0035
870.00,0.0035
869.00,0.0035
868.00,0.0034
867.00,0.0034
866.00,0.0034
865.00,0.0035
864.00,0.0035
863.00,0.0035
862.00,0.0035
861.00,0.0035
860.00,0.0035
859.00,0.0035
858.00,0.0036
857.00,0.0036
856.00,0.0036
855.00,0.0037
854.00,0.0038
853.00,0.0038
852.00,0.0040
851.00,0.0041
850.00,0.0043
849.00,0.0046
848.00,0.0049
847.00,0.0052
846.00,0.0054
845.00,0.0057
844.00,0.0060
843.00,0.0061
842.00,0.0062
841.00,0.0062
840.00,0.0061
839.00,0.0059
838.00,0.0057
837.00,0.0054
836.00,0.0051
835.00,0.0047
834.00,0.0043
833.00,0.0040
832.00,0.0038
831.00,0.0037
830.00,0.0037
829.00,0.0037
828.00,0.0036
827.00,0.0036
826.00,0.0035
825.00,0.0034
824.00,0.0033
823.00,0.0033
822.00,0.0032
821.00,0.0032
820.00,0.0032
819.00,0.0032
818.00,0.0032
817.00,0.0033
816.00,0.0033
815.00,0.0033
814.00,0.0033
813.00,0.0033
812.00,0.0034
811.00,0.0034
810.00,0.0034
809.00,0.0034
808.00,0.0034
807.00,0.0034
806.00,0.0034
805.00,0.0034
804.00,0.0035
803.00,0.0035
802.00,0.0036
801.00,0.0038
800.00,0.0039
799.00,0.0040
798.00,0.0041
797.00,0.0042
796.00,0.0044
795.00,0.0045
794.00,0.0046
793.00,0.0048
792.00,0.0050
791.00,0.0053
790.00,0.0056
789.00,0.0059
788.00,0.0063
787.00,0.0066
786.00,0.0070
785.00,0.0074
784.00,0.0078
783.00,0.0083
782.00,0.0088
781.00,0.0094
780.00,0.0100
779.00,0.0108
778.00,0.0116
777.00,0.0125
776.00,0.0136
775.00,0.0147
774.00,0.0160
773.00,0.0174
772.00,0.0189
771.00,0.0205
770.00,0.0221
769.00,0.0239
768.00,0.0256
767.00,0.0272
766.00,0.0288
765.00,0.0303
764.00,0.0318
763.00,0.0333
762.00,0.0348
761.00,0.0364
760.00,0.0380
759.00,0.0395
758.00,0.0408
757.00,0.0418
756.00,0.0425
755.00,0.0429
754.00,0.0429
753.00,0.0428
752.00,0.0426
751.00,0.0425
750.00,0.0424
749.00,0.0424
748.00,0.0422
747.00,0.0416
746.00,0.0406
745.00,0.0390
744.00,0.0369
743.00,0.0343
742.00,0.0315
741.00,0.0287
740.00,0.0260
739.00,0.0235
738.00,0.0212
737.00,0.0191
736.00,0.0171
735.00,0.0152
734.00,0.0134
733.00,0.0117
732.00,0.0103
731.00,0.0092
730.00,0.0083
729.00,0.0076
728.00,0.0071
727.00,0.0068
726.00,0.0065
725.00,0.0062
724.00,0.0061
723.00,0.0060
722.00,0.0060
721.00,0.0061
720.00,0.0061
719.00,0.0062
718.00,0.0063
717.00,0.0065
716.00,0.0068
715.00,0.0073
714.00,0.0080
713.00,0.0089
712.00,0.0102
711.00,0.0121
710.00,0.0145
709.00,0.0177
708.00,0.0219
707.00,0.0269
706.00,0.0328
705.00,0.0395
704.00,0.0468
703.00,0.0547
702.00,0.0631
701.00,0.0717
700.00,0.0805
699.00,0.0893
698.00,0.0977
697.00,0.1052
696.00,0.1109
695.00,0.1138
694.00,0.1127
693.00,0.1074
692.00,0.0987
691.00,0.0881
690.00,0.0772
689.00,0.0672
688.00,0.0586
687.00,0.0516
686.00,0.0460
685.00,0.0415
684.00,0.0378
683.00,0.0347
682.00,0.0320
681.00,0.0297
680.00,0.0277
679.00,0.0260
678.00,0.0246
677.00,0.0233
676.00,0.0223
675.00,0.0214
674.00,0.0207
673.00,0.0200
672.00,0.0194
671.00,0.0188
670.00,0.0182
669.00,0.0175
668.00,0.0166
667.00,0.0159
666.00,0.0154
665.00,0.0150
664.00,0.0145
663.00,0.0140
662.00,0.0134
661.00,0.0129
660.00,0.0124
659.00,0.0119
658.00,0.0115
657.00,0.0110
656.00,0.0106
655.00,0.0103
654.00,0.0099
653.00,0.0097
652.00,0.0095
651.00,0.0093
650.00,0.0091
649.00,0.0088
648.00,0.0086
647.00,0.0083
646.00,0.0080
645.00,0.0078
644.00,0.0077
643.00,0.0076
642.00,0.0076
641.00,0.0076
640.00,0.0077
639.00,0.0077
638.00,0.0078
637.00,0.0080
636.00,0.0082
635.00,0.0083
634.00,0.0084
633.00,0.0085
632.00,0.0087
631.00,0.0089
630.00,0.0090
629.00,0.0092
628.00,0.0092
627.00,0.0093
626.00,0.0093
625.00,0.0094
624.00,0.0096
623.00,0.0098
622.00,0.0100
621.00,0.0101
620.00,0.0101
619.00,0.0099
618.00,0.0097
617.00,0.0094
616.00,0.0092
615.00,0.0090
614.00,0.0088
613.00,0.0086
612.00,0.0084
611.00,0.0082
610.00,0.0080
609.00,0.0079
608.00,0.0080
607.00,0.0080
606.00,0.0081
605.00,0.0082
604.00,0.0082
603.00,0.0082
602.00,0.0082
601.00,0.0082
600.00,0.0082
599.00,0.0083
598.00,0.0084
597.00,0.0085
596.00,0.0087
595.00,0.0088
594.00,0.0090
593.00,0.0091
592.00,0.0092
591.00,0.0094
590.00,0.0094
589.00,0.0095
588.00,0.0096
587.00,0.0097
586.00,0.0098
585.00,0.0100
584.00,0.0102
583.00,0.0104
582.00,0.0108
581.00,0.0112
580.00,0.0116
579.00,0.0121
578.00,0.0124
577.00,0.0128
576.00,0.0133
575.00,0.0139
574.00,0.0145
573.00,0.0152
572.00,0.0158
571.00,0.0165
570.00,0.0171
569.00,0.0175
568.00,0.0179
567.00,0.0183
566.00,0.0188
565.00,0.0194
564.00,0.0200
563.00,0.0206
562.00,0.0213
561.00,0.0219
560.00,0.0225
559.00,0.0229
558.00,0.0233
557.00,0.0238
556.00,0.0243
555.00,0.0249
554.00,0.0257
553.00,0.0266
552.00,0.0275
551.00,0.0283
550.00,0.0291
549.00,0.0300
548.00,0.0310
547.00,0.0321
546.00,0.0332
545.00,0.0344
544.00,0.0357
543.00,0.0370
542.00,0.0384
541.00,0.0397
540.00,0.0407
539.00,0.0413
538.00,0.0414
537.00,0.0413
536.00,0.0407
535.00,0.0397
534.00,0.0382
533.00,0.0364
532.00,0.0345
531.00,0.0326
530.00,0.0308
529.00,0.0289
528.00,0.0271
527.00,0.0252
526.00,0.0234
525.00,0.0218
524.00,0.0207
523.00,0.0197
522.00,0.0190
521.00,0.0182
520.00,0.0175
519.00,0.0168
518.00,0.0163
517.00,0.0158
516.00,0.0153
515.00,0.0148
514.00,0.0143
513.00,0.0140
512.00,0.0137
511.00,0.0134
510.00,0.0131
509.00,0.0127
508.00,0.0123
507.00,0.0119
506.00,0.0115
505.00,0.0112
504.00,0.0109
503.00,0.0107
502.00,0.0105
501.00,0.0103
500.00,0.0100
499.00,0.0098
498.00,0.0096
497.00,0.0095
496.00,0.0095
495.00,0.0093
494.00,0.0091
493.00,0.0090
492.00,0.0088
491.00,0.0087
490.00,0.0085
489.00,0.0083
488.00,0.0083
487.00,0.0083
486.00,0.0083
485.00,0.0084
484.00,0.0083
483.00,0.0081
482.00,0.0079
481.00,0.0079
480.00,0.0079
479.00,0.0079
478.00,0.0078
477.00,0.0076
476.00,0.0075
475.00,0.0076
474.00,0.0075
473.00,0.0073
472.00,0.0070
471.00,0.0067
470.00,0.0067
469.00,0.0069
468.00,0.0071
467.00,0.0072
466.00,0.0073
465.00,0.0073
464.00,0.0073
463.00,0.0073
462.00,0.0072
461.00,0.0072
460.00,0.0073
459.00,0.0073
458.00,0.0072
457.00,0.0070
456.00,0.0069
455.00,0.0067
454.00,0.0067
453.00,0.0066
452.00,0.0066
451.00,0.0066
450.00,0.0068
449.00,0.0070
448.00,0.0072
447.00,0.0072
446.00,0.0069
445.00,0.0066
444.00,0.0065
443.00,0.0065
442.00,0.0066
441.00,0.0068
440.00,0.0069
439.00,0.0069
438.00,0.0068
437.00,0.0066
436.00,0.0064
435.00,0.0061
434.00,0.0060
433.00,0.0060
432.00,0.0060
431.00,0.0061
430.00,0.0060
429.00,0.0057
428.00,0.0055
427.00,0.0053
426.00,0.0053
425.00,0.0053
424.00,0.0052
423.00,0.0051
422.00,0.0050
421.00,0.0050
420.00,0.0051
419.00,0.0053
418.00,0.0057
417.00,0.0060
416.00,0.0060
415.00,0.0060
414.00,0.0062
413.00,0.0066
412.00,0.0069
411.00,0.0069
410.00,0.0067
409.00,0.0065
408.00,0.0064
407.00,0.0065
406.00,0.0067
405.00,0.0067
404.00,0.0064
403.00,0.0057
402.00,0.0050
401.00,0.0045
400.00,0.0044
