Created as New Dataset,Sample 517 By YargerLab Date Monday, May 19 2025
cm-1,A
4000.00,-0.0085
3999.00,-0.0085
3998.00,-0.0086
3997.00,-0.0086
3996.00,-0.0086
3995.00,-0.0086
3994.00,-0.0086
3993.00,-0.0086
3992.00,-0.0086
3991.00,-0.0087
3990.00,-0.0087
3989.00,-0.0087
3988.00,-0.0087
3987.00,-0.0087
3986.00,-0.0087
3985.00,-0.0087
3984.00,-0.0087
3983.00,-0.0087
3982.00,-0.0088
3981.00,-0.0087
3980.00,-0.0087
3979.00,-0.0087
3978.00,-0.0088
3977.00,-0.0088
3976.00,-0.0088
3975.00,-0.0088
3974.00,-0.0088
3973.00,-0.0088
3972.00,-0.0088
3971.00,-0.0088
3970.00,-0.0088
3969.00,-0.0088
3968.00,-0.0088
3967.00,-0.0088
3966.00,-0.0088
3965.00,-0.0088
3964.00,-0.0088
3963.00,-0.0088
3962.00,-0.0088
3961.00,-0.0088
3960.00,-0.0088
3959.00,-0.0088
3958.00,-0.0088
3957.00,-0.0088
3956.00,-0.0088
3955.00,-0.0088
3954.00,-0.0088
3953.00,-0.0088
3952.00,-0.0088
3951.00,-0.0088
3950.00,-0.0088
3949.00,-0.0088
3948.00,-0.0088
3947.00,-0.0088
3946.00,-0.0088
3945.00,-0.0089
3944.00,-0.0089
3943.00,-0.0089
3942.00,-0.0089
3941.00,-0.0089
3940.00,-0.0089
3939.00,-0.0089
3938.00,-0.0089
3937.00,-0.0089
3936.00,-0.0089
3935.00,-0.0089
3934.00,-0.0089
3933.00,-0.0089
3932.00,-0.0089
3931.00,-0.0089
3930.00,-0.0089
3929.00,-0.0089
3928.00,-0.0089
3927.00,-0.0089
3926.00,-0.0089
3925.00,-0.0089
3924.00,-0.0089
3923.00,-0.0089
3922.00,-0.0089
3921.00,-0.0089
3920.00,-0.0089
3919.00,-0.0089
3918.00,-0.0089
3917.00,-0.0089
3916.00,-0.0090
3915.00,-0.0089
3914.00,-0.0089
3913.00,-0.0089
3912.00,-0.0089
3911.00,-0.0089
3910.00,-0.0089
3909.00,-0.0089
3908.00,-0.0088
3907.00,-0.0088
3906.00,-0.0088
3905.00,-0.0088
3904.00,-0.0088
3903.00,-0.0088
3902.00,-0.0088
3901.00,-0.0088
3900.00,-0.0089
3899.00,-0.0089
3898.00,-0.0089
3897.00,-0.0089
3896.00,-0.0089
3895.00,-0.0089
3894.00,-0.0089
3893.00,-0.0090
3892.00,-0.0090
3891.00,-0.0090
3890.00,-0.0089
3889.00,-0.0089
3888.00,-0.0089
3887.00,-0.0090
3886.00,-0.0090
3885.00,-0.0090
3884.00,-0.0089
3883.00,-0.0089
3882.00,-0.0090
3881.00,-0.0091
3880.00,-0.0091
3879.00,-0.0090
3878.00,-0.0090
3877.00,-0.0090
3876.00,-0.0091
3875.00,-0.0091
3874.00,-0.0091
3873.00,-0.0090
3872.00,-0.0089
3871.00,-0.0090
3870.00,-0.0090
3869.00,-0.0090
3868.00,-0.0090
3867.00,-0.0090
3866.00,-0.0091
3865.00,-0.0091
3864.00,-0.0091
3863.00,-0.0091
3862.00,-0.0091
3861.00,-0.0091
3860.00,-0.0091
3859.00,-0.0091
3858.00,-0.0090
3857.00,-0.0089
3856.00,-0.0088
3855.00,-0.0088
3854.00,-0.0089
3853.00,-0.0090
3852.00,-0.0089
3851.00,-0.0089
3850.00,-0.0091
3849.00,-0.0093
3848.00,-0.0093
3847.00,-0.0093
3846.00,-0.0093
3845.00,-0.0092
3844.00,-0.0092
3843.00,-0.0092
3842.00,-0.0091
3841.00,-0.0091
3840.00,-0.0091
3839.00,-0.0091
3838.00,-0.0091
3837.00,-0.0091
3836.00,-0.0092
3835.00,-0.0092
3834.00,-0.0092
3833.00,-0.0093
3832.00,-0.0093
3831.00,-0.0093
3830.00,-0.0092
3829.00,-0.0092
3828.00,-0.0093
3827.00,-0.0093
3826.00,-0.0093
3825.00,-0.0092
3824.00,-0.0091
3823.00,-0.0091
3822.00,-0.0092
3821.00,-0.0092
3820.00,-0.0092
3819.00,-0.0091
3818.00,-0.0092
3817.00,-0.0093
3816.00,-0.0094
3815.00,-0.0094
3814.00,-0.0093
3813.00,-0.0094
3812.00,-0.0094
3811.00,-0.0094
3810.00,-0.0094
3809.00,-0.0094
3808.00,-0.0094
3807.00,-0.0094
3806.00,-0.0094
3805.00,-0.0093
3804.00,-0.0092
3803.00,-0.0093
3802.00,-0.0094
3801.00,-0.0094
3800.00,-0.0093
3799.00,-0.0093
3798.00,-0.0094
3797.00,-0.0095
3796.00,-0.0096
3795.00,-0.0096
3794.00,-0.0096
3793.00,-0.0096
3792.00,-0.0097
3791.00,-0.0097
3790.00,-0.0097
3789.00,-0.0097
3788.00,-0.0097
3787.00,-0.0097
3786.00,-0.0097
3785.00,-0.0097
3784.00,-0.0098
3783.00,-0.0098
3782.00,-0.0098
3781.00,-0.0098
3780.00,-0.0099
3779.00,-0.0099
3778.00,-0.0099
3777.00,-0.0099
3776.00,-0.0099
3775.00,-0.0099
3774.00,-0.0099
3773.00,-0.0099
3772.00,-0.0099
3771.00,-0.0100
3770.00,-0.0100
3769.00,-0.0100
3768.00,-0.0100
3767.00,-0.0101
3766.00,-0.0101
3765.00,-0.0101
3764.00,-0.0101
3763.00,-0.0101
3762.00,-0.0101
3761.00,-0.0102
3760.00,-0.0102
3759.00,-0.0102
3758.00,-0.0101
3757.00,-0.0101
3756.00,-0.0100
3755.00,-0.0099
3754.00,-0.0099
3753.00,-0.0098
3752.00,-0.0098
3751.00,-0.0099
3750.00,-0.0099
3749.00,-0.0099
3748.00,-0.0099
3747.00,-0.0099
3746.00,-0.0100
3745.00,-0.0102
3744.00,-0.0102
3743.00,-0.0101
3742.00,-0.0100
3741.00,-0.0101
3740.00,-0.0101
3739.00,-0.0101
3738.00,-0.0100
3737.00,-0.0100
3736.00,-0.0100
3735.00,-0.0100
3734.00,-0.0100
3733.00,-0.0101
3732.00,-0.0101
3731.00,-0.0101
3730.00,-0.0101
3729.00,-0.0101
3728.00,-0.0102
3727.00,-0.0102
3726.00,-0.0102
3725.00,-0.0102
3724.00,-0.0102
3723.00,-0.0103
3722.00,-0.0103
3721.00,-0.0103
3720.00,-0.0103
3719.00,-0.0103
3718.00,-0.0103
3717.00,-0.0102
3716.00,-0.0102
3715.00,-0.0101
3714.00,-0.0101
3713.00,-0.0101
3712.00,-0.0101
3711.00,-0.0102
3710.00,-0.0102
3709.00,-0.0102
3708.00,-0.0102
3707.00,-0.0102
3706.00,-0.0102
3705.00,-0.0102
3704.00,-0.0102
3703.00,-0.0101
3702.00,-0.0101
3701.00,-0.0101
3700.00,-0.0101
3699.00,-0.0100
3698.00,-0.0100
3697.00,-0.0100
3696.00,-0.0099
3695.00,-0.0098
3694.00,-0.0096
3693.00,-0.0095
3692.00,-0.0094
3691.00,-0.0092
3690.00,-0.0090
3689.00,-0.0088
3688.00,-0.0085
3687.00,-0.0082
3686.00,-0.0079
3685.00,-0.0076
3684.00,-0.0072
3683.00,-0.0068
3682.00,-0.0062
3681.00,-0.0056
3680.00,-0.0050
3679.00,-0.0044
3678.00,-0.0037
3677.00,-0.0031
3676.00,-0.0025
3675.00,-0.0019
3674.00,-0.0013
3673.00,-0.0008
3672.00,-0.0006
3671.00,-0.0004
3670.00,-0.0002
3669.00,0.0000
3668.00,0.0002
3667.00,0.0004
3666.00,0.0005
3665.00,0.0007
3664.00,0.0009
3663.00,0.0012
3662.00,0.0015
3661.00,0.0017
3660.00,0.0019
3659.00,0.0020
3658.00,0.0021
3657.00,0.0020
3656.00,0.0019
3655.00,0.0018
3654.00,0.0017
3653.00,0.0016
3652.00,0.0015
3651.00,0.0014
3650.00,0.0014
3649.00,0.0012
3648.00,0.0010
3647.00,0.0008
3646.00,0.0005
3645.00,0.0001
3644.00,-0.0003
3643.00,-0.0007
3642.00,-0.0011
3641.00,-0.0014
3640.00,-0.0016
3639.00,-0.0016
3638.00,-0.0015
3637.00,-0.0017
3636.00,-0.0022
3635.00,-0.0031
3634.00,-0.0041
3633.00,-0.0048
3632.00,-0.0053
3631.00,-0.0057
3630.00,-0.0060
3629.00,-0.0064
3628.00,-0.0066
3627.00,-0.0067
3626.00,-0.0069
3625.00,-0.0071
3624.00,-0.0072
3623.00,-0.0073
3622.00,-0.0073
3621.00,-0.0073
3620.00,-0.0074
3619.00,-0.0075
3618.00,-0.0076
3617.00,-0.0077
3616.00,-0.0078
3615.00,-0.0079
3614.00,-0.0079
3613.00,-0.0080
3612.00,-0.0079
3611.00,-0.0080
3610.00,-0.0080
3609.00,-0.0081
3608.00,-0.0082
3607.00,-0.0083
3606.00,-0.0083
3605.00,-0.0083
3604.00,-0.0084
3603.00,-0.0084
3602.00,-0.0084
3601.00,-0.0083
3600.00,-0.0083
3599.00,-0.0082
3598.00,-0.0082
3597.00,-0.0081
3596.00,-0.0081
3595.00,-0.0081
3594.00,-0.0081
3593.00,-0.0081
3592.00,-0.0080
3591.00,-0.0079
3590.00,-0.0079
3589.00,-0.0079
3588.00,-0.0079
3587.00,-0.0079
3586.00,-0.0079
3585.00,-0.0078
3584.00,-0.0078
3583.00,-0.0078
3582.00,-0.0078
3581.00,-0.0078
3580.00,-0.0078
3579.00,-0.0077
3578.00,-0.0077
3577.00,-0.0076
3576.00,-0.0076
3575.00,-0.0075
3574.00,-0.0075
3573.00,-0.0074
3572.00,-0.0073
3571.00,-0.0072
3570.00,-0.0072
3569.00,-0.0071
3568.00,-0.0072
3567.00,-0.0072
3566.00,-0.0072
3565.00,-0.0071
3564.00,-0.0071
3563.00,-0.0070
3562.00,-0.0070
3561.00,-0.0069
3560.00,-0.0069
3559.00,-0.0068
3558.00,-0.0068
3557.00,-0.0067
3556.00,-0.0067
3555.00,-0.0066
3554.00,-0.0066
3553.00,-0.0066
3552.00,-0.0065
3551.00,-0.0065
3550.00,-0.0065
3549.00,-0.0064
3548.00,-0.0063
3547.00,-0.0063
3546.00,-0.0062
3545.00,-0.0062
3544.00,-0.0062
3543.00,-0.0061
3542.00,-0.0061
3541.00,-0.0060
3540.00,-0.0060
3539.00,-0.0059
3538.00,-0.0059
3537.00,-0.0059
3536.00,-0.0059
3535.00,-0.0059
3534.00,-0.0058
3533.00,-0.0058
3532.00,-0.0057
3531.00,-0.0056
3530.00,-0.0056
3529.00,-0.0056
3528.00,-0.0055
3527.00,-0.0055
3526.00,-0.0055
3525.00,-0.0055
3524.00,-0.0054
3523.00,-0.0054
3522.00,-0.0053
3521.00,-0.0053
3520.00,-0.0053
3519.00,-0.0052
3518.00,-0.0052
3517.00,-0.0051
3516.00,-0.0051
3515.00,-0.0050
3514.00,-0.0050
3513.00,-0.0050
3512.00,-0.0049
3511.00,-0.0049
3510.00,-0.0049
3509.00,-0.0049
3508.00,-0.0048
3507.00,-0.0048
3506.00,-0.0047
3505.00,-0.0046
3504.00,-0.0046
3503.00,-0.0046
3502.00,-0.0045
3501.00,-0.0045
3500.00,-0.0045
3499.00,-0.0044
3498.00,-0.0044
3497.00,-0.0043
3496.00,-0.0043
3495.00,-0.0043
3494.00,-0.0042
3493.00,-0.0042
3492.00,-0.0041
3491.00,-0.0041
3490.00,-0.0040
3489.00,-0.0040
3488.00,-0.0039
3487.00,-0.0039
3486.00,-0.0038
3485.00,-0.0038
3484.00,-0.0038
3483.00,-0.0037
3482.00,-0.0037
3481.00,-0.0037
3480.00,-0.0036
3479.00,-0.0036
3478.00,-0.0035
3477.00,-0.0035
3476.00,-0.0035
3475.00,-0.0034
3474.00,-0.0034
3473.00,-0.0034
3472.00,-0.0033
3471.00,-0.0033
3470.00,-0.0032
3469.00,-0.0032
3468.00,-0.0031
3467.00,-0.0031
3466.00,-0.0031
3465.00,-0.0030
3464.00,-0.0030
3463.00,-0.0030
3462.00,-0.0030
3461.00,-0.0030
3460.00,-0.0029
3459.00,-0.0029
3458.00,-0.0029
3457.00,-0.0029
3456.00,-0.0028
3455.00,-0.0028
3454.00,-0.0027
3453.00,-0.0026
3452.00,-0.0025
3451.00,-0.0025
3450.00,-0.0025
3449.00,-0.0025
3448.00,-0.0025
3447.00,-0.0024
3446.00,-0.0024
3445.00,-0.0024
3444.00,-0.0024
3443.00,-0.0023
3442.00,-0.0023
3441.00,-0.0023
3440.00,-0.0022
3439.00,-0.0022
3438.00,-0.0022
3437.00,-0.0021
3436.00,-0.0021
3435.00,-0.0021
3434.00,-0.0020
3433.00,-0.0020
3432.00,-0.0019
3431.00,-0.0018
3430.00,-0.0018
3429.00,-0.0018
3428.00,-0.0017
3427.00,-0.0017
3426.00,-0.0016
3425.00,-0.0016
3424.00,-0.0015
3423.00,-0.0015
3422.00,-0.0014
3421.00,-0.0014
3420.00,-0.0014
3419.00,-0.0013
3418.00,-0.0013
3417.00,-0.0012
3416.00,-0.0012
3415.00,-0.0011
3414.00,-0.0011
3413.00,-0.0010
3412.00,-0.0009
3411.00,-0.0009
3410.00,-0.0008
3409.00,-0.0007
3408.00,-0.0007
3407.00,-0.0006
3406.00,-0.0006
3405.00,-0.0005
3404.00,-0.0005
3403.00,-0.0004
3402.00,-0.0004
3401.00,-0.0004
3400.00,-0.0003
3399.00,-0.0002
3398.00,-0.0002
3397.00,-0.0001
3396.00,-0.0000
3395.00,0.0001
3394.00,0.0001
3393.00,0.0001
3392.00,0.0002
3391.00,0.0002
3390.00,0.0003
3389.00,0.0004
3388.00,0.0005
3387.00,0.0006
3386.00,0.0006
3385.00,0.0007
3384.00,0.0007
3383.00,0.0008
3382.00,0.0009
3381.00,0.0010
3380.00,0.0010
3379.00,0.0011
3378.00,0.0012
3377.00,0.0013
3376.00,0.0014
3375.00,0.0015
3374.00,0.0016
3373.00,0.0017
3372.00,0.0018
3371.00,0.0018
3370.00,0.0019
3369.00,0.0020
3368.00,0.0021
3367.00,0.0022
3366.00,0.0024
3365.00,0.0025
3364.00,0.0027
3363.00,0.0028
3362.00,0.0030
3361.00,0.0031
3360.00,0.0032
3359.00,0.0034
3358.00,0.0036
3357.00,0.0037
3356.00,0.0039
3355.00,0.0040
3354.00,0.0042
3353.00,0.0043
3352.00,0.0045
3351.00,0.0046
3350.00,0.0048
3349.00,0.0050
3348.00,0.0051
3347.00,0.0053
3346.00,0.0055
3345.00,0.0057
3344.00,0.0059
3343.00,0.0061
3342.00,0.0063
3341.00,0.0065
3340.00,0.0067
3339.00,0.0070
3338.00,0.0072
3337.00,0.0075
3336.00,0.0077
3335.00,0.0080
3334.00,0.0082
3333.00,0.0085
3332.00,0.0087
3331.00,0.0090
3330.00,0.0092
3329.00,0.0095
3328.00,0.0097
3327.00,0.0100
3326.00,0.0103
3325.00,0.0106
3324.00,0.0109
3323.00,0.0113
3322.00,0.0116
3321.00,0.0120
3320.00,0.0123
3319.00,0.0126
3318.00,0.0130
3317.00,0.0133
3316.00,0.0137
3315.00,0.0140
3314.00,0.0144
3313.00,0.0147
3312.00,0.0150
3311.00,0.0153
3310.00,0.0156
3309.00,0.0159
3308.00,0.0162
3307.00,0.0166
3306.00,0.0170
3305.00,0.0173
3304.00,0.0178
3303.00,0.0182
3302.00,0.0186
3301.00,0.0190
3300.00,0.0194
3299.00,0.0197
3298.00,0.0201
3297.00,0.0204
3296.00,0.0206
3295.00,0.0209
3294.00,0.0212
3293.00,0.0215
3292.00,0.0217
3291.00,0.0220
3290.00,0.0222
3289.00,0.0224
3288.00,0.0226
3287.00,0.0228
3286.00,0.0229
3285.00,0.0230
3284.00,0.0231
3283.00,0.0231
3282.00,0.0230
3281.00,0.0230
3280.00,0.0229
3279.00,0.0228
3278.00,0.0226
3277.00,0.0224
3276.00,0.0222
3275.00,0.0220
3274.00,0.0217
3273.00,0.0214
3272.00,0.0212
3271.00,0.0209
3270.00,0.0207
3269.00,0.0204
3268.00,0.0202
3267.00,0.0199
3266.00,0.0195
3265.00,0.0192
3264.00,0.0188
3263.00,0.0185
3262.00,0.0181
3261.00,0.0178
3260.00,0.0174
3259.00,0.0171
3258.00,0.0167
3257.00,0.0164
3256.00,0.0160
3255.00,0.0157
3254.00,0.0154
3253.00,0.0151
3252.00,0.0149
3251.00,0.0146
3250.00,0.0143
3249.00,0.0139
3248.00,0.0136
3247.00,0.0133
3246.00,0.0131
3245.00,0.0129
3244.00,0.0127
3243.00,0.0125
3242.00,0.0123
3241.00,0.0120
3240.00,0.0118
3239.00,0.0116
3238.00,0.0113
3237.00,0.0111
3236.00,0.0109
3235.00,0.0106
3234.00,0.0104
3233.00,0.0102
3232.00,0.0100
3231.00,0.0099
3230.00,0.0097
3229.00,0.0096
3228.00,0.0095
3227.00,0.0093
3226.00,0.0091
3225.00,0.0090
3224.00,0.0088
3223.00,0.0086
3222.00,0.0085
3221.00,0.0083
3220.00,0.0081
3219.00,0.0080
3218.00,0.0078
3217.00,0.0076
3216.00,0.0075
3215.00,0.0073
3214.00,0.0072
3213.00,0.0070
3212.00,0.0069
3211.00,0.0067
3210.00,0.0066
3209.00,0.0064
3208.00,0.0063
3207.00,0.0061
3206.00,0.0060
3205.00,0.0059
3204.00,0.0058
3203.00,0.0056
3202.00,0.0055
3201.00,0.0053
3200.00,0.0052
3199.00,0.0050
3198.00,0.0049
3197.00,0.0047
3196.00,0.0045
3195.00,0.0043
3194.00,0.0042
3193.00,0.0041
3192.00,0.0040
3191.00,0.0038
3190.00,0.0037
3189.00,0.0035
3188.00,0.0034
3187.00,0.0032
3186.00,0.0030
3185.00,0.0028
3184.00,0.0026
3183.00,0.0025
3182.00,0.0023
3181.00,0.0022
3180.00,0.0021
3179.00,0.0019
3178.00,0.0017
3177.00,0.0016
3176.00,0.0014
3175.00,0.0012
3174.00,0.0010
3173.00,0.0008
3172.00,0.0007
3171.00,0.0005
3170.00,0.0004
3169.00,0.0002
3168.00,0.0001
3167.00,-0.0001
3166.00,-0.0002
3165.00,-0.0004
3164.00,-0.0005
3163.00,-0.0007
3162.00,-0.0008
3161.00,-0.0010
3160.00,-0.0011
3159.00,-0.0012
3158.00,-0.0014
3157.00,-0.0015
3156.00,-0.0017
3155.00,-0.0018
3154.00,-0.0019
3153.00,-0.0021
3152.00,-0.0022
3151.00,-0.0023
3150.00,-0.0024
3149.00,-0.0024
3148.00,-0.0025
3147.00,-0.0026
3146.00,-0.0027
3145.00,-0.0028
3144.00,-0.0029
3143.00,-0.0030
3142.00,-0.0031
3141.00,-0.0032
3140.00,-0.0033
3139.00,-0.0034
3138.00,-0.0034
3137.00,-0.0034
3136.00,-0.0034
3135.00,-0.0035
3134.00,-0.0035
3133.00,-0.0036
3132.00,-0.0037
3131.00,-0.0037
3130.00,-0.0038
3129.00,-0.0038
3128.00,-0.0039
3127.00,-0.0039
3126.00,-0.0040
3125.00,-0.0040
3124.00,-0.0040
3123.00,-0.0041
3122.00,-0.0041
3121.00,-0.0042
3120.00,-0.0042
3119.00,-0.0042
3118.00,-0.0042
3117.00,-0.0043
3116.00,-0.0043
3115.00,-0.0042
3114.00,-0.0042
3113.00,-0.0041
3112.00,-0.0041
3111.00,-0.0041
3110.00,-0.0041
3109.00,-0.0041
3108.00,-0.0040
3107.00,-0.0040
3106.00,-0.0039
3105.00,-0.0039
3104.00,-0.0039
3103.00,-0.0039
3102.00,-0.0039
3101.00,-0.0038
3100.00,-0.0038
3099.00,-0.0038
3098.00,-0.0037
3097.00,-0.0037
3096.00,-0.0036
3095.00,-0.0036
3094.00,-0.0036
3093.00,-0.0035
3092.00,-0.0035
3091.00,-0.0035
3090.00,-0.0035
3089.00,-0.0035
3088.00,-0.0035
3087.00,-0.0034
3086.00,-0.0034
3085.00,-0.0034
3084.00,-0.0033
3083.00,-0.0033
3082.00,-0.0033
3081.00,-0.0032
3080.00,-0.0033
3079.00,-0.0032
3078.00,-0.0032
3077.00,-0.0032
3076.00,-0.0031
3075.00,-0.0030
3074.00,-0.0030
3073.00,-0.0030
3072.00,-0.0030
3071.00,-0.0030
3070.00,-0.0030
3069.00,-0.0031
3068.00,-0.0031
3067.00,-0.0032
3066.00,-0.0032
3065.00,-0.0032
3064.00,-0.0032
3063.00,-0.0032
3062.00,-0.0032
3061.00,-0.0033
3060.00,-0.0033
3059.00,-0.0034
3058.00,-0.0035
3057.00,-0.0036
3056.00,-0.0036
3055.00,-0.0037
3054.00,-0.0038
3053.00,-0.0039
3052.00,-0.0040
3051.00,-0.0041
3050.00,-0.0042
3049.00,-0.0042
3048.00,-0.0043
3047.00,-0.0044
3046.00,-0.0046
3045.00,-0.0047
3044.00,-0.0048
3043.00,-0.0049
3042.00,-0.0049
3041.00,-0.0050
3040.00,-0.0050
3039.00,-0.0050
3038.00,-0.0051
3037.00,-0.0052
3036.00,-0.0053
3035.00,-0.0053
3034.00,-0.0054
3033.00,-0.0054
3032.00,-0.0054
3031.00,-0.0054
3030.00,-0.0053
3029.00,-0.0053
3028.00,-0.0052
3027.00,-0.0052
3026.00,-0.0051
3025.00,-0.0050
3024.00,-0.0049
3023.00,-0.0047
3022.00,-0.0044
3021.00,-0.0041
3020.00,-0.0037
3019.00,-0.0032
3018.00,-0.0026
3017.00,-0.0019
3016.00,-0.0009
3015.00,0.0001
3014.00,0.0014
3013.00,0.0030
3012.00,0.0048
3011.00,0.0069
3010.00,0.0092
3009.00,0.0118
3008.00,0.0146
3007.00,0.0175
3006.00,0.0207
3005.00,0.0240
3004.00,0.0274
3003.00,0.0308
3002.00,0.0342
3001.00,0.0375
3000.00,0.0406
2999.00,0.0435
2998.00,0.0461
2997.00,0.0485
2996.00,0.0506
2995.00,0.0526
2994.00,0.0544
2993.00,0.0562
2992.00,0.0579
2991.00,0.0596
2990.00,0.0612
2989.00,0.0630
2988.00,0.0651
2987.00,0.0682
2986.00,0.0731
2985.00,0.0807
2984.00,0.0905
2983.00,0.1007
2982.00,0.1082
2981.00,0.1111
2980.00,0.1092
2979.00,0.1045
2978.00,0.0988
2977.00,0.0936
2976.00,0.0899
2975.00,0.0881
2974.00,0.0881
2973.00,0.0892
2972.00,0.0900
2971.00,0.0891
2970.00,0.0860
2969.00,0.0816
2968.00,0.0771
2967.00,0.0731
2966.00,0.0699
2965.00,0.0670
2964.00,0.0643
2963.00,0.0618
2962.00,0.0595
2961.00,0.0574
2960.00,0.0554
2959.00,0.0536
2958.00,0.0518
2957.00,0.0500
2956.00,0.0482
2955.00,0.0463
2954.00,0.0444
2953.00,0.0424
2952.00,0.0405
2951.00,0.0387
2950.00,0.0370
2949.00,0.0354
2948.00,0.0338
2947.00,0.0322
2946.00,0.0305
2945.00,0.0289
2944.00,0.0275
2943.00,0.0264
2942.00,0.0257
2941.00,0.0254
2940.00,0.0253
2939.00,0.0252
2938.00,0.0251
2937.00,0.0250
2936.00,0.0250
2935.00,0.0252
2934.00,0.0256
2933.00,0.0261
2932.00,0.0265
2931.00,0.0268
2930.00,0.0267
2929.00,0.0265
2928.00,0.0262
2927.00,0.0259
2926.00,0.0256
2925.00,0.0253
2924.00,0.0250
2923.00,0.0248
2922.00,0.0247
2921.00,0.0246
2920.00,0.0246
2919.00,0.0247
2918.00,0.0247
2917.00,0.0246
2916.00,0.0245
2915.00,0.0242
2914.00,0.0240
2913.00,0.0237
2912.00,0.0236
2911.00,0.0236
2910.00,0.0236
2909.00,0.0237
2908.00,0.0239
2907.00,0.0240
2906.00,0.0241
2905.00,0.0242
2904.00,0.0243
2903.00,0.0244
2902.00,0.0245
2901.00,0.0245
2900.00,0.0246
2899.00,0.0246
2898.00,0.0247
2897.00,0.0250
2896.00,0.0254
2895.00,0.0259
2894.00,0.0266
2893.00,0.0273
2892.00,0.0280
2891.00,0.0286
2890.00,0.0289
2889.00,0.0290
2888.00,0.0288
2887.00,0.0285
2886.00,0.0283
2885.00,0.0282
2884.00,0.0278
2883.00,0.0270
2882.00,0.0256
2881.00,0.0238
2880.00,0.0219
2879.00,0.0201
2878.00,0.0186
2877.00,0.0174
2876.00,0.0165
2875.00,0.0157
2874.00,0.0151
2873.00,0.0145
2872.00,0.0140
2871.00,0.0133
2870.00,0.0126
2869.00,0.0119
2868.00,0.0111
2867.00,0.0103
2866.00,0.0096
2865.00,0.0088
2864.00,0.0080
2863.00,0.0073
2862.00,0.0066
2861.00,0.0059
2860.00,0.0053
2859.00,0.0048
2858.00,0.0044
2857.00,0.0040
2856.00,0.0037
2855.00,0.0035
2854.00,0.0033
2853.00,0.0030
2852.00,0.0026
2851.00,0.0021
2850.00,0.0015
2849.00,0.0008
2848.00,-0.0001
2847.00,-0.0009
2846.00,-0.0018
2845.00,-0.0025
2844.00,-0.0032
2843.00,-0.0037
2842.00,-0.0042
2841.00,-0.0046
2840.00,-0.0050
2839.00,-0.0053
2838.00,-0.0055
2837.00,-0.0057
2836.00,-0.0058
2835.00,-0.0060
2834.00,-0.0061
2833.00,-0.0062
2832.00,-0.0063
2831.00,-0.0064
2830.00,-0.0065
2829.00,-0.0066
2828.00,-0.0067
2827.00,-0.0069
2826.00,-0.0070
2825.00,-0.0070
2824.00,-0.0071
2823.00,-0.0072
2822.00,-0.0073
2821.00,-0.0074
2820.00,-0.0075
2819.00,-0.0076
2818.00,-0.0077
2817.00,-0.0078
2816.00,-0.0079
2815.00,-0.0080
2814.00,-0.0081
2813.00,-0.0082
2812.00,-0.0083
2811.00,-0.0084
2810.00,-0.0085
2809.00,-0.0085
2808.00,-0.0086
2807.00,-0.0087
2806.00,-0.0088
2805.00,-0.0088
2804.00,-0.0089
2803.00,-0.0089
2802.00,-0.0090
2801.00,-0.0090
2800.00,-0.0091
2799.00,-0.0091
2798.00,-0.0092
2797.00,-0.0092
2796.00,-0.0092
2795.00,-0.0093
2794.00,-0.0094
2793.00,-0.0095
2792.00,-0.0096
2791.00,-0.0096
2790.00,-0.0097
2789.00,-0.0097
2788.00,-0.0098
2787.00,-0.0098
2786.00,-0.0098
2785.00,-0.0099
2784.00,-0.0100
2783.00,-0.0101
2782.00,-0.0101
2781.00,-0.0102
2780.00,-0.0102
2779.00,-0.0103
2778.00,-0.0103
2777.00,-0.0104
2776.00,-0.0105
2775.00,-0.0105
2774.00,-0.0106
2773.00,-0.0106
2772.00,-0.0106
2771.00,-0.0106
2770.00,-0.0107
2769.00,-0.0107
2768.00,-0.0107
2767.00,-0.0108
2766.00,-0.0108
2765.00,-0.0109
2764.00,-0.0110
2763.00,-0.0110
2762.00,-0.0111
2761.00,-0.0111
2760.00,-0.0112
2759.00,-0.0112
2758.00,-0.0113
2757.00,-0.0114
2756.00,-0.0114
2755.00,-0.0115
2754.00,-0.0116
2753.00,-0.0116
2752.00,-0.0116
2751.00,-0.0117
2750.00,-0.0117
2749.00,-0.0118
2748.00,-0.0118
2747.00,-0.0118
2746.00,-0.0117
2745.00,-0.0117
2744.00,-0.0117
2743.00,-0.0118
2742.00,-0.0118
2741.00,-0.0119
2740.00,-0.0119
2739.00,-0.0120
2738.00,-0.0120
2737.00,-0.0120
2736.00,-0.0120
2735.00,-0.0121
2734.00,-0.0121
2733.00,-0.0121
2732.00,-0.0122
2731.00,-0.0122
2730.00,-0.0123
2729.00,-0.0123
2728.00,-0.0124
2727.00,-0.0125
2726.00,-0.0125
2725.00,-0.0126
2724.00,-0.0126
2723.00,-0.0126
2722.00,-0.0127
2721.00,-0.0127
2720.00,-0.0128
2719.00,-0.0128
2718.00,-0.0128
2717.00,-0.0129
2716.00,-0.0129
2715.00,-0.0129
2714.00,-0.0130
2713.00,-0.0131
2712.00,-0.0131
2711.00,-0.0132
2710.00,-0.0132
2709.00,-0.0133
2708.00,-0.0133
2707.00,-0.0134
2706.00,-0.0134
2705.00,-0.0134
2704.00,-0.0135
2703.00,-0.0135
2702.00,-0.0135
2701.00,-0.0135
2700.00,-0.0135
2699.00,-0.0135
2698.00,-0.0135
2697.00,-0.0135
2696.00,-0.0135
2695.00,-0.0135
2694.00,-0.0135
2693.00,-0.0135
2692.00,-0.0135
2691.00,-0.0135
2690.00,-0.0135
2689.00,-0.0135
2688.00,-0.0135
2687.00,-0.0135
2686.00,-0.0134
2685.00,-0.0134
2684.00,-0.0134
2683.00,-0.0134
2682.00,-0.0134
2681.00,-0.0134
2680.00,-0.0134
2679.00,-0.0134
2678.00,-0.0135
2677.00,-0.0134
2676.00,-0.0134
2675.00,-0.0134
2674.00,-0.0133
2673.00,-0.0133
2672.00,-0.0132
2671.00,-0.0132
2670.00,-0.0131
2669.00,-0.0131
2668.00,-0.0130
2667.00,-0.0130
2666.00,-0.0130
2665.00,-0.0130
2664.00,-0.0131
2663.00,-0.0131
2662.00,-0.0132
2661.00,-0.0132
2660.00,-0.0132
2659.00,-0.0133
2658.00,-0.0133
2657.00,-0.0134
2656.00,-0.0134
2655.00,-0.0134
2654.00,-0.0135
2653.00,-0.0135
2652.00,-0.0135
2651.00,-0.0136
2650.00,-0.0136
2649.00,-0.0136
2648.00,-0.0137
2647.00,-0.0137
2646.00,-0.0137
2645.00,-0.0137
2644.00,-0.0137
2643.00,-0.0137
2642.00,-0.0137
2641.00,-0.0137
2640.00,-0.0138
2639.00,-0.0138
2638.00,-0.0139
2637.00,-0.0140
2636.00,-0.0141
2635.00,-0.0142
2634.00,-0.0143
2633.00,-0.0143
2632.00,-0.0143
2631.00,-0.0143
2630.00,-0.0143
2629.00,-0.0143
2628.00,-0.0143
2627.00,-0.0144
2626.00,-0.0144
2625.00,-0.0145
2624.00,-0.0146
2623.00,-0.0147
2622.00,-0.0147
2621.00,-0.0148
2620.00,-0.0148
2619.00,-0.0148
2618.00,-0.0149
2617.00,-0.0149
2616.00,-0.0149
2615.00,-0.0150
2614.00,-0.0150
2613.00,-0.0151
2612.00,-0.0151
2611.00,-0.0151
2610.00,-0.0151
2609.00,-0.0151
2608.00,-0.0150
2607.00,-0.0151
2606.00,-0.0151
2605.00,-0.0152
2604.00,-0.0152
2603.00,-0.0153
2602.00,-0.0154
2601.00,-0.0154
2600.00,-0.0155
2599.00,-0.0155
2598.00,-0.0155
2597.00,-0.0155
2596.00,-0.0156
2595.00,-0.0156
2594.00,-0.0157
2593.00,-0.0157
2592.00,-0.0157
2591.00,-0.0157
2590.00,-0.0157
2589.00,-0.0158
2588.00,-0.0158
2587.00,-0.0158
2586.00,-0.0158
2585.00,-0.0158
2584.00,-0.0158
2583.00,-0.0158
2582.00,-0.0159
2581.00,-0.0159
2580.00,-0.0160
2579.00,-0.0160
2578.00,-0.0160
2577.00,-0.0161
2576.00,-0.0161
2575.00,-0.0161
2574.00,-0.0161
2573.00,-0.0161
2572.00,-0.0162
2571.00,-0.0162
2570.00,-0.0163
2569.00,-0.0163
2568.00,-0.0163
2567.00,-0.0164
2566.00,-0.0164
2565.00,-0.0164
2564.00,-0.0164
2563.00,-0.0164
2562.00,-0.0164
2561.00,-0.0164
2560.00,-0.0164
2559.00,-0.0164
2558.00,-0.0164
2557.00,-0.0164
2556.00,-0.0164
2555.00,-0.0164
2554.00,-0.0164
2553.00,-0.0165
2552.00,-0.0165
2551.00,-0.0165
2550.00,-0.0165
2549.00,-0.0165
2548.00,-0.0165
2547.00,-0.0165
2546.00,-0.0165
2545.00,-0.0165
2544.00,-0.0165
2543.00,-0.0165
2542.00,-0.0166
2541.00,-0.0166
2540.00,-0.0166
2539.00,-0.0166
2538.00,-0.0166
2537.00,-0.0166
2536.00,-0.0166
2535.00,-0.0166
2534.00,-0.0166
2533.00,-0.0166
2532.00,-0.0166
2531.00,-0.0166
2530.00,-0.0166
2529.00,-0.0166
2528.00,-0.0166
2527.00,-0.0166
2526.00,-0.0166
2525.00,-0.0166
2524.00,-0.0167
2523.00,-0.0167
2522.00,-0.0166
2521.00,-0.0167
2520.00,-0.0167
2519.00,-0.0167
2518.00,-0.0167
2517.00,-0.0167
2516.00,-0.0167
2515.00,-0.0167
2514.00,-0.0167
2513.00,-0.0168
2512.00,-0.0168
2511.00,-0.0167
2510.00,-0.0167
2509.00,-0.0167
2508.00,-0.0167
2507.00,-0.0167
2506.00,-0.0167
2505.00,-0.0168
2504.00,-0.0168
2503.00,-0.0168
2502.00,-0.0168
2501.00,-0.0168
2500.00,-0.0168
2499.00,-0.0168
2498.00,-0.0168
2497.00,-0.0168
2496.00,-0.0169
2495.00,-0.0169
2494.00,-0.0169
2493.00,-0.0169
2492.00,-0.0169
2491.00,-0.0170
2490.00,-0.0170
2489.00,-0.0171
2488.00,-0.0171
2487.00,-0.0172
2486.00,-0.0172
2485.00,-0.0172
2484.00,-0.0172
2483.00,-0.0172
2482.00,-0.0172
2481.00,-0.0172
2480.00,-0.0173
2479.00,-0.0173
2478.00,-0.0173
2477.00,-0.0173
2476.00,-0.0173
2475.00,-0.0173
2474.00,-0.0173
2473.00,-0.0173
2472.00,-0.0173
2471.00,-0.0174
2470.00,-0.0174
2469.00,-0.0174
2468.00,-0.0175
2467.00,-0.0175
2466.00,-0.0175
2465.00,-0.0175
2464.00,-0.0175
2463.00,-0.0175
2462.00,-0.0175
2461.00,-0.0176
2460.00,-0.0176
2459.00,-0.0176
2458.00,-0.0176
2457.00,-0.0176
2456.00,-0.0176
2455.00,-0.0176
2454.00,-0.0176
2453.00,-0.0176
2452.00,-0.0176
2451.00,-0.0177
2450.00,-0.0177
2449.00,-0.0178
2448.00,-0.0178
2447.00,-0.0178
2446.00,-0.0177
2445.00,-0.0177
2444.00,-0.0177
2443.00,-0.0177
2442.00,-0.0178
2441.00,-0.0178
2440.00,-0.0178
2439.00,-0.0179
2438.00,-0.0179
2437.00,-0.0179
2436.00,-0.0179
2435.00,-0.0180
2434.00,-0.0180
2433.00,-0.0180
2432.00,-0.0180
2431.00,-0.0180
2430.00,-0.0180
2429.00,-0.0179
2428.00,-0.0180
2427.00,-0.0180
2426.00,-0.0180
2425.00,-0.0180
2424.00,-0.0180
2423.00,-0.0180
2422.00,-0.0180
2421.00,-0.0181
2420.00,-0.0181
2419.00,-0.0181
2418.00,-0.0181
2417.00,-0.0181
2416.00,-0.0182
2415.00,-0.0182
2414.00,-0.0183
2413.00,-0.0183
2412.00,-0.0183
2411.00,-0.0183
2410.00,-0.0182
2409.00,-0.0182
2408.00,-0.0183
2407.00,-0.0183
2406.00,-0.0183
2405.00,-0.0184
2404.00,-0.0184
2403.00,-0.0184
2402.00,-0.0184
2401.00,-0.0184
2400.00,-0.0184
2399.00,-0.0184
2398.00,-0.0184
2397.00,-0.0184
2396.00,-0.0184
2395.00,-0.0184
2394.00,-0.0184
2393.00,-0.0185
2392.00,-0.0185
2391.00,-0.0185
2390.00,-0.0185
2389.00,-0.0185
2388.00,-0.0185
2387.00,-0.0185
2386.00,-0.0185
2385.00,-0.0185
2384.00,-0.0185
2383.00,-0.0186
2382.00,-0.0186
2381.00,-0.0186
2380.00,-0.0186
2379.00,-0.0186
2378.00,-0.0186
2377.00,-0.0186
2376.00,-0.0186
2375.00,-0.0187
2374.00,-0.0187
2373.00,-0.0187
2372.00,-0.0187
2371.00,-0.0187
2370.00,-0.0187
2369.00,-0.0187
2368.00,-0.0188
2367.00,-0.0188
2366.00,-0.0188
2365.00,-0.0188
2364.00,-0.0188
2363.00,-0.0189
2362.00,-0.0189
2361.00,-0.0189
2360.00,-0.0190
2359.00,-0.0190
2358.00,-0.0190
2357.00,-0.0190
2356.00,-0.0190
2355.00,-0.0190
2354.00,-0.0189
2353.00,-0.0189
2352.00,-0.0188
2351.00,-0.0189
2350.00,-0.0189
2349.00,-0.0190
2348.00,-0.0189
2347.00,-0.0189
2346.00,-0.0188
2345.00,-0.0188
2344.00,-0.0188
2343.00,-0.0189
2342.00,-0.0189
2341.00,-0.0189
2340.00,-0.0189
2339.00,-0.0189
2338.00,-0.0190
2337.00,-0.0190
2336.00,-0.0190
2335.00,-0.0191
2334.00,-0.0191
2333.00,-0.0191
2332.00,-0.0190
2331.00,-0.0190
2330.00,-0.0191
2329.00,-0.0192
2328.00,-0.0193
2327.00,-0.0194
2326.00,-0.0194
2325.00,-0.0194
2324.00,-0.0192
2323.00,-0.0191
2322.00,-0.0191
2321.00,-0.0191
2320.00,-0.0192
2319.00,-0.0192
2318.00,-0.0192
2317.00,-0.0192
2316.00,-0.0191
2315.00,-0.0191
2314.00,-0.0191
2313.00,-0.0191
2312.00,-0.0191
2311.00,-0.0191
2310.00,-0.0192
2309.00,-0.0192
2308.00,-0.0192
2307.00,-0.0192
2306.00,-0.0193
2305.00,-0.0193
2304.00,-0.0194
2303.00,-0.0194
2302.00,-0.0194
2301.00,-0.0194
2300.00,-0.0195
2299.00,-0.0195
2298.00,-0.0195
2297.00,-0.0196
2296.00,-0.0196
2295.00,-0.0197
2294.00,-0.0198
2293.00,-0.0198
2292.00,-0.0198
2291.00,-0.0198
2290.00,-0.0199
2289.00,-0.0199
2288.00,-0.0200
2287.00,-0.0200
2286.00,-0.0200
2285.00,-0.0199
2284.00,-0.0198
2283.00,-0.0198
2282.00,-0.0198
2281.00,-0.0199
2280.00,-0.0199
2279.00,-0.0200
2278.00,-0.0200
2277.00,-0.0200
2276.00,-0.0201
2275.00,-0.0201
2274.00,-0.0201
2273.00,-0.0200
2272.00,-0.0200
2271.00,-0.0200
2270.00,-0.0201
2269.00,-0.0202
2268.00,-0.0202
2267.00,-0.0202
2266.00,-0.0201
2265.00,-0.0201
2264.00,-0.0202
2263.00,-0.0202
2262.00,-0.0203
2261.00,-0.0203
2260.00,-0.0202
2259.00,-0.0201
2258.00,-0.0201
2257.00,-0.0201
2256.00,-0.0201
2255.00,-0.0202
2254.00,-0.0202
2253.00,-0.0203
2252.00,-0.0202
2251.00,-0.0202
2250.00,-0.0202
2249.00,-0.0203
2248.00,-0.0203
2247.00,-0.0204
2246.00,-0.0204
2245.00,-0.0203
2244.00,-0.0204
2243.00,-0.0204
2242.00,-0.0205
2241.00,-0.0205
2240.00,-0.0205
2239.00,-0.0205
2238.00,-0.0205
2237.00,-0.0205
2236.00,-0.0205
2235.00,-0.0204
2234.00,-0.0204
2233.00,-0.0204
2232.00,-0.0203
2231.00,-0.0203
2230.00,-0.0204
2229.00,-0.0205
2228.00,-0.0206
2227.00,-0.0206
2226.00,-0.0207
2225.00,-0.0208
2224.00,-0.0208
2223.00,-0.0208
2222.00,-0.0207
2221.00,-0.0207
2220.00,-0.0207
2219.00,-0.0207
2218.00,-0.0207
2217.00,-0.0206
2216.00,-0.0205
2215.00,-0.0205
2214.00,-0.0205
2213.00,-0.0205
2212.00,-0.0205
2211.00,-0.0206
2210.00,-0.0206
2209.00,-0.0205
2208.00,-0.0204
2207.00,-0.0203
2206.00,-0.0204
2205.00,-0.0205
2204.00,-0.0206
2203.00,-0.0207
2202.00,-0.0207
2201.00,-0.0208
2200.00,-0.0208
2199.00,-0.0208
2198.00,-0.0207
2197.00,-0.0207
2196.00,-0.0207
2195.00,-0.0207
2194.00,-0.0207
2193.00,-0.0207
2192.00,-0.0207
2191.00,-0.0207
2190.00,-0.0207
2189.00,-0.0207
2188.00,-0.0208
2187.00,-0.0209
2186.00,-0.0209
2185.00,-0.0208
2184.00,-0.0207
2183.00,-0.0207
2182.00,-0.0208
2181.00,-0.0210
2180.00,-0.0212
2179.00,-0.0213
2178.00,-0.0212
2177.00,-0.0209
2176.00,-0.0206
2175.00,-0.0206
2174.00,-0.0207
2173.00,-0.0210
2172.00,-0.0212
2171.00,-0.0214
2170.00,-0.0216
2169.00,-0.0217
2168.00,-0.0218
2167.00,-0.0219
2166.00,-0.0220
2165.00,-0.0220
2164.00,-0.0219
2163.00,-0.0218
2162.00,-0.0216
2161.00,-0.0212
2160.00,-0.0207
2159.00,-0.0205
2158.00,-0.0205
2157.00,-0.0207
2156.00,-0.0209
2155.00,-0.0211
2154.00,-0.0213
2153.00,-0.0215
2152.00,-0.0216
2151.00,-0.0216
2150.00,-0.0216
2149.00,-0.0214
2148.00,-0.0213
2147.00,-0.0213
2146.00,-0.0214
2145.00,-0.0215
2144.00,-0.0215
2143.00,-0.0214
2142.00,-0.0213
2141.00,-0.0212
2140.00,-0.0212
2139.00,-0.0212
2138.00,-0.0211
2137.00,-0.0210
2136.00,-0.0209
2135.00,-0.0208
2134.00,-0.0209
2133.00,-0.0210
2132.00,-0.0212
2131.00,-0.0213
2130.00,-0.0214
2129.00,-0.0214
2128.00,-0.0215
2127.00,-0.0216
2126.00,-0.0217
2125.00,-0.0217
2124.00,-0.0217
2123.00,-0.0216
2122.00,-0.0216
2121.00,-0.0216
2120.00,-0.0216
2119.00,-0.0216
2118.00,-0.0217
2117.00,-0.0217
2116.00,-0.0218
2115.00,-0.0218
2114.00,-0.0218
2113.00,-0.0217
2112.00,-0.0217
2111.00,-0.0218
2110.00,-0.0218
2109.00,-0.0218
2108.00,-0.0218
2107.00,-0.0219
2106.00,-0.0219
2105.00,-0.0218
2104.00,-0.0217
2103.00,-0.0217
2102.00,-0.0217
2101.00,-0.0217
2100.00,-0.0217
2099.00,-0.0217
2098.00,-0.0216
2097.00,-0.0216
2096.00,-0.0215
2095.00,-0.0216
2094.00,-0.0216
2093.00,-0.0217
2092.00,-0.0218
2091.00,-0.0219
2090.00,-0.0219
2089.00,-0.0218
2088.00,-0.0217
2087.00,-0.0217
2086.00,-0.0217
2085.00,-0.0217
2084.00,-0.0217
2083.00,-0.0217
2082.00,-0.0218
2081.00,-0.0219
2080.00,-0.0219
2079.00,-0.0220
2078.00,-0.0220
2077.00,-0.0220
2076.00,-0.0220
2075.00,-0.0220
2074.00,-0.0220
2073.00,-0.0220
2072.00,-0.0220
2071.00,-0.0220
2070.00,-0.0219
2069.00,-0.0219
2068.00,-0.0219
2067.00,-0.0219
2066.00,-0.0220
2065.00,-0.0220
2064.00,-0.0220
2063.00,-0.0221
2062.00,-0.0222
2061.00,-0.0222
2060.00,-0.0223
2059.00,-0.0224
2058.00,-0.0225
2057.00,-0.0225
2056.00,-0.0225
2055.00,-0.0224
2054.00,-0.0225
2053.00,-0.0226
2052.00,-0.0227
2051.00,-0.0227
2050.00,-0.0225
2049.00,-0.0224
2048.00,-0.0222
2047.00,-0.0222
2046.00,-0.0224
2045.00,-0.0225
2044.00,-0.0227
2043.00,-0.0227
2042.00,-0.0227
2041.00,-0.0226
2040.00,-0.0226
2039.00,-0.0226
2038.00,-0.0227
2037.00,-0.0229
2036.00,-0.0229
2035.00,-0.0228
2034.00,-0.0228
2033.00,-0.0227
2032.00,-0.0226
2031.00,-0.0226
2030.00,-0.0227
2029.00,-0.0228
2028.00,-0.0229
2027.00,-0.0229
2026.00,-0.0229
2025.00,-0.0228
2024.00,-0.0228
2023.00,-0.0229
2022.00,-0.0230
2021.00,-0.0230
2020.00,-0.0229
2019.00,-0.0229
2018.00,-0.0228
2017.00,-0.0229
2016.00,-0.0229
2015.00,-0.0229
2014.00,-0.0230
2013.00,-0.0232
2012.00,-0.0232
2011.00,-0.0233
2010.00,-0.0232
2009.00,-0.0231
2008.00,-0.0230
2007.00,-0.0230
2006.00,-0.0231
2005.00,-0.0233
2004.00,-0.0234
2003.00,-0.0235
2002.00,-0.0236
2001.00,-0.0235
2000.00,-0.0233
1999.00,-0.0233
1998.00,-0.0233
1997.00,-0.0233
1996.00,-0.0233
1995.00,-0.0233
1994.00,-0.0234
1993.00,-0.0234
1992.00,-0.0234
1991.00,-0.0235
1990.00,-0.0235
1989.00,-0.0237
1988.00,-0.0238
1987.00,-0.0239
1986.00,-0.0240
1985.00,-0.0240
1984.00,-0.0240
1983.00,-0.0240
1982.00,-0.0240
1981.00,-0.0239
1980.00,-0.0236
1979.00,-0.0234
1978.00,-0.0233
1977.00,-0.0233
1976.00,-0.0233
1975.00,-0.0234
1974.00,-0.0235
1973.00,-0.0236
1972.00,-0.0236
1971.00,-0.0237
1970.00,-0.0239
1969.00,-0.0240
1968.00,-0.0241
1967.00,-0.0242
1966.00,-0.0242
1965.00,-0.0242
1964.00,-0.0240
1963.00,-0.0238
1962.00,-0.0238
1961.00,-0.0238
1960.00,-0.0239
1959.00,-0.0241
1958.00,-0.0242
1957.00,-0.0242
1956.00,-0.0242
1955.00,-0.0242
1954.00,-0.0242
1953.00,-0.0243
1952.00,-0.0244
1951.00,-0.0244
1950.00,-0.0245
1949.00,-0.0246
1948.00,-0.0246
1947.00,-0.0247
1946.00,-0.0248
1945.00,-0.0249
1944.00,-0.0249
1943.00,-0.0249
1942.00,-0.0249
1941.00,-0.0249
1940.00,-0.0248
1939.00,-0.0247
1938.00,-0.0247
1937.00,-0.0248
1936.00,-0.0248
1935.00,-0.0248
1934.00,-0.0248
1933.00,-0.0248
1932.00,-0.0248
1931.00,-0.0248
1930.00,-0.0247
1929.00,-0.0247
1928.00,-0.0246
1927.00,-0.0246
1926.00,-0.0247
1925.00,-0.0247
1924.00,-0.0248
1923.00,-0.0249
1922.00,-0.0249
1921.00,-0.0249
1920.00,-0.0248
1919.00,-0.0248
1918.00,-0.0248
1917.00,-0.0247
1916.00,-0.0246
1915.00,-0.0247
1914.00,-0.0247
1913.00,-0.0248
1912.00,-0.0248
1911.00,-0.0248
1910.00,-0.0249
1909.00,-0.0249
1908.00,-0.0248
1907.00,-0.0248
1906.00,-0.0247
1905.00,-0.0247
1904.00,-0.0247
1903.00,-0.0247
1902.00,-0.0247
1901.00,-0.0247
1900.00,-0.0246
1899.00,-0.0247
1898.00,-0.0247
1897.00,-0.0248
1896.00,-0.0249
1895.00,-0.0249
1894.00,-0.0249
1893.00,-0.0248
1892.00,-0.0248
1891.00,-0.0249
1890.00,-0.0250
1889.00,-0.0251
1888.00,-0.0250
1887.00,-0.0250
1886.00,-0.0250
1885.00,-0.0250
1884.00,-0.0250
1883.00,-0.0251
1882.00,-0.0251
1881.00,-0.0252
1880.00,-0.0252
1879.00,-0.0252
1878.00,-0.0251
1877.00,-0.0251
1876.00,-0.0251
1875.00,-0.0251
1874.00,-0.0252
1873.00,-0.0252
1872.00,-0.0253
1871.00,-0.0254
1870.00,-0.0255
1869.00,-0.0256
1868.00,-0.0256
1867.00,-0.0255
1866.00,-0.0255
1865.00,-0.0254
1864.00,-0.0254
1863.00,-0.0254
1862.00,-0.0254
1861.00,-0.0254
1860.00,-0.0255
1859.00,-0.0255
1858.00,-0.0255
1857.00,-0.0255
1856.00,-0.0255
1855.00,-0.0255
1854.00,-0.0255
1853.00,-0.0256
1852.00,-0.0256
1851.00,-0.0256
1850.00,-0.0257
1849.00,-0.0257
1848.00,-0.0258
1847.00,-0.0258
1846.00,-0.0258
1845.00,-0.0258
1844.00,-0.0257
1843.00,-0.0256
1842.00,-0.0256
1841.00,-0.0257
1840.00,-0.0258
1839.00,-0.0258
1838.00,-0.0259
1837.00,-0.0259
1836.00,-0.0259
1835.00,-0.0259
1834.00,-0.0258
1833.00,-0.0258
1832.00,-0.0259
1831.00,-0.0259
1830.00,-0.0260
1829.00,-0.0260
1828.00,-0.0260
1827.00,-0.0260
1826.00,-0.0261
1825.00,-0.0261
1824.00,-0.0261
1823.00,-0.0260
1822.00,-0.0260
1821.00,-0.0260
1820.00,-0.0260
1819.00,-0.0260
1818.00,-0.0260
1817.00,-0.0261
1816.00,-0.0261
1815.00,-0.0261
1814.00,-0.0261
1813.00,-0.0262
1812.00,-0.0262
1811.00,-0.0263
1810.00,-0.0263
1809.00,-0.0263
1808.00,-0.0262
1807.00,-0.0262
1806.00,-0.0262
1805.00,-0.0262
1804.00,-0.0262
1803.00,-0.0262
1802.00,-0.0263
1801.00,-0.0264
1800.00,-0.0264
1799.00,-0.0264
1798.00,-0.0264
1797.00,-0.0263
1796.00,-0.0263
1795.00,-0.0263
1794.00,-0.0263
1793.00,-0.0263
1792.00,-0.0262
1791.00,-0.0261
1790.00,-0.0260
1789.00,-0.0260
1788.00,-0.0259
1787.00,-0.0258
1786.00,-0.0258
1785.00,-0.0258
1784.00,-0.0257
1783.00,-0.0257
1782.00,-0.0257
1781.00,-0.0258
1780.00,-0.0258
1779.00,-0.0258
1778.00,-0.0258
1777.00,-0.0257
1776.00,-0.0257
1775.00,-0.0257
1774.00,-0.0256
1773.00,-0.0256
1772.00,-0.0255
1771.00,-0.0255
1770.00,-0.0255
1769.00,-0.0255
1768.00,-0.0255
1767.00,-0.0254
1766.00,-0.0254
1765.00,-0.0254
1764.00,-0.0255
1763.00,-0.0256
1762.00,-0.0256
1761.00,-0.0255
1760.00,-0.0255
1759.00,-0.0255
1758.00,-0.0255
1757.00,-0.0255
1756.00,-0.0254
1755.00,-0.0253
1754.00,-0.0253
1753.00,-0.0252
1752.00,-0.0251
1751.00,-0.0251
1750.00,-0.0252
1749.00,-0.0254
1748.00,-0.0256
1747.00,-0.0257
1746.00,-0.0257
1745.00,-0.0257
1744.00,-0.0257
1743.00,-0.0256
1742.00,-0.0256
1741.00,-0.0256
1740.00,-0.0256
1739.00,-0.0255
1738.00,-0.0255
1737.00,-0.0254
1736.00,-0.0253
1735.00,-0.0251
1734.00,-0.0250
1733.00,-0.0249
1732.00,-0.0250
1731.00,-0.0254
1730.00,-0.0258
1729.00,-0.0260
1728.00,-0.0258
1727.00,-0.0257
1726.00,-0.0256
1725.00,-0.0255
1724.00,-0.0255
1723.00,-0.0254
1722.00,-0.0253
1721.00,-0.0252
1720.00,-0.0250
1719.00,-0.0247
1718.00,-0.0243
1717.00,-0.0240
1716.00,-0.0236
1715.00,-0.0233
1714.00,-0.0231
1713.00,-0.0229
1712.00,-0.0223
1711.00,-0.0217
1710.00,-0.0210
1709.00,-0.0201
1708.00,-0.0190
1707.00,-0.0178
1706.00,-0.0163
1705.00,-0.0145
1704.00,-0.0125
1703.00,-0.0106
1702.00,-0.0085
1701.00,-0.0062
1700.00,-0.0041
1699.00,-0.0025
1698.00,-0.0016
1697.00,-0.0011
1696.00,-0.0004
1695.00,0.0004
1694.00,0.0011
1693.00,0.0014
1692.00,0.0016
1691.00,0.0021
1690.00,0.0029
1689.00,0.0038
1688.00,0.0048
1687.00,0.0061
1686.00,0.0076
1685.00,0.0092
1684.00,0.0107
1683.00,0.0120
1682.00,0.0131
1681.00,0.0140
1680.00,0.0151
1679.00,0.0165
1678.00,0.0179
1677.00,0.0195
1676.00,0.0211
1675.00,0.0229
1674.00,0.0245
1673.00,0.0260
1672.00,0.0273
1671.00,0.0288
1670.00,0.0304
1669.00,0.0323
1668.00,0.0342
1667.00,0.0361
1666.00,0.0377
1665.00,0.0393
1664.00,0.0412
1663.00,0.0431
1662.00,0.0449
1661.00,0.0468
1660.00,0.0486
1659.00,0.0503
1658.00,0.0519
1657.00,0.0535
1656.00,0.0552
1655.00,0.0570
1654.00,0.0586
1653.00,0.0599
1652.00,0.0614
1651.00,0.0623
1650.00,0.0622
1649.00,0.0620
1648.00,0.0622
1647.00,0.0627
1646.00,0.0632
1645.00,0.0640
1644.00,0.0647
1643.00,0.0652
1642.00,0.0656
1641.00,0.0662
1640.00,0.0669
1639.00,0.0677
1638.00,0.0686
1637.00,0.0694
1636.00,0.0702
1635.00,0.0710
1634.00,0.0720
1633.00,0.0729
1632.00,0.0737
1631.00,0.0746
1630.00,0.0754
1629.00,0.0761
1628.00,0.0767
1627.00,0.0772
1626.00,0.0776
1625.00,0.0776
1624.00,0.0770
1623.00,0.0758
1622.00,0.0743
1621.00,0.0727
1620.00,0.0712
1619.00,0.0694
1618.00,0.0668
1617.00,0.0632
1616.00,0.0591
1615.00,0.0554
1614.00,0.0521
1613.00,0.0490
1612.00,0.0458
1611.00,0.0424
1610.00,0.0389
1609.00,0.0354
1608.00,0.0320
1607.00,0.0288
1606.00,0.0259
1605.00,0.0232
1604.00,0.0207
1603.00,0.0183
1602.00,0.0162
1601.00,0.0144
1600.00,0.0127
1599.00,0.0113
1598.00,0.0100
1597.00,0.0089
1596.00,0.0077
1595.00,0.0066
1594.00,0.0055
1593.00,0.0046
1592.00,0.0037
1591.00,0.0029
1590.00,0.0021
1589.00,0.0014
1588.00,0.0008
1587.00,0.0004
1586.00,0.0001
1585.00,-0.0001
1584.00,-0.0003
1583.00,-0.0004
1582.00,-0.0003
1581.00,-0.0001
1580.00,0.0001
1579.00,0.0005
1578.00,0.0011
1577.00,0.0019
1576.00,0.0027
1575.00,0.0034
1574.00,0.0040
1573.00,0.0044
1572.00,0.0049
1571.00,0.0057
1570.00,0.0067
1569.00,0.0078
1568.00,0.0090
1567.00,0.0101
1566.00,0.0113
1565.00,0.0126
1564.00,0.0140
1563.00,0.0155
1562.00,0.0171
1561.00,0.0191
1560.00,0.0210
1559.00,0.0226
1558.00,0.0243
1557.00,0.0260
1556.00,0.0273
1555.00,0.0285
1554.00,0.0300
1553.00,0.0317
1552.00,0.0331
1551.00,0.0344
1550.00,0.0358
1549.00,0.0374
1548.00,0.0389
1547.00,0.0403
1546.00,0.0417
1545.00,0.0429
1544.00,0.0441
1543.00,0.0453
1542.00,0.0466
1541.00,0.0477
1540.00,0.0488
1539.00,0.0499
1538.00,0.0510
1537.00,0.0518
1536.00,0.0522
1535.00,0.0527
1534.00,0.0533
1533.00,0.0539
1532.00,0.0546
1531.00,0.0554
1530.00,0.0562
1529.00,0.0569
1528.00,0.0575
1527.00,0.0580
1526.00,0.0586
1525.00,0.0593
1524.00,0.0600
1523.00,0.0608
1522.00,0.0615
1521.00,0.0623
1520.00,0.0631
1519.00,0.0638
1518.00,0.0644
1517.00,0.0648
1516.00,0.0650
1515.00,0.0651
1514.00,0.0649
1513.00,0.0642
1512.00,0.0629
1511.00,0.0615
1510.00,0.0602
1509.00,0.0588
1508.00,0.0568
1507.00,0.0539
1506.00,0.0510
1505.00,0.0491
1504.00,0.0476
1503.00,0.0459
1502.00,0.0441
1501.00,0.0423
1500.00,0.0404
1499.00,0.0385
1498.00,0.0365
1497.00,0.0344
1496.00,0.0322
1495.00,0.0303
1494.00,0.0286
1493.00,0.0270
1492.00,0.0253
1491.00,0.0234
1490.00,0.0213
1489.00,0.0194
1488.00,0.0178
1487.00,0.0166
1486.00,0.0155
1485.00,0.0145
1484.00,0.0136
1483.00,0.0127
1482.00,0.0118
1481.00,0.0110
1480.00,0.0104
1479.00,0.0101
1478.00,0.0101
1477.00,0.0105
1476.00,0.0114
1475.00,0.0128
1474.00,0.0141
1473.00,0.0147
1472.00,0.0141
1471.00,0.0129
1470.00,0.0117
1469.00,0.0108
1468.00,0.0104
1467.00,0.0108
1466.00,0.0119
1465.00,0.0137
1464.00,0.0154
1463.00,0.0166
1462.00,0.0170
1461.00,0.0169
1460.00,0.0168
1459.00,0.0168
1458.00,0.0168
1457.00,0.0169
1456.00,0.0173
1455.00,0.0176
1454.00,0.0177
1453.00,0.0177
1452.00,0.0179
1451.00,0.0182
1450.00,0.0184
1449.00,0.0184
1448.00,0.0183
1447.00,0.0180
1446.00,0.0177
1445.00,0.0174
1444.00,0.0169
1443.00,0.0163
1442.00,0.0157
1441.00,0.0150
1440.00,0.0143
1439.00,0.0136
1438.00,0.0127
1437.00,0.0115
1436.00,0.0100
1435.00,0.0087
1434.00,0.0077
1433.00,0.0067
1432.00,0.0058
1431.00,0.0049
1430.00,0.0042
1429.00,0.0036
1428.00,0.0033
1427.00,0.0031
1426.00,0.0031
1425.00,0.0030
1424.00,0.0030
1423.00,0.0033
1422.00,0.0037
1421.00,0.0044
1420.00,0.0050
1419.00,0.0055
1418.00,0.0060
1417.00,0.0066
1416.00,0.0073
1415.00,0.0081
1414.00,0.0091
1413.00,0.0100
1412.00,0.0109
1411.00,0.0119
1410.00,0.0129
1409.00,0.0140
1408.00,0.0151
1407.00,0.0161
1406.00,0.0173
1405.00,0.0186
1404.00,0.0201
1403.00,0.0218
1402.00,0.0236
1401.00,0.0254
1400.00,0.0273
1399.00,0.0292
1398.00,0.0310
1397.00,0.0328
1396.00,0.0346
1395.00,0.0363
1394.00,0.0377
1393.00,0.0385
1392.00,0.0389
1391.00,0.0389
1390.00,0.0390
1389.00,0.0392
1388.00,0.0396
1387.00,0.0400
1386.00,0.0403
1385.00,0.0408
1384.00,0.0412
1383.00,0.0416
1382.00,0.0416
1381.00,0.0410
1380.00,0.0399
1379.00,0.0384
1378.00,0.0367
1377.00,0.0350
1376.00,0.0334
1375.00,0.0316
1374.00,0.0299
1373.00,0.0283
1372.00,0.0267
1371.00,0.0250
1370.00,0.0232
1369.00,0.0213
1368.00,0.0194
1367.00,0.0178
1366.00,0.0162
1365.00,0.0147
1364.00,0.0132
1363.00,0.0116
1362.00,0.0101
1361.00,0.0090
1360.00,0.0081
1359.00,0.0073
1358.00,0.0066
1357.00,0.0059
1356.00,0.0053
1355.00,0.0045
1354.00,0.0039
1353.00,0.0033
1352.00,0.0028
1351.00,0.0024
1350.00,0.0021
1349.00,0.0019
1348.00,0.0017
1347.00,0.0015
1346.00,0.0013
1345.00,0.0012
1344.00,0.0012
1343.00,0.0011
1342.00,0.0010
1341.00,0.0007
1340.00,0.0004
1339.00,0.0000
1338.00,-0.0002
1337.00,-0.0004
1336.00,-0.0005
1335.00,-0.0007
1334.00,-0.0010
1333.00,-0.0013
1332.00,-0.0017
1331.00,-0.0021
1330.00,-0.0025
1329.00,-0.0030
1328.00,-0.0035
1327.00,-0.0040
1326.00,-0.0045
1325.00,-0.0049
1324.00,-0.0053
1323.00,-0.0057
1322.00,-0.0060
1321.00,-0.0063
1320.00,-0.0065
1319.00,-0.0068
1318.00,-0.0069
1317.00,-0.0070
1316.00,-0.0071
1315.00,-0.0072
1314.00,-0.0072
1313.00,-0.0072
1312.00,-0.0072
1311.00,-0.0072
1310.00,-0.0071
1309.00,-0.0071
1308.00,-0.0070
1307.00,-0.0070
1306.00,-0.0069
1305.00,-0.0069
1304.00,-0.0068
1303.00,-0.0067
1302.00,-0.0067
1301.00,-0.0066
1300.00,-0.0065
1299.00,-0.0065
1298.00,-0.0064
1297.00,-0.0063
1296.00,-0.0062
1295.00,-0.0060
1294.00,-0.0058
1293.00,-0.0056
1292.00,-0.0053
1291.00,-0.0050
1290.00,-0.0047
1289.00,-0.0043
1288.00,-0.0039
1287.00,-0.0036
1286.00,-0.0031
1285.00,-0.0027
1284.00,-0.0022
1283.00,-0.0016
1282.00,-0.0010
1281.00,-0.0003
1280.00,0.0004
1279.00,0.0013
1278.00,0.0023
1277.00,0.0035
1276.00,0.0047
1275.00,0.0061
1274.00,0.0075
1273.00,0.0090
1272.00,0.0106
1271.00,0.0122
1270.00,0.0138
1269.00,0.0153
1268.00,0.0168
1267.00,0.0182
1266.00,0.0194
1265.00,0.0205
1264.00,0.0214
1263.00,0.0221
1262.00,0.0226
1261.00,0.0229
1260.00,0.0233
1259.00,0.0236
1258.00,0.0242
1257.00,0.0249
1256.00,0.0257
1255.00,0.0267
1254.00,0.0277
1253.00,0.0286
1252.00,0.0293
1251.00,0.0295
1250.00,0.0294
1249.00,0.0288
1248.00,0.0282
1247.00,0.0276
1246.00,0.0272
1245.00,0.0270
1244.00,0.0271
1243.00,0.0273
1242.00,0.0276
1241.00,0.0278
1240.00,0.0279
1239.00,0.0279
1238.00,0.0279
1237.00,0.0277
1236.00,0.0273
1235.00,0.0269
1234.00,0.0263
1233.00,0.0256
1232.00,0.0248
1231.00,0.0238
1230.00,0.0228
1229.00,0.0216
1228.00,0.0203
1227.00,0.0190
1226.00,0.0176
1225.00,0.0163
1224.00,0.0149
1223.00,0.0135
1222.00,0.0121
1221.00,0.0108
1220.00,0.0095
1219.00,0.0082
1218.00,0.0070
1217.00,0.0057
1216.00,0.0045
1215.00,0.0033
1214.00,0.0021
1213.00,0.0009
1212.00,-0.0003
1211.00,-0.0014
1210.00,-0.0025
1209.00,-0.0035
1208.00,-0.0044
1207.00,-0.0053
1206.00,-0.0062
1205.00,-0.0070
1204.00,-0.0078
1203.00,-0.0085
1202.00,-0.0091
1201.00,-0.0097
1200.00,-0.0101
1199.00,-0.0105
1198.00,-0.0108
1197.00,-0.0109
1196.00,-0.0110
1195.00,-0.0111
1194.00,-0.0110
1193.00,-0.0108
1192.00,-0.0105
1191.00,-0.0100
1190.00,-0.0095
1189.00,-0.0088
1188.00,-0.0081
1187.00,-0.0072
1186.00,-0.0063
1185.00,-0.0053
1184.00,-0.0041
1183.00,-0.0029
1182.00,-0.0017
1181.00,-0.0004
1180.00,0.0010
1179.00,0.0024
1178.00,0.0038
1177.00,0.0053
1176.00,0.0068
1175.00,0.0083
1174.00,0.0098
1173.00,0.0112
1172.00,0.0126
1171.00,0.0140
1170.00,0.0153
1169.00,0.0164
1168.00,0.0174
1167.00,0.0183
1166.00,0.0192
1165.00,0.0201
1164.00,0.0209
1163.00,0.0215
1162.00,0.0219
1161.00,0.0222
1160.00,0.0225
1159.00,0.0228
1158.00,0.0230
1157.00,0.0232
1156.00,0.0233
1155.00,0.0233
1154.00,0.0231
1153.00,0.0229
1152.00,0.0225
1151.00,0.0219
1150.00,0.0212
1149.00,0.0203
1148.00,0.0192
1147.00,0.0179
1146.00,0.0167
1145.00,0.0154
1144.00,0.0142
1143.00,0.0131
1142.00,0.0120
1141.00,0.0111
1140.00,0.0103
1139.00,0.0096
1138.00,0.0088
1137.00,0.0079
1136.00,0.0069
1135.00,0.0058
1134.00,0.0049
1133.00,0.0042
1132.00,0.0036
1131.00,0.0030
1130.00,0.0024
1129.00,0.0017
1128.00,0.0010
1127.00,0.0002
1126.00,-0.0006
1125.00,-0.0013
1124.00,-0.0021
1123.00,-0.0029
1122.00,-0.0037
1121.00,-0.0044
1120.00,-0.0051
1119.00,-0.0058
1118.00,-0.0065
1117.00,-0.0072
1116.00,-0.0078
1115.00,-0.0085
1114.00,-0.0090
1113.00,-0.0096
1112.00,-0.0100
1111.00,-0.0104
1110.00,-0.0108
1109.00,-0.0110
1108.00,-0.0112
1107.00,-0.0113
1106.00,-0.0112
1105.00,-0.0111
1104.00,-0.0110
1103.00,-0.0107
1102.00,-0.0104
1101.00,-0.0100
1100.00,-0.0095
1099.00,-0.0089
1098.00,-0.0082
1097.00,-0.0074
1096.00,-0.0066
1095.00,-0.0056
1094.00,-0.0047
1093.00,-0.0036
1092.00,-0.0025
1091.00,-0.0015
1090.00,-0.0006
1089.00,0.0001
1088.00,0.0007
1087.00,0.0011
1086.00,0.0016
1085.00,0.0021
1084.00,0.0026
1083.00,0.0032
1082.00,0.0037
1081.00,0.0042
1080.00,0.0045
1079.00,0.0049
1078.00,0.0051
1077.00,0.0054
1076.00,0.0057
1075.00,0.0061
1074.00,0.0066
1073.00,0.0068
1072.00,0.0068
1071.00,0.0064
1070.00,0.0057
1069.00,0.0048
1068.00,0.0037
1067.00,0.0026
1066.00,0.0014
1065.00,0.0004
1064.00,-0.0006
1063.00,-0.0013
1062.00,-0.0020
1061.00,-0.0027
1060.00,-0.0035
1059.00,-0.0045
1058.00,-0.0056
1057.00,-0.0068
1056.00,-0.0080
1055.00,-0.0092
1054.00,-0.0104
1053.00,-0.0116
1052.00,-0.0129
1051.00,-0.0141
1050.00,-0.0153
1049.00,-0.0165
1048.00,-0.0176
1047.00,-0.0187
1046.00,-0.0197
1045.00,-0.0208
1044.00,-0.0218
1043.00,-0.0227
1042.00,-0.0235
1041.00,-0.0242
1040.00,-0.0249
1039.00,-0.0255
1038.00,-0.0261
1037.00,-0.0266
1036.00,-0.0270
1035.00,-0.0274
1034.00,-0.0277
1033.00,-0.0279
1032.00,-0.0282
1031.00,-0.0284
1030.00,-0.0286
1029.00,-0.0287
1028.00,-0.0289
1027.00,-0.0290
1026.00,-0.0291
1025.00,-0.0291
1024.00,-0.0292
1023.00,-0.0292
1022.00,-0.0291
1021.00,-0.0290
1020.00,-0.0288
1019.00,-0.0286
1018.00,-0.0283
1017.00,-0.0282
1016.00,-0.0281
1015.00,-0.0280
1014.00,-0.0280
1013.00,-0.0280
1012.00,-0.0281
1011.00,-0.0282
1010.00,-0.0283
1009.00,-0.0285
1008.00,-0.0287
1007.00,-0.0287
1006.00,-0.0288
1005.00,-0.0288
1004.00,-0.0287
1003.00,-0.0287
1002.00,-0.0287
1001.00,-0.0287
1000.00,-0.0288
999.00,-0.0288
998.00,-0.0290
997.00,-0.0292
996.00,-0.0294
995.00,-0.0297
994.00,-0.0299
993.00,-0.0302
992.00,-0.0304
991.00,-0.0306
990.00,-0.0307
989.00,-0.0307
988.00,-0.0307
987.00,-0.0304
986.00,-0.0301
985.00,-0.0296
984.00,-0.0290
983.00,-0.0282
982.00,-0.0272
981.00,-0.0260
980.00,-0.0246
979.00,-0.0229
978.00,-0.0211
977.00,-0.0191
976.00,-0.0170
975.00,-0.0147
974.00,-0.0123
973.00,-0.0099
972.00,-0.0076
971.00,-0.0054
970.00,-0.0035
969.00,-0.0019
968.00,-0.0008
967.00,0.0000
966.00,0.0003
965.00,0.0002
964.00,-0.0002
963.00,-0.0006
962.00,-0.0008
961.00,-0.0005
960.00,0.0004
959.00,0.0019
958.00,0.0033
957.00,0.0043
956.00,0.0047
955.00,0.0047
954.00,0.0047
953.00,0.0045
952.00,0.0040
951.00,0.0031
950.00,0.0019
949.00,0.0007
948.00,-0.0004
947.00,-0.0013
946.00,-0.0019
945.00,-0.0024
944.00,-0.0028
943.00,-0.0034
942.00,-0.0041
941.00,-0.0050
940.00,-0.0060
939.00,-0.0072
938.00,-0.0087
937.00,-0.0103
936.00,-0.0121
935.00,-0.0139
934.00,-0.0157
933.00,-0.0174
932.00,-0.0191
931.00,-0.0207
930.00,-0.0223
929.00,-0.0237
928.00,-0.0250
927.00,-0.0263
926.00,-0.0275
925.00,-0.0285
924.00,-0.0295
923.00,-0.0304
922.00,-0.0312
921.00,-0.0320
920.00,-0.0327
919.00,-0.0334
918.00,-0.0340
917.00,-0.0345
916.00,-0.0350
915.00,-0.0354
914.00,-0.0358
913.00,-0.0361
912.00,-0.0365
911.00,-0.0367
910.00,-0.0369
909.00,-0.0372
908.00,-0.0374
907.00,-0.0376
906.00,-0.0377
905.00,-0.0379
904.00,-0.0380
903.00,-0.0382
902.00,-0.0383
901.00,-0.0384
900.00,-0.0385
899.00,-0.0385
898.00,-0.0386
897.00,-0.0387
896.00,-0.0388
895.00,-0.0389
894.00,-0.0390
893.00,-0.0391
892.00,-0.0392
891.00,-0.0393
890.00,-0.0394
889.00,-0.0394
888.00,-0.0395
887.00,-0.0395
886.00,-0.0396
885.00,-0.0396
884.00,-0.0396
883.00,-0.0397
882.00,-0.0397
881.00,-0.0398
880.00,-0.0399
879.00,-0.0399
878.00,-0.0399
877.00,-0.0400
876.00,-0.0401
875.00,-0.0401
874.00,-0.0402
873.00,-0.0402
872.00,-0.0401
871.00,-0.0401
870.00,-0.0401
869.00,-0.0400
868.00,-0.0400
867.00,-0.0400
866.00,-0.0399
865.00,-0.0398
864.00,-0.0396
863.00,-0.0395
862.00,-0.0394
861.00,-0.0392
860.00,-0.0390
859.00,-0.0388
858.00,-0.0386
857.00,-0.0384
856.00,-0.0382
855.00,-0.0379
854.00,-0.0377
853.00,-0.0375
852.00,-0.0373
851.00,-0.0372
850.00,-0.0371
849.00,-0.0371
848.00,-0.0371
847.00,-0.0371
846.00,-0.0369
845.00,-0.0368
844.00,-0.0366
843.00,-0.0364
842.00,-0.0362
841.00,-0.0358
840.00,-0.0354
839.00,-0.0349
838.00,-0.0344
837.00,-0.0338
836.00,-0.0333
835.00,-0.0327
834.00,-0.0322
833.00,-0.0317
832.00,-0.0312
831.00,-0.0308
830.00,-0.0305
829.00,-0.0303
828.00,-0.0302
827.00,-0.0302
826.00,-0.0304
825.00,-0.0305
824.00,-0.0305
823.00,-0.0305
822.00,-0.0304
821.00,-0.0302
820.00,-0.0301
819.00,-0.0301
818.00,-0.0300
817.00,-0.0298
816.00,-0.0297
815.00,-0.0297
814.00,-0.0298
813.00,-0.0300
812.00,-0.0301
811.00,-0.0301
810.00,-0.0301
809.00,-0.0301
808.00,-0.0301
807.00,-0.0301
806.00,-0.0301
805.00,-0.0301
804.00,-0.0302
803.00,-0.0303
802.00,-0.0304
801.00,-0.0305
800.00,-0.0306
799.00,-0.0308
798.00,-0.0310
797.00,-0.0313
796.00,-0.0315
795.00,-0.0317
794.00,-0.0318
793.00,-0.0319
792.00,-0.0320
791.00,-0.0321
790.00,-0.0322
789.00,-0.0322
788.00,-0.0322
787.00,-0.0322
786.00,-0.0321
785.00,-0.0320
784.00,-0.0319
783.00,-0.0318
782.00,-0.0318
781.00,-0.0317
780.00,-0.0316
779.00,-0.0314
778.00,-0.0312
777.00,-0.0310
776.00,-0.0308
775.00,-0.0305
774.00,-0.0303
773.00,-0.0301
772.00,-0.0299
771.00,-0.0297
770.00,-0.0295
769.00,-0.0293
768.00,-0.0292
767.00,-0.0290
766.00,-0.0288
765.00,-0.0287
764.00,-0.0285
763.00,-0.0284
762.00,-0.0282
761.00,-0.0281
760.00,-0.0279
759.00,-0.0276
758.00,-0.0274
757.00,-0.0271
756.00,-0.0268
755.00,-0.0266
754.00,-0.0263
753.00,-0.0261
752.00,-0.0259
751.00,-0.0256
750.00,-0.0253
749.00,-0.0249
748.00,-0.0245
747.00,-0.0242
746.00,-0.0238
745.00,-0.0235
744.00,-0.0231
743.00,-0.0228
742.00,-0.0224
741.00,-0.0219
740.00,-0.0214
739.00,-0.0209
738.00,-0.0204
737.00,-0.0200
736.00,-0.0195
735.00,-0.0191
734.00,-0.0186
733.00,-0.0181
732.00,-0.0175
731.00,-0.0170
730.00,-0.0165
729.00,-0.0160
728.00,-0.0155
727.00,-0.0151
726.00,-0.0146
725.00,-0.0141
724.00,-0.0136
723.00,-0.0131
722.00,-0.0126
721.00,-0.0121
720.00,-0.0117
719.00,-0.0112
718.00,-0.0108
717.00,-0.0105
716.00,-0.0101
715.00,-0.0098
714.00,-0.0094
713.00,-0.0090
712.00,-0.0087
711.00,-0.0083
710.00,-0.0079
709.00,-0.0075
708.00,-0.0071
707.00,-0.0068
706.00,-0.0064
705.00,-0.0061
704.00,-0.0057
703.00,-0.0053
702.00,-0.0050
701.00,-0.0047
700.00,-0.0045
699.00,-0.0042
698.00,-0.0040
697.00,-0.0037
696.00,-0.0035
695.00,-0.0034
694.00,-0.0033
693.00,-0.0032
692.00,-0.0031
691.00,-0.0030
690.00,-0.0028
689.00,-0.0027
688.00,-0.0025
687.00,-0.0024
686.00,-0.0022
685.00,-0.0021
684.00,-0.0020
683.00,-0.0019
682.00,-0.0019
681.00,-0.0018
680.00,-0.0016
679.00,-0.0015
678.00,-0.0014
677.00,-0.0014
676.00,-0.0014
675.00,-0.0013
674.00,-0.0012
673.00,-0.0011
672.00,-0.0009
671.00,-0.0007
670.00,-0.0006
669.00,-0.0006
668.00,-0.0009
667.00,-0.0011
666.00,-0.0010
665.00,-0.0006
664.00,-0.0002
663.00,0.0001
662.00,0.0003
661.00,0.0005
660.00,0.0006
659.00,0.0007
658.00,0.0009
657.00,0.0010
656.00,0.0011
655.00,0.0012
654.00,0.0012
653.00,0.0012
652.00,0.0013
651.00,0.0015
650.00,0.0016
649.00,0.0018
648.00,0.0019
647.00,0.0020
646.00,0.0021
645.00,0.0022
644.00,0.0023
643.00,0.0024
642.00,0.0024
641.00,0.0025
640.00,0.0026
639.00,0.0026
638.00,0.0026
637.00,0.0026
636.00,0.0026
635.00,0.0025
634.00,0.0025
633.00,0.0024
632.00,0.0023
631.00,0.0022
630.00,0.0022
629.00,0.0022
628.00,0.0022
627.00,0.0021
626.00,0.0021
625.00,0.0022
624.00,0.0023
623.00,0.0023
622.00,0.0025
621.00,0.0026
620.00,0.0029
619.00,0.0031
618.00,0.0033
617.00,0.0036
616.00,0.0039
615.00,0.0041
614.00,0.0041
613.00,0.0042
612.00,0.0041
611.00,0.0040
610.00,0.0039
609.00,0.0038
608.00,0.0036
607.00,0.0032
606.00,0.0028
605.00,0.0023
604.00,0.0019
603.00,0.0016
602.00,0.0014
601.00,0.0011
600.00,0.0008
599.00,0.0006
598.00,0.0004
597.00,0.0003
596.00,0.0002
595.00,0.0001
594.00,-0.0001
593.00,-0.0003
592.00,-0.0004
591.00,-0.0005
590.00,-0.0005
589.00,-0.0005
588.00,-0.0005
587.00,-0.0005
586.00,-0.0005
585.00,-0.0004
584.00,-0.0002
583.00,-0.0001
582.00,-0.0001
581.00,-0.0001
580.00,-0.0001
579.00,-0.0000
578.00,0.0001
577.00,0.0003
576.00,0.0005
575.00,0.0007
574.00,0.0009
573.00,0.0012
572.00,0.0014
571.00,0.0016
570.00,0.0017
569.00,0.0020
568.00,0.0023
567.00,0.0027
566.00,0.0030
565.00,0.0034
564.00,0.0039
563.00,0.0045
562.00,0.0051
561.00,0.0056
560.00,0.0062
559.00,0.0069
558.00,0.0075
557.00,0.0080
556.00,0.0085
555.00,0.0089
554.00,0.0092
553.00,0.0095
552.00,0.0097
551.00,0.0098
550.00,0.0099
549.00,0.0099
548.00,0.0097
547.00,0.0094
546.00,0.0090
545.00,0.0085
544.00,0.0081
543.00,0.0077
542.00,0.0072
541.00,0.0069
540.00,0.0066
539.00,0.0062
538.00,0.0058
537.00,0.0054
536.00,0.0050
535.00,0.0048
534.00,0.0044
533.00,0.0040
532.00,0.0037
531.00,0.0035
530.00,0.0034
529.00,0.0031
528.00,0.0028
527.00,0.0024
526.00,0.0020
525.00,0.0017
524.00,0.0017
523.00,0.0018
522.00,0.0019
521.00,0.0019
520.00,0.0018
519.00,0.0016
518.00,0.0014
517.00,0.0011
516.00,0.0009
515.00,0.0007
514.00,0.0005
513.00,0.0003
512.00,0.0002
511.00,0.0001
510.00,-0.0001
509.00,-0.0002
508.00,-0.0004
507.00,-0.0005
506.00,-0.0006
505.00,-0.0005
504.00,-0.0006
503.00,-0.0009
502.00,-0.0013
501.00,-0.0016
500.00,-0.0016
499.00,-0.0014
498.00,-0.0012
497.00,-0.0012
496.00,-0.0013
495.00,-0.0016
494.00,-0.0019
493.00,-0.0021
492.00,-0.0021
491.00,-0.0020
490.00,-0.0019
489.00,-0.0019
488.00,-0.0019
487.00,-0.0019
486.00,-0.0019
485.00,-0.0021
484.00,-0.0025
483.00,-0.0029
482.00,-0.0032
481.00,-0.0035
480.00,-0.0036
479.00,-0.0037
478.00,-0.0038
477.00,-0.0039
476.00,-0.0042
475.00,-0.0046
474.00,-0.0052
473.00,-0.0058
472.00,-0.0063
471.00,-0.0068
470.00,-0.0072
469.00,-0.0075
468.00,-0.0076
467.00,-0.0076
466.00,-0.0074
465.00,-0.0072
464.00,-0.0071
463.00,-0.0072
462.00,-0.0074
461.00,-0.0076
460.00,-0.0078
459.00,-0.0081
458.00,-0.0086
457.00,-0.0091
456.00,-0.0094
455.00,-0.0094
454.00,-0.0095
453.00,-0.0099
452.00,-0.0103
451.00,-0.0104
450.00,-0.0103
449.00,-0.0100
448.00,-0.0098
447.00,-0.0096
446.00,-0.0096
445.00,-0.0097
444.00,-0.0100
443.00,-0.0099
442.00,-0.0096
441.00,-0.0092
440.00,-0.0090
439.00,-0.0089
438.00,-0.0088
437.00,-0.0086
436.00,-0.0084
435.00,-0.0080
434.00,-0.0074
433.00,-0.0066
432.00,-0.0059
431.00,-0.0052
430.00,-0.0046
429.00,-0.0040
428.00,-0.0034
427.00,-0.0030
426.00,-0.0029
425.00,-0.0031
424.00,-0.0033
423.00,-0.0036
422.00,-0.0039
421.00,-0.0044
420.00,-0.0051
419.00,-0.0058
418.00,-0.0058
417.00,-0.0054
416.00,-0.0050
415.00,-0.0048
414.00,-0.0051
413.00,-0.0059
412.00,-0.0070
411.00,-0.0081
410.00,-0.0089
409.00,-0.0094
408.00,-0.0099
407.00,-0.0102
406.00,-0.0102
405.00,-0.0100
404.00,-0.0099
403.00,-0.0103
402.00,-0.0112
401.00,-0.0124
400.00,-0.0139
