Created as New Dataset,Sample 470 By YargerLab Date Saturday, March 01 2025
cm-1,A
4000.00,-0.0097
3999.00,-0.0097
3998.00,-0.0097
3997.00,-0.0097
3996.00,-0.0097
3995.00,-0.0097
3994.00,-0.0097
3993.00,-0.0097
3992.00,-0.0097
3991.00,-0.0097
3990.00,-0.0097
3989.00,-0.0098
3988.00,-0.0098
3987.00,-0.0098
3986.00,-0.0098
3985.00,-0.0098
3984.00,-0.0098
3983.00,-0.0098
3982.00,-0.0097
3981.00,-0.0097
3980.00,-0.0097
3979.00,-0.0097
3978.00,-0.0097
3977.00,-0.0097
3976.00,-0.0097
3975.00,-0.0098
3974.00,-0.0098
3973.00,-0.0098
3972.00,-0.0098
3971.00,-0.0098
3970.00,-0.0098
3969.00,-0.0098
3968.00,-0.0098
3967.00,-0.0098
3966.00,-0.0098
3965.00,-0.0098
3964.00,-0.0098
3963.00,-0.0099
3962.00,-0.0099
3961.00,-0.0099
3960.00,-0.0099
3959.00,-0.0099
3958.00,-0.0098
3957.00,-0.0098
3956.00,-0.0099
3955.00,-0.0099
3954.00,-0.0099
3953.00,-0.0099
3952.00,-0.0099
3951.00,-0.0099
3950.00,-0.0099
3949.00,-0.0099
3948.00,-0.0099
3947.00,-0.0099
3946.00,-0.0099
3945.00,-0.0098
3944.00,-0.0098
3943.00,-0.0099
3942.00,-0.0099
3941.00,-0.0099
3940.00,-0.0099
3939.00,-0.0099
3938.00,-0.0099
3937.00,-0.0100
3936.00,-0.0100
3935.00,-0.0100
3934.00,-0.0100
3933.00,-0.0100
3932.00,-0.0099
3931.00,-0.0099
3930.00,-0.0099
3929.00,-0.0099
3928.00,-0.0099
3927.00,-0.0100
3926.00,-0.0100
3925.00,-0.0100
3924.00,-0.0100
3923.00,-0.0100
3922.00,-0.0099
3921.00,-0.0100
3920.00,-0.0100
3919.00,-0.0100
3918.00,-0.0101
3917.00,-0.0101
3916.00,-0.0101
3915.00,-0.0100
3914.00,-0.0100
3913.00,-0.0100
3912.00,-0.0100
3911.00,-0.0100
3910.00,-0.0100
3909.00,-0.0101
3908.00,-0.0101
3907.00,-0.0101
3906.00,-0.0101
3905.00,-0.0101
3904.00,-0.0101
3903.00,-0.0102
3902.00,-0.0102
3901.00,-0.0102
3900.00,-0.0102
3899.00,-0.0102
3898.00,-0.0102
3897.00,-0.0102
3896.00,-0.0102
3895.00,-0.0102
3894.00,-0.0102
3893.00,-0.0102
3892.00,-0.0102
3891.00,-0.0102
3890.00,-0.0102
3889.00,-0.0102
3888.00,-0.0102
3887.00,-0.0102
3886.00,-0.0102
3885.00,-0.0102
3884.00,-0.0102
3883.00,-0.0102
3882.00,-0.0102
3881.00,-0.0102
3880.00,-0.0102
3879.00,-0.0101
3878.00,-0.0101
3877.00,-0.0101
3876.00,-0.0102
3875.00,-0.0102
3874.00,-0.0102
3873.00,-0.0103
3872.00,-0.0103
3871.00,-0.0102
3870.00,-0.0103
3869.00,-0.0103
3868.00,-0.0103
3867.00,-0.0103
3866.00,-0.0103
3865.00,-0.0103
3864.00,-0.0103
3863.00,-0.0103
3862.00,-0.0103
3861.00,-0.0103
3860.00,-0.0104
3859.00,-0.0104
3858.00,-0.0104
3857.00,-0.0103
3856.00,-0.0103
3855.00,-0.0103
3854.00,-0.0103
3853.00,-0.0103
3852.00,-0.0103
3851.00,-0.0103
3850.00,-0.0103
3849.00,-0.0103
3848.00,-0.0104
3847.00,-0.0104
3846.00,-0.0104
3845.00,-0.0104
3844.00,-0.0104
3843.00,-0.0105
3842.00,-0.0105
3841.00,-0.0105
3840.00,-0.0105
3839.00,-0.0105
3838.00,-0.0105
3837.00,-0.0104
3836.00,-0.0105
3835.00,-0.0105
3834.00,-0.0105
3833.00,-0.0105
3832.00,-0.0106
3831.00,-0.0106
3830.00,-0.0105
3829.00,-0.0105
3828.00,-0.0105
3827.00,-0.0104
3826.00,-0.0104
3825.00,-0.0104
3824.00,-0.0105
3823.00,-0.0105
3822.00,-0.0105
3821.00,-0.0106
3820.00,-0.0105
3819.00,-0.0105
3818.00,-0.0105
3817.00,-0.0105
3816.00,-0.0105
3815.00,-0.0105
3814.00,-0.0105
3813.00,-0.0105
3812.00,-0.0106
3811.00,-0.0106
3810.00,-0.0106
3809.00,-0.0106
3808.00,-0.0106
3807.00,-0.0106
3806.00,-0.0106
3805.00,-0.0106
3804.00,-0.0106
3803.00,-0.0106
3802.00,-0.0106
3801.00,-0.0105
3800.00,-0.0105
3799.00,-0.0105
3798.00,-0.0106
3797.00,-0.0106
3796.00,-0.0106
3795.00,-0.0106
3794.00,-0.0107
3793.00,-0.0107
3792.00,-0.0107
3791.00,-0.0107
3790.00,-0.0107
3789.00,-0.0107
3788.00,-0.0107
3787.00,-0.0107
3786.00,-0.0107
3785.00,-0.0106
3784.00,-0.0106
3783.00,-0.0106
3782.00,-0.0106
3781.00,-0.0107
3780.00,-0.0107
3779.00,-0.0107
3778.00,-0.0107
3777.00,-0.0107
3776.00,-0.0107
3775.00,-0.0108
3774.00,-0.0108
3773.00,-0.0108
3772.00,-0.0108
3771.00,-0.0108
3770.00,-0.0108
3769.00,-0.0107
3768.00,-0.0107
3767.00,-0.0107
3766.00,-0.0107
3765.00,-0.0107
3764.00,-0.0108
3763.00,-0.0108
3762.00,-0.0108
3761.00,-0.0108
3760.00,-0.0109
3759.00,-0.0108
3758.00,-0.0108
3757.00,-0.0108
3756.00,-0.0107
3755.00,-0.0107
3754.00,-0.0107
3753.00,-0.0107
3752.00,-0.0108
3751.00,-0.0108
3750.00,-0.0108
3749.00,-0.0108
3748.00,-0.0108
3747.00,-0.0108
3746.00,-0.0108
3745.00,-0.0108
3744.00,-0.0108
3743.00,-0.0108
3742.00,-0.0108
3741.00,-0.0109
3740.00,-0.0109
3739.00,-0.0109
3738.00,-0.0110
3737.00,-0.0110
3736.00,-0.0110
3735.00,-0.0110
3734.00,-0.0110
3733.00,-0.0110
3732.00,-0.0110
3731.00,-0.0110
3730.00,-0.0110
3729.00,-0.0110
3728.00,-0.0110
3727.00,-0.0110
3726.00,-0.0110
3725.00,-0.0110
3724.00,-0.0110
3723.00,-0.0110
3722.00,-0.0110
3721.00,-0.0110
3720.00,-0.0110
3719.00,-0.0110
3718.00,-0.0110
3717.00,-0.0110
3716.00,-0.0110
3715.00,-0.0110
3714.00,-0.0110
3713.00,-0.0111
3712.00,-0.0110
3711.00,-0.0110
3710.00,-0.0110
3709.00,-0.0110
3708.00,-0.0110
3707.00,-0.0110
3706.00,-0.0110
3705.00,-0.0110
3704.00,-0.0110
3703.00,-0.0110
3702.00,-0.0110
3701.00,-0.0110
3700.00,-0.0110
3699.00,-0.0111
3698.00,-0.0111
3697.00,-0.0111
3696.00,-0.0111
3695.00,-0.0111
3694.00,-0.0111
3693.00,-0.0112
3692.00,-0.0112
3691.00,-0.0112
3690.00,-0.0112
3689.00,-0.0112
3688.00,-0.0113
3687.00,-0.0113
3686.00,-0.0113
3685.00,-0.0113
3684.00,-0.0113
3683.00,-0.0114
3682.00,-0.0114
3681.00,-0.0115
3680.00,-0.0115
3679.00,-0.0115
3678.00,-0.0116
3677.00,-0.0116
3676.00,-0.0117
3675.00,-0.0117
3674.00,-0.0117
3673.00,-0.0117
3672.00,-0.0117
3671.00,-0.0117
3670.00,-0.0117
3669.00,-0.0117
3668.00,-0.0117
3667.00,-0.0117
3666.00,-0.0117
3665.00,-0.0117
3664.00,-0.0117
3663.00,-0.0117
3662.00,-0.0116
3661.00,-0.0116
3660.00,-0.0116
3659.00,-0.0117
3658.00,-0.0117
3657.00,-0.0117
3656.00,-0.0118
3655.00,-0.0117
3654.00,-0.0117
3653.00,-0.0117
3652.00,-0.0116
3651.00,-0.0116
3650.00,-0.0116
3649.00,-0.0116
3648.00,-0.0116
3647.00,-0.0116
3646.00,-0.0115
3645.00,-0.0115
3644.00,-0.0114
3643.00,-0.0114
3642.00,-0.0113
3641.00,-0.0113
3640.00,-0.0112
3639.00,-0.0112
3638.00,-0.0112
3637.00,-0.0112
3636.00,-0.0112
3635.00,-0.0112
3634.00,-0.0111
3633.00,-0.0110
3632.00,-0.0109
3631.00,-0.0109
3630.00,-0.0108
3629.00,-0.0108
3628.00,-0.0108
3627.00,-0.0107
3626.00,-0.0107
3625.00,-0.0107
3624.00,-0.0107
3623.00,-0.0106
3622.00,-0.0106
3621.00,-0.0106
3620.00,-0.0105
3619.00,-0.0105
3618.00,-0.0105
3617.00,-0.0105
3616.00,-0.0104
3615.00,-0.0105
3614.00,-0.0105
3613.00,-0.0105
3612.00,-0.0105
3611.00,-0.0105
3610.00,-0.0105
3609.00,-0.0105
3608.00,-0.0105
3607.00,-0.0105
3606.00,-0.0104
3605.00,-0.0104
3604.00,-0.0104
3603.00,-0.0103
3602.00,-0.0103
3601.00,-0.0103
3600.00,-0.0102
3599.00,-0.0102
3598.00,-0.0102
3597.00,-0.0102
3596.00,-0.0102
3595.00,-0.0101
3594.00,-0.0101
3593.00,-0.0101
3592.00,-0.0101
3591.00,-0.0101
3590.00,-0.0100
3589.00,-0.0100
3588.00,-0.0100
3587.00,-0.0100
3586.00,-0.0100
3585.00,-0.0100
3584.00,-0.0100
3583.00,-0.0100
3582.00,-0.0100
3581.00,-0.0100
3580.00,-0.0100
3579.00,-0.0100
3578.00,-0.0099
3577.00,-0.0099
3576.00,-0.0098
3575.00,-0.0098
3574.00,-0.0098
3573.00,-0.0097
3572.00,-0.0097
3571.00,-0.0097
3570.00,-0.0097
3569.00,-0.0097
3568.00,-0.0097
3567.00,-0.0097
3566.00,-0.0097
3565.00,-0.0097
3564.00,-0.0097
3563.00,-0.0096
3562.00,-0.0096
3561.00,-0.0096
3560.00,-0.0096
3559.00,-0.0095
3558.00,-0.0095
3557.00,-0.0095
3556.00,-0.0095
3555.00,-0.0095
3554.00,-0.0095
3553.00,-0.0094
3552.00,-0.0094
3551.00,-0.0094
3550.00,-0.0094
3549.00,-0.0094
3548.00,-0.0094
3547.00,-0.0094
3546.00,-0.0093
3545.00,-0.0093
3544.00,-0.0092
3543.00,-0.0092
3542.00,-0.0092
3541.00,-0.0092
3540.00,-0.0092
3539.00,-0.0092
3538.00,-0.0092
3537.00,-0.0091
3536.00,-0.0091
3535.00,-0.0090
3534.00,-0.0090
3533.00,-0.0091
3532.00,-0.0091
3531.00,-0.0091
3530.00,-0.0091
3529.00,-0.0090
3528.00,-0.0090
3527.00,-0.0089
3526.00,-0.0089
3525.00,-0.0088
3524.00,-0.0088
3523.00,-0.0088
3522.00,-0.0088
3521.00,-0.0088
3520.00,-0.0087
3519.00,-0.0087
3518.00,-0.0087
3517.00,-0.0087
3516.00,-0.0086
3515.00,-0.0086
3514.00,-0.0086
3513.00,-0.0086
3512.00,-0.0085
3511.00,-0.0085
3510.00,-0.0085
3509.00,-0.0084
3508.00,-0.0084
3507.00,-0.0083
3506.00,-0.0083
3505.00,-0.0083
3504.00,-0.0082
3503.00,-0.0082
3502.00,-0.0082
3501.00,-0.0081
3500.00,-0.0081
3499.00,-0.0081
3498.00,-0.0081
3497.00,-0.0081
3496.00,-0.0081
3495.00,-0.0080
3494.00,-0.0079
3493.00,-0.0078
3492.00,-0.0078
3491.00,-0.0077
3490.00,-0.0077
3489.00,-0.0077
3488.00,-0.0077
3487.00,-0.0077
3486.00,-0.0077
3485.00,-0.0076
3484.00,-0.0076
3483.00,-0.0076
3482.00,-0.0075
3481.00,-0.0074
3480.00,-0.0074
3479.00,-0.0074
3478.00,-0.0074
3477.00,-0.0073
3476.00,-0.0073
3475.00,-0.0072
3474.00,-0.0072
3473.00,-0.0071
3472.00,-0.0070
3471.00,-0.0070
3470.00,-0.0069
3469.00,-0.0069
3468.00,-0.0069
3467.00,-0.0068
3466.00,-0.0068
3465.00,-0.0067
3464.00,-0.0067
3463.00,-0.0066
3462.00,-0.0065
3461.00,-0.0065
3460.00,-0.0065
3459.00,-0.0065
3458.00,-0.0065
3457.00,-0.0065
3456.00,-0.0064
3455.00,-0.0063
3454.00,-0.0063
3453.00,-0.0063
3452.00,-0.0063
3451.00,-0.0062
3450.00,-0.0061
3449.00,-0.0060
3448.00,-0.0060
3447.00,-0.0059
3446.00,-0.0059
3445.00,-0.0058
3444.00,-0.0058
3443.00,-0.0057
3442.00,-0.0057
3441.00,-0.0056
3440.00,-0.0055
3439.00,-0.0054
3438.00,-0.0053
3437.00,-0.0052
3436.00,-0.0051
3435.00,-0.0051
3434.00,-0.0050
3433.00,-0.0049
3432.00,-0.0049
3431.00,-0.0049
3430.00,-0.0048
3429.00,-0.0048
3428.00,-0.0048
3427.00,-0.0047
3426.00,-0.0046
3425.00,-0.0045
3424.00,-0.0044
3423.00,-0.0044
3422.00,-0.0043
3421.00,-0.0042
3420.00,-0.0042
3419.00,-0.0041
3418.00,-0.0040
3417.00,-0.0039
3416.00,-0.0039
3415.00,-0.0038
3414.00,-0.0037
3413.00,-0.0036
3412.00,-0.0036
3411.00,-0.0035
3410.00,-0.0034
3409.00,-0.0034
3408.00,-0.0033
3407.00,-0.0032
3406.00,-0.0032
3405.00,-0.0031
3404.00,-0.0030
3403.00,-0.0029
3402.00,-0.0028
3401.00,-0.0028
3400.00,-0.0027
3399.00,-0.0026
3398.00,-0.0026
3397.00,-0.0025
3396.00,-0.0025
3395.00,-0.0024
3394.00,-0.0023
3393.00,-0.0022
3392.00,-0.0022
3391.00,-0.0021
3390.00,-0.0020
3389.00,-0.0019
3388.00,-0.0018
3387.00,-0.0018
3386.00,-0.0018
3385.00,-0.0017
3384.00,-0.0016
3383.00,-0.0015
3382.00,-0.0015
3381.00,-0.0014
3380.00,-0.0013
3379.00,-0.0013
3378.00,-0.0012
3377.00,-0.0010
3376.00,-0.0009
3375.00,-0.0008
3374.00,-0.0007
3373.00,-0.0006
3372.00,-0.0005
3371.00,-0.0004
3370.00,-0.0003
3369.00,-0.0002
3368.00,-0.0001
3367.00,0.0000
3366.00,0.0001
3365.00,0.0003
3364.00,0.0004
3363.00,0.0005
3362.00,0.0006
3361.00,0.0007
3360.00,0.0008
3359.00,0.0009
3358.00,0.0011
3357.00,0.0012
3356.00,0.0014
3355.00,0.0016
3354.00,0.0017
3353.00,0.0019
3352.00,0.0020
3351.00,0.0022
3350.00,0.0023
3349.00,0.0025
3348.00,0.0026
3347.00,0.0028
3346.00,0.0029
3345.00,0.0031
3344.00,0.0032
3343.00,0.0034
3342.00,0.0036
3341.00,0.0037
3340.00,0.0039
3339.00,0.0041
3338.00,0.0043
3337.00,0.0045
3336.00,0.0047
3335.00,0.0049
3334.00,0.0051
3333.00,0.0053
3332.00,0.0055
3331.00,0.0057
3330.00,0.0059
3329.00,0.0061
3328.00,0.0063
3327.00,0.0066
3326.00,0.0068
3325.00,0.0070
3324.00,0.0072
3323.00,0.0074
3322.00,0.0077
3321.00,0.0079
3320.00,0.0081
3319.00,0.0084
3318.00,0.0086
3317.00,0.0089
3316.00,0.0091
3315.00,0.0094
3314.00,0.0096
3313.00,0.0099
3312.00,0.0101
3311.00,0.0103
3310.00,0.0106
3309.00,0.0109
3308.00,0.0111
3307.00,0.0114
3306.00,0.0117
3305.00,0.0120
3304.00,0.0123
3303.00,0.0126
3302.00,0.0129
3301.00,0.0132
3300.00,0.0135
3299.00,0.0137
3298.00,0.0140
3297.00,0.0143
3296.00,0.0146
3295.00,0.0148
3294.00,0.0151
3293.00,0.0154
3292.00,0.0156
3291.00,0.0159
3290.00,0.0161
3289.00,0.0163
3288.00,0.0164
3287.00,0.0166
3286.00,0.0168
3285.00,0.0170
3284.00,0.0172
3283.00,0.0174
3282.00,0.0176
3281.00,0.0178
3280.00,0.0179
3279.00,0.0179
3278.00,0.0180
3277.00,0.0181
3276.00,0.0181
3275.00,0.0182
3274.00,0.0182
3273.00,0.0181
3272.00,0.0181
3271.00,0.0180
3270.00,0.0180
3269.00,0.0179
3268.00,0.0178
3267.00,0.0176
3266.00,0.0175
3265.00,0.0173
3264.00,0.0171
3263.00,0.0170
3262.00,0.0168
3261.00,0.0166
3260.00,0.0164
3259.00,0.0162
3258.00,0.0160
3257.00,0.0158
3256.00,0.0156
3255.00,0.0153
3254.00,0.0151
3253.00,0.0148
3252.00,0.0146
3251.00,0.0143
3250.00,0.0141
3249.00,0.0138
3248.00,0.0136
3247.00,0.0134
3246.00,0.0132
3245.00,0.0130
3244.00,0.0129
3243.00,0.0127
3242.00,0.0125
3241.00,0.0123
3240.00,0.0122
3239.00,0.0120
3238.00,0.0118
3237.00,0.0115
3236.00,0.0113
3235.00,0.0111
3234.00,0.0110
3233.00,0.0108
3232.00,0.0107
3231.00,0.0105
3230.00,0.0104
3229.00,0.0102
3228.00,0.0101
3227.00,0.0099
3226.00,0.0098
3225.00,0.0097
3224.00,0.0096
3223.00,0.0095
3222.00,0.0093
3221.00,0.0092
3220.00,0.0090
3219.00,0.0089
3218.00,0.0087
3217.00,0.0086
3216.00,0.0085
3215.00,0.0084
3214.00,0.0084
3213.00,0.0083
3212.00,0.0082
3211.00,0.0081
3210.00,0.0079
3209.00,0.0078
3208.00,0.0077
3207.00,0.0075
3206.00,0.0074
3205.00,0.0073
3204.00,0.0072
3203.00,0.0071
3202.00,0.0070
3201.00,0.0069
3200.00,0.0067
3199.00,0.0066
3198.00,0.0064
3197.00,0.0063
3196.00,0.0063
3195.00,0.0062
3194.00,0.0061
3193.00,0.0060
3192.00,0.0059
3191.00,0.0058
3190.00,0.0057
3189.00,0.0056
3188.00,0.0055
3187.00,0.0054
3186.00,0.0053
3185.00,0.0051
3184.00,0.0049
3183.00,0.0048
3182.00,0.0046
3181.00,0.0045
3180.00,0.0044
3179.00,0.0042
3178.00,0.0041
3177.00,0.0039
3176.00,0.0038
3175.00,0.0036
3174.00,0.0035
3173.00,0.0034
3172.00,0.0033
3171.00,0.0032
3170.00,0.0031
3169.00,0.0030
3168.00,0.0028
3167.00,0.0027
3166.00,0.0026
3165.00,0.0025
3164.00,0.0024
3163.00,0.0023
3162.00,0.0021
3161.00,0.0020
3160.00,0.0019
3159.00,0.0017
3158.00,0.0016
3157.00,0.0014
3156.00,0.0013
3155.00,0.0012
3154.00,0.0012
3153.00,0.0011
3152.00,0.0010
3151.00,0.0009
3150.00,0.0008
3149.00,0.0006
3148.00,0.0005
3147.00,0.0004
3146.00,0.0003
3145.00,0.0002
3144.00,0.0001
3143.00,0.0000
3142.00,-0.0001
3141.00,-0.0001
3140.00,-0.0002
3139.00,-0.0003
3138.00,-0.0004
3137.00,-0.0005
3136.00,-0.0006
3135.00,-0.0007
3134.00,-0.0008
3133.00,-0.0008
3132.00,-0.0009
3131.00,-0.0010
3130.00,-0.0010
3129.00,-0.0011
3128.00,-0.0011
3127.00,-0.0012
3126.00,-0.0012
3125.00,-0.0013
3124.00,-0.0013
3123.00,-0.0014
3122.00,-0.0015
3121.00,-0.0015
3120.00,-0.0016
3119.00,-0.0017
3118.00,-0.0017
3117.00,-0.0018
3116.00,-0.0018
3115.00,-0.0018
3114.00,-0.0018
3113.00,-0.0018
3112.00,-0.0018
3111.00,-0.0018
3110.00,-0.0018
3109.00,-0.0018
3108.00,-0.0018
3107.00,-0.0018
3106.00,-0.0018
3105.00,-0.0018
3104.00,-0.0018
3103.00,-0.0018
3102.00,-0.0018
3101.00,-0.0018
3100.00,-0.0018
3099.00,-0.0018
3098.00,-0.0018
3097.00,-0.0018
3096.00,-0.0018
3095.00,-0.0018
3094.00,-0.0018
3093.00,-0.0017
3092.00,-0.0017
3091.00,-0.0017
3090.00,-0.0016
3089.00,-0.0016
3088.00,-0.0016
3087.00,-0.0015
3086.00,-0.0015
3085.00,-0.0015
3084.00,-0.0014
3083.00,-0.0014
3082.00,-0.0014
3081.00,-0.0014
3080.00,-0.0014
3079.00,-0.0014
3078.00,-0.0014
3077.00,-0.0014
3076.00,-0.0013
3075.00,-0.0013
3074.00,-0.0012
3073.00,-0.0012
3072.00,-0.0013
3071.00,-0.0013
3070.00,-0.0013
3069.00,-0.0013
3068.00,-0.0013
3067.00,-0.0013
3066.00,-0.0013
3065.00,-0.0013
3064.00,-0.0013
3063.00,-0.0013
3062.00,-0.0013
3061.00,-0.0013
3060.00,-0.0014
3059.00,-0.0014
3058.00,-0.0015
3057.00,-0.0015
3056.00,-0.0016
3055.00,-0.0017
3054.00,-0.0017
3053.00,-0.0018
3052.00,-0.0019
3051.00,-0.0020
3050.00,-0.0021
3049.00,-0.0022
3048.00,-0.0023
3047.00,-0.0024
3046.00,-0.0025
3045.00,-0.0027
3044.00,-0.0028
3043.00,-0.0029
3042.00,-0.0029
3041.00,-0.0030
3040.00,-0.0031
3039.00,-0.0031
3038.00,-0.0032
3037.00,-0.0034
3036.00,-0.0035
3035.00,-0.0036
3034.00,-0.0037
3033.00,-0.0037
3032.00,-0.0038
3031.00,-0.0039
3030.00,-0.0040
3029.00,-0.0041
3028.00,-0.0042
3027.00,-0.0043
3026.00,-0.0045
3025.00,-0.0046
3024.00,-0.0047
3023.00,-0.0048
3022.00,-0.0049
3021.00,-0.0050
3020.00,-0.0052
3019.00,-0.0053
3018.00,-0.0055
3017.00,-0.0056
3016.00,-0.0058
3015.00,-0.0059
3014.00,-0.0060
3013.00,-0.0061
3012.00,-0.0063
3011.00,-0.0064
3010.00,-0.0065
3009.00,-0.0067
3008.00,-0.0069
3007.00,-0.0071
3006.00,-0.0073
3005.00,-0.0075
3004.00,-0.0078
3003.00,-0.0080
3002.00,-0.0082
3001.00,-0.0084
3000.00,-0.0087
2999.00,-0.0088
2998.00,-0.0090
2997.00,-0.0091
2996.00,-0.0092
2995.00,-0.0092
2994.00,-0.0093
2993.00,-0.0094
2992.00,-0.0094
2991.00,-0.0095
2990.00,-0.0095
2989.00,-0.0095
2988.00,-0.0095
2987.00,-0.0096
2986.00,-0.0098
2985.00,-0.0102
2984.00,-0.0107
2983.00,-0.0112
2982.00,-0.0115
2981.00,-0.0116
2980.00,-0.0113
2979.00,-0.0109
2978.00,-0.0104
2977.00,-0.0099
2976.00,-0.0095
2975.00,-0.0093
2974.00,-0.0091
2973.00,-0.0090
2972.00,-0.0089
2971.00,-0.0087
2970.00,-0.0083
2969.00,-0.0079
2968.00,-0.0075
2967.00,-0.0072
2966.00,-0.0069
2965.00,-0.0066
2964.00,-0.0064
2963.00,-0.0062
2962.00,-0.0060
2961.00,-0.0058
2960.00,-0.0057
2959.00,-0.0056
2958.00,-0.0055
2957.00,-0.0054
2956.00,-0.0054
2955.00,-0.0053
2954.00,-0.0053
2953.00,-0.0053
2952.00,-0.0053
2951.00,-0.0053
2950.00,-0.0053
2949.00,-0.0053
2948.00,-0.0052
2947.00,-0.0052
2946.00,-0.0051
2945.00,-0.0050
2944.00,-0.0048
2943.00,-0.0047
2942.00,-0.0045
2941.00,-0.0043
2940.00,-0.0041
2939.00,-0.0039
2938.00,-0.0037
2937.00,-0.0034
2936.00,-0.0032
2935.00,-0.0030
2934.00,-0.0029
2933.00,-0.0027
2932.00,-0.0026
2931.00,-0.0024
2930.00,-0.0023
2929.00,-0.0021
2928.00,-0.0020
2927.00,-0.0019
2926.00,-0.0018
2925.00,-0.0018
2924.00,-0.0018
2923.00,-0.0019
2922.00,-0.0019
2921.00,-0.0020
2920.00,-0.0021
2919.00,-0.0023
2918.00,-0.0026
2917.00,-0.0028
2916.00,-0.0031
2915.00,-0.0034
2914.00,-0.0036
2913.00,-0.0039
2912.00,-0.0042
2911.00,-0.0044
2910.00,-0.0046
2909.00,-0.0048
2908.00,-0.0050
2907.00,-0.0052
2906.00,-0.0054
2905.00,-0.0055
2904.00,-0.0056
2903.00,-0.0058
2902.00,-0.0059
2901.00,-0.0060
2900.00,-0.0061
2899.00,-0.0062
2898.00,-0.0063
2897.00,-0.0065
2896.00,-0.0066
2895.00,-0.0068
2894.00,-0.0069
2893.00,-0.0070
2892.00,-0.0071
2891.00,-0.0072
2890.00,-0.0072
2889.00,-0.0073
2888.00,-0.0073
2887.00,-0.0073
2886.00,-0.0073
2885.00,-0.0072
2884.00,-0.0072
2883.00,-0.0071
2882.00,-0.0070
2881.00,-0.0068
2880.00,-0.0066
2879.00,-0.0065
2878.00,-0.0064
2877.00,-0.0063
2876.00,-0.0062
2875.00,-0.0061
2874.00,-0.0061
2873.00,-0.0061
2872.00,-0.0061
2871.00,-0.0062
2870.00,-0.0062
2869.00,-0.0063
2868.00,-0.0063
2867.00,-0.0064
2866.00,-0.0064
2865.00,-0.0065
2864.00,-0.0065
2863.00,-0.0066
2862.00,-0.0066
2861.00,-0.0065
2860.00,-0.0065
2859.00,-0.0064
2858.00,-0.0064
2857.00,-0.0063
2856.00,-0.0061
2855.00,-0.0061
2854.00,-0.0060
2853.00,-0.0059
2852.00,-0.0060
2851.00,-0.0060
2850.00,-0.0061
2849.00,-0.0063
2848.00,-0.0065
2847.00,-0.0067
2846.00,-0.0070
2845.00,-0.0072
2844.00,-0.0074
2843.00,-0.0075
2842.00,-0.0077
2841.00,-0.0079
2840.00,-0.0080
2839.00,-0.0081
2838.00,-0.0082
2837.00,-0.0083
2836.00,-0.0083
2835.00,-0.0084
2834.00,-0.0085
2833.00,-0.0085
2832.00,-0.0086
2831.00,-0.0086
2830.00,-0.0087
2829.00,-0.0087
2828.00,-0.0087
2827.00,-0.0088
2826.00,-0.0088
2825.00,-0.0088
2824.00,-0.0088
2823.00,-0.0089
2822.00,-0.0089
2821.00,-0.0089
2820.00,-0.0090
2819.00,-0.0090
2818.00,-0.0090
2817.00,-0.0090
2816.00,-0.0091
2815.00,-0.0091
2814.00,-0.0091
2813.00,-0.0091
2812.00,-0.0092
2811.00,-0.0092
2810.00,-0.0092
2809.00,-0.0093
2808.00,-0.0093
2807.00,-0.0093
2806.00,-0.0093
2805.00,-0.0093
2804.00,-0.0093
2803.00,-0.0094
2802.00,-0.0094
2801.00,-0.0095
2800.00,-0.0095
2799.00,-0.0096
2798.00,-0.0096
2797.00,-0.0096
2796.00,-0.0096
2795.00,-0.0096
2794.00,-0.0096
2793.00,-0.0096
2792.00,-0.0097
2791.00,-0.0097
2790.00,-0.0097
2789.00,-0.0097
2788.00,-0.0098
2787.00,-0.0098
2786.00,-0.0098
2785.00,-0.0098
2784.00,-0.0098
2783.00,-0.0098
2782.00,-0.0099
2781.00,-0.0099
2780.00,-0.0099
2779.00,-0.0099
2778.00,-0.0100
2777.00,-0.0100
2776.00,-0.0100
2775.00,-0.0100
2774.00,-0.0100
2773.00,-0.0101
2772.00,-0.0101
2771.00,-0.0102
2770.00,-0.0102
2769.00,-0.0102
2768.00,-0.0103
2767.00,-0.0103
2766.00,-0.0104
2765.00,-0.0104
2764.00,-0.0104
2763.00,-0.0104
2762.00,-0.0105
2761.00,-0.0105
2760.00,-0.0105
2759.00,-0.0105
2758.00,-0.0105
2757.00,-0.0106
2756.00,-0.0106
2755.00,-0.0106
2754.00,-0.0107
2753.00,-0.0107
2752.00,-0.0107
2751.00,-0.0107
2750.00,-0.0107
2749.00,-0.0107
2748.00,-0.0108
2747.00,-0.0108
2746.00,-0.0109
2745.00,-0.0109
2744.00,-0.0109
2743.00,-0.0110
2742.00,-0.0110
2741.00,-0.0110
2740.00,-0.0110
2739.00,-0.0110
2738.00,-0.0111
2737.00,-0.0111
2736.00,-0.0111
2735.00,-0.0112
2734.00,-0.0112
2733.00,-0.0112
2732.00,-0.0112
2731.00,-0.0112
2730.00,-0.0113
2729.00,-0.0113
2728.00,-0.0113
2727.00,-0.0113
2726.00,-0.0114
2725.00,-0.0114
2724.00,-0.0114
2723.00,-0.0115
2722.00,-0.0115
2721.00,-0.0115
2720.00,-0.0115
2719.00,-0.0115
2718.00,-0.0116
2717.00,-0.0116
2716.00,-0.0116
2715.00,-0.0116
2714.00,-0.0117
2713.00,-0.0117
2712.00,-0.0117
2711.00,-0.0117
2710.00,-0.0117
2709.00,-0.0118
2708.00,-0.0118
2707.00,-0.0118
2706.00,-0.0119
2705.00,-0.0119
2704.00,-0.0120
2703.00,-0.0120
2702.00,-0.0120
2701.00,-0.0120
2700.00,-0.0120
2699.00,-0.0121
2698.00,-0.0121
2697.00,-0.0121
2696.00,-0.0121
2695.00,-0.0121
2694.00,-0.0121
2693.00,-0.0122
2692.00,-0.0122
2691.00,-0.0123
2690.00,-0.0123
2689.00,-0.0123
2688.00,-0.0124
2687.00,-0.0124
2686.00,-0.0124
2685.00,-0.0124
2684.00,-0.0124
2683.00,-0.0125
2682.00,-0.0125
2681.00,-0.0125
2680.00,-0.0125
2679.00,-0.0126
2678.00,-0.0126
2677.00,-0.0125
2676.00,-0.0126
2675.00,-0.0126
2674.00,-0.0126
2673.00,-0.0126
2672.00,-0.0127
2671.00,-0.0127
2670.00,-0.0127
2669.00,-0.0128
2668.00,-0.0128
2667.00,-0.0129
2666.00,-0.0129
2665.00,-0.0129
2664.00,-0.0129
2663.00,-0.0129
2662.00,-0.0129
2661.00,-0.0129
2660.00,-0.0130
2659.00,-0.0130
2658.00,-0.0130
2657.00,-0.0130
2656.00,-0.0130
2655.00,-0.0130
2654.00,-0.0130
2653.00,-0.0130
2652.00,-0.0131
2651.00,-0.0131
2650.00,-0.0131
2649.00,-0.0131
2648.00,-0.0131
2647.00,-0.0131
2646.00,-0.0131
2645.00,-0.0131
2644.00,-0.0131
2643.00,-0.0132
2642.00,-0.0132
2641.00,-0.0132
2640.00,-0.0132
2639.00,-0.0131
2638.00,-0.0131
2637.00,-0.0131
2636.00,-0.0131
2635.00,-0.0132
2634.00,-0.0132
2633.00,-0.0132
2632.00,-0.0132
2631.00,-0.0132
2630.00,-0.0132
2629.00,-0.0133
2628.00,-0.0133
2627.00,-0.0133
2626.00,-0.0133
2625.00,-0.0133
2624.00,-0.0133
2623.00,-0.0133
2622.00,-0.0133
2621.00,-0.0133
2620.00,-0.0133
2619.00,-0.0133
2618.00,-0.0133
2617.00,-0.0133
2616.00,-0.0133
2615.00,-0.0133
2614.00,-0.0133
2613.00,-0.0133
2612.00,-0.0133
2611.00,-0.0133
2610.00,-0.0133
2609.00,-0.0133
2608.00,-0.0133
2607.00,-0.0133
2606.00,-0.0134
2605.00,-0.0134
2604.00,-0.0134
2603.00,-0.0134
2602.00,-0.0135
2601.00,-0.0135
2600.00,-0.0135
2599.00,-0.0134
2598.00,-0.0134
2597.00,-0.0135
2596.00,-0.0135
2595.00,-0.0135
2594.00,-0.0135
2593.00,-0.0135
2592.00,-0.0135
2591.00,-0.0135
2590.00,-0.0135
2589.00,-0.0135
2588.00,-0.0135
2587.00,-0.0135
2586.00,-0.0135
2585.00,-0.0136
2584.00,-0.0136
2583.00,-0.0136
2582.00,-0.0136
2581.00,-0.0137
2580.00,-0.0137
2579.00,-0.0137
2578.00,-0.0137
2577.00,-0.0137
2576.00,-0.0137
2575.00,-0.0137
2574.00,-0.0138
2573.00,-0.0139
2572.00,-0.0139
2571.00,-0.0140
2570.00,-0.0140
2569.00,-0.0139
2568.00,-0.0139
2567.00,-0.0139
2566.00,-0.0139
2565.00,-0.0139
2564.00,-0.0140
2563.00,-0.0140
2562.00,-0.0141
2561.00,-0.0141
2560.00,-0.0141
2559.00,-0.0141
2558.00,-0.0141
2557.00,-0.0141
2556.00,-0.0141
2555.00,-0.0141
2554.00,-0.0141
2553.00,-0.0142
2552.00,-0.0142
2551.00,-0.0143
2550.00,-0.0143
2549.00,-0.0143
2548.00,-0.0143
2547.00,-0.0143
2546.00,-0.0143
2545.00,-0.0143
2544.00,-0.0143
2543.00,-0.0144
2542.00,-0.0144
2541.00,-0.0144
2540.00,-0.0144
2539.00,-0.0144
2538.00,-0.0143
2537.00,-0.0143
2536.00,-0.0144
2535.00,-0.0144
2534.00,-0.0145
2533.00,-0.0145
2532.00,-0.0145
2531.00,-0.0145
2530.00,-0.0145
2529.00,-0.0145
2528.00,-0.0145
2527.00,-0.0146
2526.00,-0.0146
2525.00,-0.0147
2524.00,-0.0147
2523.00,-0.0146
2522.00,-0.0146
2521.00,-0.0145
2520.00,-0.0145
2519.00,-0.0146
2518.00,-0.0146
2517.00,-0.0146
2516.00,-0.0147
2515.00,-0.0147
2514.00,-0.0147
2513.00,-0.0147
2512.00,-0.0147
2511.00,-0.0147
2510.00,-0.0147
2509.00,-0.0147
2508.00,-0.0147
2507.00,-0.0147
2506.00,-0.0147
2505.00,-0.0147
2504.00,-0.0147
2503.00,-0.0147
2502.00,-0.0148
2501.00,-0.0148
2500.00,-0.0148
2499.00,-0.0148
2498.00,-0.0148
2497.00,-0.0148
2496.00,-0.0148
2495.00,-0.0149
2494.00,-0.0149
2493.00,-0.0149
2492.00,-0.0149
2491.00,-0.0149
2490.00,-0.0150
2489.00,-0.0150
2488.00,-0.0150
2487.00,-0.0150
2486.00,-0.0151
2485.00,-0.0151
2484.00,-0.0151
2483.00,-0.0151
2482.00,-0.0151
2481.00,-0.0151
2480.00,-0.0151
2479.00,-0.0151
2478.00,-0.0152
2477.00,-0.0152
2476.00,-0.0152
2475.00,-0.0152
2474.00,-0.0152
2473.00,-0.0152
2472.00,-0.0152
2471.00,-0.0152
2470.00,-0.0152
2469.00,-0.0152
2468.00,-0.0152
2467.00,-0.0152
2466.00,-0.0153
2465.00,-0.0153
2464.00,-0.0154
2463.00,-0.0154
2462.00,-0.0154
2461.00,-0.0155
2460.00,-0.0155
2459.00,-0.0155
2458.00,-0.0154
2457.00,-0.0154
2456.00,-0.0154
2455.00,-0.0154
2454.00,-0.0154
2453.00,-0.0155
2452.00,-0.0155
2451.00,-0.0155
2450.00,-0.0156
2449.00,-0.0156
2448.00,-0.0156
2447.00,-0.0156
2446.00,-0.0157
2445.00,-0.0157
2444.00,-0.0156
2443.00,-0.0156
2442.00,-0.0156
2441.00,-0.0156
2440.00,-0.0156
2439.00,-0.0156
2438.00,-0.0156
2437.00,-0.0157
2436.00,-0.0157
2435.00,-0.0157
2434.00,-0.0158
2433.00,-0.0158
2432.00,-0.0158
2431.00,-0.0158
2430.00,-0.0158
2429.00,-0.0158
2428.00,-0.0158
2427.00,-0.0158
2426.00,-0.0159
2425.00,-0.0160
2424.00,-0.0160
2423.00,-0.0160
2422.00,-0.0160
2421.00,-0.0160
2420.00,-0.0160
2419.00,-0.0160
2418.00,-0.0160
2417.00,-0.0160
2416.00,-0.0160
2415.00,-0.0160
2414.00,-0.0161
2413.00,-0.0161
2412.00,-0.0161
2411.00,-0.0161
2410.00,-0.0161
2409.00,-0.0161
2408.00,-0.0160
2407.00,-0.0161
2406.00,-0.0161
2405.00,-0.0162
2404.00,-0.0162
2403.00,-0.0162
2402.00,-0.0163
2401.00,-0.0163
2400.00,-0.0163
2399.00,-0.0163
2398.00,-0.0163
2397.00,-0.0164
2396.00,-0.0164
2395.00,-0.0165
2394.00,-0.0165
2393.00,-0.0165
2392.00,-0.0165
2391.00,-0.0165
2390.00,-0.0166
2389.00,-0.0166
2388.00,-0.0166
2387.00,-0.0166
2386.00,-0.0165
2385.00,-0.0165
2384.00,-0.0166
2383.00,-0.0166
2382.00,-0.0166
2381.00,-0.0166
2380.00,-0.0166
2379.00,-0.0166
2378.00,-0.0166
2377.00,-0.0166
2376.00,-0.0167
2375.00,-0.0167
2374.00,-0.0167
2373.00,-0.0168
2372.00,-0.0168
2371.00,-0.0168
2370.00,-0.0168
2369.00,-0.0168
2368.00,-0.0168
2367.00,-0.0168
2366.00,-0.0167
2365.00,-0.0167
2364.00,-0.0167
2363.00,-0.0168
2362.00,-0.0168
2361.00,-0.0169
2360.00,-0.0169
2359.00,-0.0169
2358.00,-0.0170
2357.00,-0.0169
2356.00,-0.0169
2355.00,-0.0170
2354.00,-0.0170
2353.00,-0.0171
2352.00,-0.0171
2351.00,-0.0172
2350.00,-0.0172
2349.00,-0.0171
2348.00,-0.0170
2347.00,-0.0170
2346.00,-0.0170
2345.00,-0.0171
2344.00,-0.0171
2343.00,-0.0171
2342.00,-0.0170
2341.00,-0.0170
2340.00,-0.0170
2339.00,-0.0170
2338.00,-0.0171
2337.00,-0.0171
2336.00,-0.0172
2335.00,-0.0172
2334.00,-0.0172
2333.00,-0.0173
2332.00,-0.0173
2331.00,-0.0173
2330.00,-0.0173
2329.00,-0.0174
2328.00,-0.0174
2327.00,-0.0175
2326.00,-0.0175
2325.00,-0.0175
2324.00,-0.0174
2323.00,-0.0175
2322.00,-0.0175
2321.00,-0.0174
2320.00,-0.0174
2319.00,-0.0174
2318.00,-0.0173
2317.00,-0.0173
2316.00,-0.0174
2315.00,-0.0174
2314.00,-0.0175
2313.00,-0.0175
2312.00,-0.0176
2311.00,-0.0176
2310.00,-0.0176
2309.00,-0.0176
2308.00,-0.0176
2307.00,-0.0176
2306.00,-0.0176
2305.00,-0.0176
2304.00,-0.0176
2303.00,-0.0176
2302.00,-0.0176
2301.00,-0.0176
2300.00,-0.0176
2299.00,-0.0176
2298.00,-0.0177
2297.00,-0.0178
2296.00,-0.0178
2295.00,-0.0179
2294.00,-0.0179
2293.00,-0.0179
2292.00,-0.0179
2291.00,-0.0179
2290.00,-0.0180
2289.00,-0.0180
2288.00,-0.0181
2287.00,-0.0181
2286.00,-0.0180
2285.00,-0.0180
2284.00,-0.0180
2283.00,-0.0180
2282.00,-0.0181
2281.00,-0.0181
2280.00,-0.0181
2279.00,-0.0181
2278.00,-0.0180
2277.00,-0.0179
2276.00,-0.0178
2275.00,-0.0178
2274.00,-0.0178
2273.00,-0.0178
2272.00,-0.0179
2271.00,-0.0179
2270.00,-0.0180
2269.00,-0.0180
2268.00,-0.0180
2267.00,-0.0180
2266.00,-0.0179
2265.00,-0.0179
2264.00,-0.0179
2263.00,-0.0179
2262.00,-0.0180
2261.00,-0.0180
2260.00,-0.0181
2259.00,-0.0181
2258.00,-0.0182
2257.00,-0.0182
2256.00,-0.0181
2255.00,-0.0180
2254.00,-0.0179
2253.00,-0.0179
2252.00,-0.0179
2251.00,-0.0180
2250.00,-0.0180
2249.00,-0.0180
2248.00,-0.0180
2247.00,-0.0180
2246.00,-0.0181
2245.00,-0.0182
2244.00,-0.0182
2243.00,-0.0183
2242.00,-0.0183
2241.00,-0.0183
2240.00,-0.0183
2239.00,-0.0183
2238.00,-0.0183
2237.00,-0.0184
2236.00,-0.0185
2235.00,-0.0185
2234.00,-0.0186
2233.00,-0.0186
2232.00,-0.0186
2231.00,-0.0186
2230.00,-0.0185
2229.00,-0.0184
2228.00,-0.0184
2227.00,-0.0184
2226.00,-0.0184
2225.00,-0.0184
2224.00,-0.0184
2223.00,-0.0184
2222.00,-0.0184
2221.00,-0.0185
2220.00,-0.0185
2219.00,-0.0186
2218.00,-0.0187
2217.00,-0.0188
2216.00,-0.0187
2215.00,-0.0187
2214.00,-0.0187
2213.00,-0.0187
2212.00,-0.0188
2211.00,-0.0189
2210.00,-0.0188
2209.00,-0.0187
2208.00,-0.0187
2207.00,-0.0187
2206.00,-0.0188
2205.00,-0.0190
2204.00,-0.0191
2203.00,-0.0191
2202.00,-0.0190
2201.00,-0.0188
2200.00,-0.0187
2199.00,-0.0186
2198.00,-0.0187
2197.00,-0.0188
2196.00,-0.0188
2195.00,-0.0190
2194.00,-0.0190
2193.00,-0.0190
2192.00,-0.0189
2191.00,-0.0188
2190.00,-0.0188
2189.00,-0.0190
2188.00,-0.0192
2187.00,-0.0193
2186.00,-0.0193
2185.00,-0.0192
2184.00,-0.0192
2183.00,-0.0193
2182.00,-0.0194
2181.00,-0.0195
2180.00,-0.0196
2179.00,-0.0195
2178.00,-0.0193
2177.00,-0.0190
2176.00,-0.0188
2175.00,-0.0188
2174.00,-0.0189
2173.00,-0.0191
2172.00,-0.0193
2171.00,-0.0194
2170.00,-0.0194
2169.00,-0.0193
2168.00,-0.0192
2167.00,-0.0193
2166.00,-0.0193
2165.00,-0.0193
2164.00,-0.0192
2163.00,-0.0190
2162.00,-0.0189
2161.00,-0.0190
2160.00,-0.0192
2159.00,-0.0194
2158.00,-0.0195
2157.00,-0.0195
2156.00,-0.0195
2155.00,-0.0194
2154.00,-0.0194
2153.00,-0.0195
2152.00,-0.0196
2151.00,-0.0196
2150.00,-0.0196
2149.00,-0.0195
2148.00,-0.0194
2147.00,-0.0194
2146.00,-0.0195
2145.00,-0.0196
2144.00,-0.0197
2143.00,-0.0198
2142.00,-0.0198
2141.00,-0.0197
2140.00,-0.0195
2139.00,-0.0194
2138.00,-0.0194
2137.00,-0.0194
2136.00,-0.0195
2135.00,-0.0196
2134.00,-0.0196
2133.00,-0.0196
2132.00,-0.0197
2131.00,-0.0197
2130.00,-0.0197
2129.00,-0.0197
2128.00,-0.0196
2127.00,-0.0195
2126.00,-0.0196
2125.00,-0.0197
2124.00,-0.0198
2123.00,-0.0199
2122.00,-0.0199
2121.00,-0.0199
2120.00,-0.0199
2119.00,-0.0200
2118.00,-0.0200
2117.00,-0.0200
2116.00,-0.0201
2115.00,-0.0201
2114.00,-0.0202
2113.00,-0.0202
2112.00,-0.0202
2111.00,-0.0202
2110.00,-0.0201
2109.00,-0.0201
2108.00,-0.0201
2107.00,-0.0201
2106.00,-0.0202
2105.00,-0.0202
2104.00,-0.0201
2103.00,-0.0201
2102.00,-0.0201
2101.00,-0.0202
2100.00,-0.0203
2099.00,-0.0203
2098.00,-0.0204
2097.00,-0.0204
2096.00,-0.0204
2095.00,-0.0203
2094.00,-0.0203
2093.00,-0.0203
2092.00,-0.0203
2091.00,-0.0203
2090.00,-0.0204
2089.00,-0.0205
2088.00,-0.0205
2087.00,-0.0206
2086.00,-0.0205
2085.00,-0.0205
2084.00,-0.0205
2083.00,-0.0205
2082.00,-0.0207
2081.00,-0.0208
2080.00,-0.0209
2079.00,-0.0209
2078.00,-0.0208
2077.00,-0.0208
2076.00,-0.0207
2075.00,-0.0207
2074.00,-0.0207
2073.00,-0.0207
2072.00,-0.0208
2071.00,-0.0209
2070.00,-0.0209
2069.00,-0.0210
2068.00,-0.0210
2067.00,-0.0211
2066.00,-0.0211
2065.00,-0.0212
2064.00,-0.0212
2063.00,-0.0212
2062.00,-0.0211
2061.00,-0.0212
2060.00,-0.0213
2059.00,-0.0213
2058.00,-0.0213
2057.00,-0.0212
2056.00,-0.0212
2055.00,-0.0212
2054.00,-0.0212
2053.00,-0.0213
2052.00,-0.0213
2051.00,-0.0214
2050.00,-0.0213
2049.00,-0.0213
2048.00,-0.0212
2047.00,-0.0212
2046.00,-0.0210
2045.00,-0.0209
2044.00,-0.0207
2043.00,-0.0207
2042.00,-0.0207
2041.00,-0.0208
2040.00,-0.0210
2039.00,-0.0212
2038.00,-0.0214
2037.00,-0.0214
2036.00,-0.0215
2035.00,-0.0217
2034.00,-0.0217
2033.00,-0.0215
2032.00,-0.0213
2031.00,-0.0212
2030.00,-0.0212
2029.00,-0.0214
2028.00,-0.0215
2027.00,-0.0217
2026.00,-0.0218
2025.00,-0.0218
2024.00,-0.0218
2023.00,-0.0218
2022.00,-0.0218
2021.00,-0.0218
2020.00,-0.0218
2019.00,-0.0219
2018.00,-0.0219
2017.00,-0.0220
2016.00,-0.0222
2015.00,-0.0224
2014.00,-0.0224
2013.00,-0.0223
2012.00,-0.0221
2011.00,-0.0220
2010.00,-0.0220
2009.00,-0.0219
2008.00,-0.0219
2007.00,-0.0219
2006.00,-0.0220
2005.00,-0.0221
2004.00,-0.0222
2003.00,-0.0222
2002.00,-0.0222
2001.00,-0.0223
2000.00,-0.0224
1999.00,-0.0226
1998.00,-0.0227
1997.00,-0.0226
1996.00,-0.0224
1995.00,-0.0222
1994.00,-0.0221
1993.00,-0.0221
1992.00,-0.0222
1991.00,-0.0222
1990.00,-0.0221
1989.00,-0.0221
1988.00,-0.0222
1987.00,-0.0224
1986.00,-0.0226
1985.00,-0.0227
1984.00,-0.0228
1983.00,-0.0229
1982.00,-0.0230
1981.00,-0.0229
1980.00,-0.0228
1979.00,-0.0227
1978.00,-0.0227
1977.00,-0.0228
1976.00,-0.0228
1975.00,-0.0227
1974.00,-0.0227
1973.00,-0.0227
1972.00,-0.0228
1971.00,-0.0229
1970.00,-0.0229
1969.00,-0.0228
1968.00,-0.0229
1967.00,-0.0231
1966.00,-0.0234
1965.00,-0.0235
1964.00,-0.0234
1963.00,-0.0232
1962.00,-0.0229
1961.00,-0.0227
1960.00,-0.0227
1959.00,-0.0228
1958.00,-0.0230
1957.00,-0.0230
1956.00,-0.0229
1955.00,-0.0229
1954.00,-0.0229
1953.00,-0.0230
1952.00,-0.0232
1951.00,-0.0233
1950.00,-0.0233
1949.00,-0.0233
1948.00,-0.0232
1947.00,-0.0232
1946.00,-0.0232
1945.00,-0.0233
1944.00,-0.0233
1943.00,-0.0234
1942.00,-0.0235
1941.00,-0.0236
1940.00,-0.0236
1939.00,-0.0235
1938.00,-0.0236
1937.00,-0.0237
1936.00,-0.0238
1935.00,-0.0239
1934.00,-0.0240
1933.00,-0.0240
1932.00,-0.0241
1931.00,-0.0242
1930.00,-0.0243
1929.00,-0.0243
1928.00,-0.0242
1927.00,-0.0242
1926.00,-0.0242
1925.00,-0.0242
1924.00,-0.0243
1923.00,-0.0243
1922.00,-0.0244
1921.00,-0.0244
1920.00,-0.0243
1919.00,-0.0243
1918.00,-0.0242
1917.00,-0.0243
1916.00,-0.0244
1915.00,-0.0244
1914.00,-0.0245
1913.00,-0.0245
1912.00,-0.0245
1911.00,-0.0246
1910.00,-0.0246
1909.00,-0.0246
1908.00,-0.0246
1907.00,-0.0246
1906.00,-0.0246
1905.00,-0.0246
1904.00,-0.0247
1903.00,-0.0247
1902.00,-0.0248
1901.00,-0.0248
1900.00,-0.0249
1899.00,-0.0249
1898.00,-0.0249
1897.00,-0.0249
1896.00,-0.0249
1895.00,-0.0249
1894.00,-0.0249
1893.00,-0.0249
1892.00,-0.0249
1891.00,-0.0248
1890.00,-0.0249
1889.00,-0.0250
1888.00,-0.0251
1887.00,-0.0252
1886.00,-0.0252
1885.00,-0.0253
1884.00,-0.0253
1883.00,-0.0252
1882.00,-0.0252
1881.00,-0.0253
1880.00,-0.0253
1879.00,-0.0254
1878.00,-0.0255
1877.00,-0.0256
1876.00,-0.0257
1875.00,-0.0257
1874.00,-0.0258
1873.00,-0.0259
1872.00,-0.0259
1871.00,-0.0259
1870.00,-0.0259
1869.00,-0.0259
1868.00,-0.0259
1867.00,-0.0260
1866.00,-0.0261
1865.00,-0.0261
1864.00,-0.0261
1863.00,-0.0261
1862.00,-0.0262
1861.00,-0.0262
1860.00,-0.0262
1859.00,-0.0263
1858.00,-0.0264
1857.00,-0.0264
1856.00,-0.0265
1855.00,-0.0265
1854.00,-0.0266
1853.00,-0.0266
1852.00,-0.0266
1851.00,-0.0266
1850.00,-0.0266
1849.00,-0.0267
1848.00,-0.0267
1847.00,-0.0267
1846.00,-0.0267
1845.00,-0.0268
1844.00,-0.0270
1843.00,-0.0272
1842.00,-0.0273
1841.00,-0.0272
1840.00,-0.0271
1839.00,-0.0271
1838.00,-0.0270
1837.00,-0.0270
1836.00,-0.0270
1835.00,-0.0271
1834.00,-0.0271
1833.00,-0.0271
1832.00,-0.0271
1831.00,-0.0272
1830.00,-0.0273
1829.00,-0.0274
1828.00,-0.0275
1827.00,-0.0275
1826.00,-0.0276
1825.00,-0.0277
1824.00,-0.0278
1823.00,-0.0278
1822.00,-0.0279
1821.00,-0.0279
1820.00,-0.0279
1819.00,-0.0279
1818.00,-0.0280
1817.00,-0.0280
1816.00,-0.0280
1815.00,-0.0280
1814.00,-0.0280
1813.00,-0.0280
1812.00,-0.0280
1811.00,-0.0281
1810.00,-0.0282
1809.00,-0.0283
1808.00,-0.0284
1807.00,-0.0284
1806.00,-0.0284
1805.00,-0.0284
1804.00,-0.0284
1803.00,-0.0285
1802.00,-0.0285
1801.00,-0.0286
1800.00,-0.0286
1799.00,-0.0287
1798.00,-0.0287
1797.00,-0.0287
1796.00,-0.0287
1795.00,-0.0287
1794.00,-0.0287
1793.00,-0.0288
1792.00,-0.0290
1791.00,-0.0291
1790.00,-0.0292
1789.00,-0.0292
1788.00,-0.0292
1787.00,-0.0292
1786.00,-0.0293
1785.00,-0.0294
1784.00,-0.0294
1783.00,-0.0295
1782.00,-0.0295
1781.00,-0.0295
1780.00,-0.0296
1779.00,-0.0296
1778.00,-0.0297
1777.00,-0.0297
1776.00,-0.0296
1775.00,-0.0297
1774.00,-0.0297
1773.00,-0.0298
1772.00,-0.0299
1771.00,-0.0301
1770.00,-0.0303
1769.00,-0.0303
1768.00,-0.0304
1767.00,-0.0305
1766.00,-0.0305
1765.00,-0.0305
1764.00,-0.0304
1763.00,-0.0305
1762.00,-0.0307
1761.00,-0.0309
1760.00,-0.0309
1759.00,-0.0309
1758.00,-0.0309
1757.00,-0.0310
1756.00,-0.0310
1755.00,-0.0310
1754.00,-0.0309
1753.00,-0.0309
1752.00,-0.0309
1751.00,-0.0310
1750.00,-0.0311
1749.00,-0.0311
1748.00,-0.0310
1747.00,-0.0311
1746.00,-0.0311
1745.00,-0.0311
1744.00,-0.0312
1743.00,-0.0312
1742.00,-0.0312
1741.00,-0.0312
1740.00,-0.0313
1739.00,-0.0315
1738.00,-0.0317
1737.00,-0.0317
1736.00,-0.0318
1735.00,-0.0320
1734.00,-0.0324
1733.00,-0.0327
1732.00,-0.0329
1731.00,-0.0328
1730.00,-0.0329
1729.00,-0.0330
1728.00,-0.0331
1727.00,-0.0333
1726.00,-0.0334
1725.00,-0.0334
1724.00,-0.0335
1723.00,-0.0335
1722.00,-0.0335
1721.00,-0.0335
1720.00,-0.0333
1719.00,-0.0332
1718.00,-0.0332
1717.00,-0.0333
1716.00,-0.0332
1715.00,-0.0330
1714.00,-0.0327
1713.00,-0.0323
1712.00,-0.0318
1711.00,-0.0312
1710.00,-0.0305
1709.00,-0.0297
1708.00,-0.0288
1707.00,-0.0276
1706.00,-0.0263
1705.00,-0.0249
1704.00,-0.0233
1703.00,-0.0218
1702.00,-0.0200
1701.00,-0.0180
1700.00,-0.0158
1699.00,-0.0140
1698.00,-0.0127
1697.00,-0.0117
1696.00,-0.0109
1695.00,-0.0102
1694.00,-0.0096
1693.00,-0.0089
1692.00,-0.0082
1691.00,-0.0075
1690.00,-0.0068
1689.00,-0.0060
1688.00,-0.0052
1687.00,-0.0045
1686.00,-0.0036
1685.00,-0.0025
1684.00,-0.0013
1683.00,-0.0003
1682.00,0.0006
1681.00,0.0016
1680.00,0.0026
1679.00,0.0035
1678.00,0.0044
1677.00,0.0053
1676.00,0.0063
1675.00,0.0073
1674.00,0.0082
1673.00,0.0091
1672.00,0.0099
1671.00,0.0108
1670.00,0.0117
1669.00,0.0126
1668.00,0.0133
1667.00,0.0139
1666.00,0.0144
1665.00,0.0150
1664.00,0.0156
1663.00,0.0163
1662.00,0.0168
1661.00,0.0173
1660.00,0.0177
1659.00,0.0180
1658.00,0.0183
1657.00,0.0184
1656.00,0.0184
1655.00,0.0183
1654.00,0.0185
1653.00,0.0187
1652.00,0.0188
1651.00,0.0188
1650.00,0.0186
1649.00,0.0184
1648.00,0.0181
1647.00,0.0177
1646.00,0.0173
1645.00,0.0168
1644.00,0.0164
1643.00,0.0159
1642.00,0.0155
1641.00,0.0151
1640.00,0.0147
1639.00,0.0144
1638.00,0.0140
1637.00,0.0138
1636.00,0.0138
1635.00,0.0138
1634.00,0.0138
1633.00,0.0138
1632.00,0.0139
1631.00,0.0140
1630.00,0.0144
1629.00,0.0151
1628.00,0.0160
1627.00,0.0170
1626.00,0.0179
1625.00,0.0190
1624.00,0.0202
1623.00,0.0216
1622.00,0.0228
1621.00,0.0236
1620.00,0.0241
1619.00,0.0244
1618.00,0.0247
1617.00,0.0250
1616.00,0.0251
1615.00,0.0248
1614.00,0.0242
1613.00,0.0233
1612.00,0.0222
1611.00,0.0210
1610.00,0.0198
1609.00,0.0186
1608.00,0.0173
1607.00,0.0160
1606.00,0.0147
1605.00,0.0135
1604.00,0.0124
1603.00,0.0113
1602.00,0.0103
1601.00,0.0094
1600.00,0.0085
1599.00,0.0076
1598.00,0.0068
1597.00,0.0060
1596.00,0.0052
1595.00,0.0043
1594.00,0.0035
1593.00,0.0028
1592.00,0.0020
1591.00,0.0012
1590.00,0.0005
1589.00,-0.0002
1588.00,-0.0008
1587.00,-0.0014
1586.00,-0.0019
1585.00,-0.0023
1584.00,-0.0027
1583.00,-0.0030
1582.00,-0.0032
1581.00,-0.0034
1580.00,-0.0036
1579.00,-0.0037
1578.00,-0.0037
1577.00,-0.0036
1576.00,-0.0034
1575.00,-0.0031
1574.00,-0.0028
1573.00,-0.0025
1572.00,-0.0021
1571.00,-0.0017
1570.00,-0.0010
1569.00,-0.0004
1568.00,0.0002
1567.00,0.0009
1566.00,0.0018
1565.00,0.0027
1564.00,0.0036
1563.00,0.0045
1562.00,0.0052
1561.00,0.0062
1560.00,0.0076
1559.00,0.0095
1558.00,0.0110
1557.00,0.0121
1556.00,0.0131
1555.00,0.0142
1554.00,0.0154
1553.00,0.0166
1552.00,0.0178
1551.00,0.0190
1550.00,0.0202
1549.00,0.0213
1548.00,0.0224
1547.00,0.0233
1546.00,0.0244
1545.00,0.0255
1544.00,0.0266
1543.00,0.0276
1542.00,0.0286
1541.00,0.0298
1540.00,0.0311
1539.00,0.0321
1538.00,0.0330
1537.00,0.0337
1536.00,0.0343
1535.00,0.0351
1534.00,0.0360
1533.00,0.0370
1532.00,0.0379
1531.00,0.0385
1530.00,0.0392
1529.00,0.0398
1528.00,0.0406
1527.00,0.0413
1526.00,0.0422
1525.00,0.0430
1524.00,0.0438
1523.00,0.0447
1522.00,0.0459
1521.00,0.0473
1520.00,0.0485
1519.00,0.0496
1518.00,0.0507
1517.00,0.0517
1516.00,0.0525
1515.00,0.0530
1514.00,0.0532
1513.00,0.0532
1512.00,0.0531
1511.00,0.0528
1510.00,0.0524
1509.00,0.0519
1508.00,0.0514
1507.00,0.0509
1506.00,0.0502
1505.00,0.0493
1504.00,0.0484
1503.00,0.0473
1502.00,0.0461
1501.00,0.0449
1500.00,0.0437
1499.00,0.0425
1498.00,0.0411
1497.00,0.0397
1496.00,0.0382
1495.00,0.0367
1494.00,0.0351
1493.00,0.0335
1492.00,0.0318
1491.00,0.0301
1490.00,0.0284
1489.00,0.0266
1488.00,0.0249
1487.00,0.0231
1486.00,0.0214
1485.00,0.0198
1484.00,0.0183
1483.00,0.0169
1482.00,0.0155
1481.00,0.0142
1480.00,0.0130
1479.00,0.0120
1478.00,0.0110
1477.00,0.0101
1476.00,0.0093
1475.00,0.0086
1474.00,0.0080
1473.00,0.0076
1472.00,0.0073
1471.00,0.0071
1470.00,0.0068
1469.00,0.0066
1468.00,0.0063
1467.00,0.0060
1466.00,0.0057
1465.00,0.0054
1464.00,0.0051
1463.00,0.0049
1462.00,0.0049
1461.00,0.0049
1460.00,0.0051
1459.00,0.0053
1458.00,0.0058
1457.00,0.0064
1456.00,0.0071
1455.00,0.0077
1454.00,0.0082
1453.00,0.0085
1452.00,0.0087
1451.00,0.0088
1450.00,0.0088
1449.00,0.0088
1448.00,0.0088
1447.00,0.0087
1446.00,0.0085
1445.00,0.0082
1444.00,0.0078
1443.00,0.0073
1442.00,0.0067
1441.00,0.0061
1440.00,0.0054
1439.00,0.0047
1438.00,0.0039
1437.00,0.0031
1436.00,0.0024
1435.00,0.0019
1434.00,0.0013
1433.00,0.0008
1432.00,0.0003
1431.00,-0.0002
1430.00,-0.0006
1429.00,-0.0009
1428.00,-0.0012
1427.00,-0.0014
1426.00,-0.0016
1425.00,-0.0016
1424.00,-0.0015
1423.00,-0.0014
1422.00,-0.0013
1421.00,-0.0013
1420.00,-0.0010
1419.00,-0.0007
1418.00,-0.0002
1417.00,0.0002
1416.00,0.0007
1415.00,0.0011
1414.00,0.0015
1413.00,0.0019
1412.00,0.0023
1411.00,0.0027
1410.00,0.0030
1409.00,0.0033
1408.00,0.0037
1407.00,0.0039
1406.00,0.0042
1405.00,0.0044
1404.00,0.0045
1403.00,0.0046
1402.00,0.0046
1401.00,0.0046
1400.00,0.0046
1399.00,0.0046
1398.00,0.0046
1397.00,0.0045
1396.00,0.0044
1395.00,0.0043
1394.00,0.0042
1393.00,0.0041
1392.00,0.0041
1391.00,0.0040
1390.00,0.0039
1389.00,0.0037
1388.00,0.0036
1387.00,0.0033
1386.00,0.0031
1385.00,0.0028
1384.00,0.0024
1383.00,0.0021
1382.00,0.0018
1381.00,0.0015
1380.00,0.0012
1379.00,0.0010
1378.00,0.0008
1377.00,0.0006
1376.00,0.0004
1375.00,0.0002
1374.00,-0.0001
1373.00,-0.0004
1372.00,-0.0007
1371.00,-0.0009
1370.00,-0.0011
1369.00,-0.0013
1368.00,-0.0015
1367.00,-0.0018
1366.00,-0.0021
1365.00,-0.0024
1364.00,-0.0028
1363.00,-0.0031
1362.00,-0.0034
1361.00,-0.0036
1360.00,-0.0038
1359.00,-0.0039
1358.00,-0.0039
1357.00,-0.0039
1356.00,-0.0038
1355.00,-0.0037
1354.00,-0.0035
1353.00,-0.0034
1352.00,-0.0032
1351.00,-0.0030
1350.00,-0.0029
1349.00,-0.0027
1348.00,-0.0025
1347.00,-0.0023
1346.00,-0.0022
1345.00,-0.0021
1344.00,-0.0020
1343.00,-0.0019
1342.00,-0.0019
1341.00,-0.0018
1340.00,-0.0018
1339.00,-0.0017
1338.00,-0.0017
1337.00,-0.0017
1336.00,-0.0017
1335.00,-0.0018
1334.00,-0.0018
1333.00,-0.0019
1332.00,-0.0020
1331.00,-0.0021
1330.00,-0.0022
1329.00,-0.0023
1328.00,-0.0024
1327.00,-0.0026
1326.00,-0.0027
1325.00,-0.0028
1324.00,-0.0028
1323.00,-0.0029
1322.00,-0.0029
1321.00,-0.0029
1320.00,-0.0029
1319.00,-0.0030
1318.00,-0.0030
1317.00,-0.0030
1316.00,-0.0031
1315.00,-0.0031
1314.00,-0.0032
1313.00,-0.0032
1312.00,-0.0032
1311.00,-0.0033
1310.00,-0.0033
1309.00,-0.0034
1308.00,-0.0035
1307.00,-0.0036
1306.00,-0.0037
1305.00,-0.0038
1304.00,-0.0040
1303.00,-0.0041
1302.00,-0.0043
1301.00,-0.0044
1300.00,-0.0046
1299.00,-0.0048
1298.00,-0.0050
1297.00,-0.0052
1296.00,-0.0054
1295.00,-0.0055
1294.00,-0.0056
1293.00,-0.0058
1292.00,-0.0059
1291.00,-0.0059
1290.00,-0.0060
1289.00,-0.0061
1288.00,-0.0061
1287.00,-0.0062
1286.00,-0.0063
1285.00,-0.0064
1284.00,-0.0065
1283.00,-0.0066
1282.00,-0.0068
1281.00,-0.0070
1280.00,-0.0071
1279.00,-0.0073
1278.00,-0.0076
1277.00,-0.0078
1276.00,-0.0080
1275.00,-0.0082
1274.00,-0.0083
1273.00,-0.0085
1272.00,-0.0086
1271.00,-0.0088
1270.00,-0.0089
1269.00,-0.0091
1268.00,-0.0092
1267.00,-0.0094
1266.00,-0.0096
1265.00,-0.0098
1264.00,-0.0099
1263.00,-0.0100
1262.00,-0.0101
1261.00,-0.0102
1260.00,-0.0103
1259.00,-0.0104
1258.00,-0.0105
1257.00,-0.0105
1256.00,-0.0105
1255.00,-0.0104
1254.00,-0.0102
1253.00,-0.0100
1252.00,-0.0097
1251.00,-0.0093
1250.00,-0.0088
1249.00,-0.0084
1248.00,-0.0079
1247.00,-0.0075
1246.00,-0.0070
1245.00,-0.0066
1244.00,-0.0061
1243.00,-0.0057
1242.00,-0.0052
1241.00,-0.0048
1240.00,-0.0043
1239.00,-0.0038
1238.00,-0.0033
1237.00,-0.0027
1236.00,-0.0022
1235.00,-0.0017
1234.00,-0.0012
1233.00,-0.0007
1232.00,-0.0003
1231.00,0.0000
1230.00,0.0004
1229.00,0.0007
1228.00,0.0010
1227.00,0.0013
1226.00,0.0015
1225.00,0.0016
1224.00,0.0017
1223.00,0.0018
1222.00,0.0018
1221.00,0.0018
1220.00,0.0017
1219.00,0.0016
1218.00,0.0014
1217.00,0.0012
1216.00,0.0010
1215.00,0.0007
1214.00,0.0004
1213.00,0.0001
1212.00,-0.0002
1211.00,-0.0006
1210.00,-0.0009
1209.00,-0.0013
1208.00,-0.0017
1207.00,-0.0021
1206.00,-0.0026
1205.00,-0.0030
1204.00,-0.0035
1203.00,-0.0040
1202.00,-0.0045
1201.00,-0.0051
1200.00,-0.0056
1199.00,-0.0062
1198.00,-0.0067
1197.00,-0.0072
1196.00,-0.0077
1195.00,-0.0082
1194.00,-0.0086
1193.00,-0.0090
1192.00,-0.0095
1191.00,-0.0099
1190.00,-0.0103
1189.00,-0.0106
1188.00,-0.0110
1187.00,-0.0113
1186.00,-0.0116
1185.00,-0.0119
1184.00,-0.0122
1183.00,-0.0124
1182.00,-0.0127
1181.00,-0.0130
1180.00,-0.0133
1179.00,-0.0135
1178.00,-0.0136
1177.00,-0.0136
1176.00,-0.0135
1175.00,-0.0134
1174.00,-0.0133
1173.00,-0.0133
1172.00,-0.0132
1171.00,-0.0132
1170.00,-0.0131
1169.00,-0.0131
1168.00,-0.0130
1167.00,-0.0129
1166.00,-0.0129
1165.00,-0.0129
1164.00,-0.0128
1163.00,-0.0127
1162.00,-0.0127
1161.00,-0.0126
1160.00,-0.0126
1159.00,-0.0127
1158.00,-0.0128
1157.00,-0.0130
1156.00,-0.0131
1155.00,-0.0134
1154.00,-0.0136
1153.00,-0.0139
1152.00,-0.0141
1151.00,-0.0145
1150.00,-0.0148
1149.00,-0.0152
1148.00,-0.0155
1147.00,-0.0158
1146.00,-0.0161
1145.00,-0.0164
1144.00,-0.0167
1143.00,-0.0169
1142.00,-0.0171
1141.00,-0.0173
1140.00,-0.0175
1139.00,-0.0177
1138.00,-0.0179
1137.00,-0.0182
1136.00,-0.0184
1135.00,-0.0187
1134.00,-0.0189
1133.00,-0.0192
1132.00,-0.0194
1131.00,-0.0196
1130.00,-0.0197
1129.00,-0.0198
1128.00,-0.0199
1127.00,-0.0200
1126.00,-0.0200
1125.00,-0.0201
1124.00,-0.0202
1123.00,-0.0204
1122.00,-0.0205
1121.00,-0.0206
1120.00,-0.0207
1119.00,-0.0208
1118.00,-0.0209
1117.00,-0.0209
1116.00,-0.0208
1115.00,-0.0208
1114.00,-0.0207
1113.00,-0.0207
1112.00,-0.0207
1111.00,-0.0208
1110.00,-0.0208
1109.00,-0.0209
1108.00,-0.0209
1107.00,-0.0209
1106.00,-0.0209
1105.00,-0.0209
1104.00,-0.0210
1103.00,-0.0211
1102.00,-0.0211
1101.00,-0.0212
1100.00,-0.0213
1099.00,-0.0214
1098.00,-0.0214
1097.00,-0.0214
1096.00,-0.0213
1095.00,-0.0212
1094.00,-0.0211
1093.00,-0.0210
1092.00,-0.0209
1091.00,-0.0207
1090.00,-0.0204
1089.00,-0.0202
1088.00,-0.0199
1087.00,-0.0195
1086.00,-0.0191
1085.00,-0.0186
1084.00,-0.0182
1083.00,-0.0178
1082.00,-0.0174
1081.00,-0.0170
1080.00,-0.0166
1079.00,-0.0161
1078.00,-0.0157
1077.00,-0.0153
1076.00,-0.0149
1075.00,-0.0146
1074.00,-0.0143
1073.00,-0.0140
1072.00,-0.0137
1071.00,-0.0134
1070.00,-0.0132
1069.00,-0.0130
1068.00,-0.0127
1067.00,-0.0125
1066.00,-0.0123
1065.00,-0.0122
1064.00,-0.0121
1063.00,-0.0121
1062.00,-0.0122
1061.00,-0.0123
1060.00,-0.0125
1059.00,-0.0127
1058.00,-0.0129
1057.00,-0.0132
1056.00,-0.0135
1055.00,-0.0137
1054.00,-0.0140
1053.00,-0.0143
1052.00,-0.0145
1051.00,-0.0148
1050.00,-0.0150
1049.00,-0.0152
1048.00,-0.0154
1047.00,-0.0157
1046.00,-0.0160
1045.00,-0.0163
1044.00,-0.0165
1043.00,-0.0168
1042.00,-0.0171
1041.00,-0.0174
1040.00,-0.0177
1039.00,-0.0180
1038.00,-0.0182
1037.00,-0.0185
1036.00,-0.0187
1035.00,-0.0190
1034.00,-0.0193
1033.00,-0.0195
1032.00,-0.0198
1031.00,-0.0201
1030.00,-0.0204
1029.00,-0.0208
1028.00,-0.0211
1027.00,-0.0215
1026.00,-0.0220
1025.00,-0.0225
1024.00,-0.0230
1023.00,-0.0235
1022.00,-0.0240
1021.00,-0.0244
1020.00,-0.0248
1019.00,-0.0252
1018.00,-0.0255
1017.00,-0.0259
1016.00,-0.0262
1015.00,-0.0265
1014.00,-0.0268
1013.00,-0.0272
1012.00,-0.0274
1011.00,-0.0277
1010.00,-0.0279
1009.00,-0.0282
1008.00,-0.0284
1007.00,-0.0287
1006.00,-0.0289
1005.00,-0.0291
1004.00,-0.0293
1003.00,-0.0294
1002.00,-0.0296
1001.00,-0.0299
1000.00,-0.0300
999.00,-0.0302
998.00,-0.0304
997.00,-0.0305
996.00,-0.0307
995.00,-0.0307
994.00,-0.0308
993.00,-0.0309
992.00,-0.0310
991.00,-0.0312
990.00,-0.0313
989.00,-0.0314
988.00,-0.0314
987.00,-0.0315
986.00,-0.0316
985.00,-0.0316
984.00,-0.0317
983.00,-0.0317
982.00,-0.0317
981.00,-0.0317
980.00,-0.0318
979.00,-0.0318
978.00,-0.0320
977.00,-0.0321
976.00,-0.0324
975.00,-0.0326
974.00,-0.0328
973.00,-0.0330
972.00,-0.0332
971.00,-0.0333
970.00,-0.0335
969.00,-0.0336
968.00,-0.0338
967.00,-0.0339
966.00,-0.0339
965.00,-0.0339
964.00,-0.0339
963.00,-0.0340
962.00,-0.0341
961.00,-0.0342
960.00,-0.0344
959.00,-0.0346
958.00,-0.0348
957.00,-0.0350
956.00,-0.0351
955.00,-0.0353
954.00,-0.0355
953.00,-0.0357
952.00,-0.0359
951.00,-0.0360
950.00,-0.0361
949.00,-0.0361
948.00,-0.0361
947.00,-0.0361
946.00,-0.0361
945.00,-0.0361
944.00,-0.0360
943.00,-0.0360
942.00,-0.0359
941.00,-0.0358
940.00,-0.0357
939.00,-0.0356
938.00,-0.0355
937.00,-0.0353
936.00,-0.0351
935.00,-0.0349
934.00,-0.0347
933.00,-0.0346
932.00,-0.0345
931.00,-0.0344
930.00,-0.0343
929.00,-0.0342
928.00,-0.0342
927.00,-0.0344
926.00,-0.0346
925.00,-0.0349
924.00,-0.0352
923.00,-0.0355
922.00,-0.0358
921.00,-0.0361
920.00,-0.0364
919.00,-0.0367
918.00,-0.0369
917.00,-0.0371
916.00,-0.0373
915.00,-0.0374
914.00,-0.0376
913.00,-0.0378
912.00,-0.0378
911.00,-0.0378
910.00,-0.0378
909.00,-0.0378
908.00,-0.0377
907.00,-0.0376
906.00,-0.0376
905.00,-0.0374
904.00,-0.0373
903.00,-0.0372
902.00,-0.0371
901.00,-0.0370
900.00,-0.0369
899.00,-0.0368
898.00,-0.0367
897.00,-0.0367
896.00,-0.0368
895.00,-0.0368
894.00,-0.0369
893.00,-0.0369
892.00,-0.0370
891.00,-0.0370
890.00,-0.0370
889.00,-0.0370
888.00,-0.0370
887.00,-0.0370
886.00,-0.0369
885.00,-0.0368
884.00,-0.0367
883.00,-0.0366
882.00,-0.0365
881.00,-0.0364
880.00,-0.0362
879.00,-0.0360
878.00,-0.0358
877.00,-0.0356
876.00,-0.0354
875.00,-0.0353
874.00,-0.0352
873.00,-0.0353
872.00,-0.0354
871.00,-0.0355
870.00,-0.0358
869.00,-0.0360
868.00,-0.0363
867.00,-0.0366
866.00,-0.0368
865.00,-0.0370
864.00,-0.0373
863.00,-0.0375
862.00,-0.0377
861.00,-0.0379
860.00,-0.0380
859.00,-0.0381
858.00,-0.0382
857.00,-0.0382
856.00,-0.0382
855.00,-0.0383
854.00,-0.0384
853.00,-0.0385
852.00,-0.0386
851.00,-0.0387
850.00,-0.0387
849.00,-0.0388
848.00,-0.0387
847.00,-0.0387
846.00,-0.0387
845.00,-0.0388
844.00,-0.0389
843.00,-0.0389
842.00,-0.0390
841.00,-0.0390
840.00,-0.0390
839.00,-0.0389
838.00,-0.0388
837.00,-0.0387
836.00,-0.0386
835.00,-0.0385
834.00,-0.0384
833.00,-0.0384
832.00,-0.0383
831.00,-0.0382
830.00,-0.0381
829.00,-0.0380
828.00,-0.0379
827.00,-0.0378
826.00,-0.0377
825.00,-0.0378
824.00,-0.0378
823.00,-0.0379
822.00,-0.0380
821.00,-0.0379
820.00,-0.0379
819.00,-0.0378
818.00,-0.0377
817.00,-0.0377
816.00,-0.0376
815.00,-0.0375
814.00,-0.0374
813.00,-0.0374
812.00,-0.0373
811.00,-0.0371
810.00,-0.0369
809.00,-0.0368
808.00,-0.0367
807.00,-0.0366
806.00,-0.0365
805.00,-0.0364
804.00,-0.0363
803.00,-0.0363
802.00,-0.0363
801.00,-0.0362
800.00,-0.0362
799.00,-0.0362
798.00,-0.0362
797.00,-0.0362
796.00,-0.0362
795.00,-0.0362
794.00,-0.0362
793.00,-0.0362
792.00,-0.0361
791.00,-0.0360
790.00,-0.0359
789.00,-0.0358
788.00,-0.0357
787.00,-0.0357
786.00,-0.0357
785.00,-0.0357
784.00,-0.0356
783.00,-0.0356
782.00,-0.0356
781.00,-0.0356
780.00,-0.0355
779.00,-0.0355
778.00,-0.0353
777.00,-0.0352
776.00,-0.0351
775.00,-0.0350
774.00,-0.0350
773.00,-0.0350
772.00,-0.0351
771.00,-0.0354
770.00,-0.0359
769.00,-0.0363
768.00,-0.0363
767.00,-0.0358
766.00,-0.0350
765.00,-0.0341
764.00,-0.0334
763.00,-0.0330
762.00,-0.0327
761.00,-0.0324
760.00,-0.0322
759.00,-0.0320
758.00,-0.0317
757.00,-0.0314
756.00,-0.0311
755.00,-0.0309
754.00,-0.0306
753.00,-0.0303
752.00,-0.0300
751.00,-0.0296
750.00,-0.0293
749.00,-0.0291
748.00,-0.0289
747.00,-0.0286
746.00,-0.0284
745.00,-0.0282
744.00,-0.0281
743.00,-0.0279
742.00,-0.0278
741.00,-0.0277
740.00,-0.0276
739.00,-0.0275
738.00,-0.0274
737.00,-0.0273
736.00,-0.0273
735.00,-0.0272
734.00,-0.0271
733.00,-0.0269
732.00,-0.0266
731.00,-0.0263
730.00,-0.0260
729.00,-0.0257
728.00,-0.0254
727.00,-0.0250
726.00,-0.0246
725.00,-0.0243
724.00,-0.0239
723.00,-0.0235
722.00,-0.0230
721.00,-0.0225
720.00,-0.0219
719.00,-0.0213
718.00,-0.0208
717.00,-0.0203
716.00,-0.0197
715.00,-0.0189
714.00,-0.0181
713.00,-0.0173
712.00,-0.0166
711.00,-0.0160
710.00,-0.0154
709.00,-0.0147
708.00,-0.0140
707.00,-0.0133
706.00,-0.0125
705.00,-0.0116
704.00,-0.0108
703.00,-0.0099
702.00,-0.0091
701.00,-0.0085
700.00,-0.0080
699.00,-0.0078
698.00,-0.0076
697.00,-0.0075
696.00,-0.0074
695.00,-0.0073
694.00,-0.0074
693.00,-0.0074
692.00,-0.0075
691.00,-0.0076
690.00,-0.0077
689.00,-0.0076
688.00,-0.0075
687.00,-0.0073
686.00,-0.0072
685.00,-0.0070
684.00,-0.0069
683.00,-0.0068
682.00,-0.0067
681.00,-0.0067
680.00,-0.0066
679.00,-0.0066
678.00,-0.0065
677.00,-0.0065
676.00,-0.0064
675.00,-0.0064
674.00,-0.0063
673.00,-0.0063
672.00,-0.0064
671.00,-0.0064
670.00,-0.0065
669.00,-0.0066
668.00,-0.0067
667.00,-0.0066
666.00,-0.0064
665.00,-0.0063
664.00,-0.0062
663.00,-0.0061
662.00,-0.0060
661.00,-0.0059
660.00,-0.0058
659.00,-0.0057
658.00,-0.0057
657.00,-0.0056
656.00,-0.0055
655.00,-0.0054
654.00,-0.0053
653.00,-0.0052
652.00,-0.0051
651.00,-0.0050
650.00,-0.0049
649.00,-0.0047
648.00,-0.0046
647.00,-0.0044
646.00,-0.0042
645.00,-0.0041
644.00,-0.0039
643.00,-0.0036
642.00,-0.0034
641.00,-0.0031
640.00,-0.0029
639.00,-0.0028
638.00,-0.0027
637.00,-0.0026
636.00,-0.0024
635.00,-0.0022
634.00,-0.0020
633.00,-0.0018
632.00,-0.0016
631.00,-0.0015
630.00,-0.0013
629.00,-0.0012
628.00,-0.0011
627.00,-0.0011
626.00,-0.0010
625.00,-0.0010
624.00,-0.0009
623.00,-0.0008
622.00,-0.0009
621.00,-0.0009
620.00,-0.0009
619.00,-0.0008
618.00,-0.0008
617.00,-0.0009
616.00,-0.0009
615.00,-0.0010
614.00,-0.0012
613.00,-0.0013
612.00,-0.0014
611.00,-0.0015
610.00,-0.0016
609.00,-0.0017
608.00,-0.0019
607.00,-0.0020
606.00,-0.0021
605.00,-0.0023
604.00,-0.0024
603.00,-0.0024
602.00,-0.0022
601.00,-0.0022
600.00,-0.0022
599.00,-0.0023
598.00,-0.0025
597.00,-0.0026
596.00,-0.0027
595.00,-0.0028
594.00,-0.0029
593.00,-0.0029
592.00,-0.0029
591.00,-0.0029
590.00,-0.0027
589.00,-0.0024
588.00,-0.0022
587.00,-0.0021
586.00,-0.0020
585.00,-0.0020
584.00,-0.0019
583.00,-0.0019
582.00,-0.0019
581.00,-0.0019
580.00,-0.0019
579.00,-0.0019
578.00,-0.0018
577.00,-0.0017
576.00,-0.0016
575.00,-0.0014
574.00,-0.0012
573.00,-0.0012
572.00,-0.0012
571.00,-0.0013
570.00,-0.0015
569.00,-0.0016
568.00,-0.0017
567.00,-0.0017
566.00,-0.0016
565.00,-0.0014
564.00,-0.0012
563.00,-0.0010
562.00,-0.0009
561.00,-0.0008
560.00,-0.0007
559.00,-0.0007
558.00,-0.0007
557.00,-0.0006
556.00,-0.0004
555.00,-0.0002
554.00,-0.0001
553.00,-0.0003
552.00,-0.0004
551.00,-0.0006
550.00,-0.0005
549.00,-0.0004
548.00,-0.0003
547.00,-0.0004
546.00,-0.0006
545.00,-0.0007
544.00,-0.0008
543.00,-0.0008
542.00,-0.0007
541.00,-0.0006
540.00,-0.0004
539.00,-0.0004
538.00,-0.0005
537.00,-0.0007
536.00,-0.0008
535.00,-0.0008
534.00,-0.0008
533.00,-0.0007
532.00,-0.0006
531.00,-0.0005
530.00,-0.0006
529.00,-0.0008
528.00,-0.0008
527.00,-0.0008
526.00,-0.0008
525.00,-0.0007
524.00,-0.0005
523.00,-0.0005
522.00,-0.0007
521.00,-0.0010
520.00,-0.0013
519.00,-0.0015
518.00,-0.0017
517.00,-0.0019
516.00,-0.0020
515.00,-0.0020
514.00,-0.0021
513.00,-0.0023
512.00,-0.0028
511.00,-0.0033
510.00,-0.0038
509.00,-0.0040
508.00,-0.0040
507.00,-0.0037
506.00,-0.0034
505.00,-0.0031
504.00,-0.0029
503.00,-0.0029
502.00,-0.0030
501.00,-0.0032
500.00,-0.0032
499.00,-0.0033
498.00,-0.0034
497.00,-0.0036
496.00,-0.0039
495.00,-0.0041
494.00,-0.0043
493.00,-0.0044
492.00,-0.0043
491.00,-0.0043
490.00,-0.0043
489.00,-0.0045
488.00,-0.0047
487.00,-0.0048
486.00,-0.0047
485.00,-0.0047
484.00,-0.0047
483.00,-0.0049
482.00,-0.0052
481.00,-0.0053
480.00,-0.0052
479.00,-0.0051
478.00,-0.0050
477.00,-0.0051
476.00,-0.0052
475.00,-0.0055
474.00,-0.0059
473.00,-0.0060
472.00,-0.0058
471.00,-0.0055
470.00,-0.0053
469.00,-0.0051
468.00,-0.0049
467.00,-0.0050
466.00,-0.0053
465.00,-0.0055
464.00,-0.0055
463.00,-0.0053
462.00,-0.0051
461.00,-0.0051
460.00,-0.0054
459.00,-0.0056
458.00,-0.0060
457.00,-0.0064
456.00,-0.0066
455.00,-0.0065
454.00,-0.0061
453.00,-0.0058
452.00,-0.0058
451.00,-0.0062
450.00,-0.0067
449.00,-0.0071
448.00,-0.0072
447.00,-0.0073
446.00,-0.0072
445.00,-0.0072
444.00,-0.0072
443.00,-0.0077
442.00,-0.0085
441.00,-0.0092
440.00,-0.0096
439.00,-0.0098
438.00,-0.0100
437.00,-0.0103
436.00,-0.0105
435.00,-0.0105
434.00,-0.0106
433.00,-0.0109
432.00,-0.0114
431.00,-0.0121
430.00,-0.0128
429.00,-0.0132
428.00,-0.0133
427.00,-0.0132
426.00,-0.0132
425.00,-0.0135
424.00,-0.0137
423.00,-0.0136
422.00,-0.0132
421.00,-0.0129
420.00,-0.0130
419.00,-0.0135
418.00,-0.0141
417.00,-0.0143
416.00,-0.0141
415.00,-0.0137
414.00,-0.0135
413.00,-0.0139
412.00,-0.0149
411.00,-0.0162
410.00,-0.0171
409.00,-0.0175
408.00,-0.0178
407.00,-0.0182
406.00,-0.0186
405.00,-0.0191
404.00,-0.0201
403.00,-0.0211
402.00,-0.0211
401.00,-0.0197
400.00,-0.0179
